# Columns:
#   distance along LOS (in CHIMPs)
#   peculiar velocity  (in km/s)
#   temperature (K)
#   HI number density
# pos=(203.591,61.3153,68.2484), angles=(1.50761,3.40968)
  0.00221    -16.3 1.333e+04 2.994e-09
  0.00979    -15.9 1.325e+04 2.387e-09
  0.02708    -14.5 1.324e+04 2.511e-09
  0.04738    -14.8 1.336e+04 2.326e-09
  0.07606    -13.2 1.333e+04 2.368e-09
  0.11665    -11.7 1.331e+04 2.460e-09
  0.15724    -10.2 1.333e+04 2.736e-09
  0.18215     -9.0 1.339e+04 3.329e-09
  0.20244     -9.7 1.354e+04 3.141e-09
  0.23842     -8.9 1.357e+04 4.134e-09
  0.27901     -8.4 1.364e+04 4.935e-09
  0.31691     -8.0 1.365e+04 4.719e-09
  0.33721     -8.2 1.371e+04 3.879e-09
  0.36019     -7.4 1.376e+04 2.871e-09
  0.40078     -6.4 1.392e+04 1.762e-09
  0.44137     -5.5 1.415e+04 1.078e-09
  0.47198     -4.7 1.402e+04 8.964e-10
  0.49227     -4.9 1.401e+04 8.968e-10
  0.52255     -3.6 1.397e+04 9.055e-10
  0.56314     -2.4 1.404e+04 9.808e-10
  0.60323     -1.3 1.400e+04 1.202e-09
  0.62352     -1.3 1.389e+04 1.237e-09
  0.62704     -0.3 1.385e+04 1.524e-09
  0.64733     -1.0 1.387e+04 1.536e-09
  0.68491     -0.1 1.387e+04 1.841e-09
  0.72551      0.7 1.392e+04 2.131e-09
  0.76181      1.2 1.415e+04 2.438e-09
  0.78210      0.6 1.416e+04 2.134e-09
  0.80669      0.9 1.441e+04 2.462e-09
  0.84728      1.1 1.471e+04 2.662e-09
  0.88787      1.1 1.483e+04 2.655e-09
  0.91687      1.3 1.472e+04 2.586e-09
  0.93717      1.4 1.455e+04 2.539e-09
  0.96905      1.7 1.447e+04 2.635e-09
  0.99430      1.6 1.447e+04 2.978e-09
  1.00435      1.5 1.445e+04 3.122e-09
  1.01959      1.1 1.442e+04 3.859e-09
  1.03989      0.7 1.431e+04 5.150e-09
  1.06018      0.4 1.404e+04 6.662e-09
  1.07174      0.1 1.395e+04 6.712e-09
  1.08189     -0.0 1.386e+04 6.687e-09
  1.10077     -0.4 1.376e+04 6.438e-09
  1.13131      0.2 1.343e+04 4.851e-09
  1.16176      0.8 1.330e+04 3.782e-09
  1.18195      0.7 1.339e+04 3.179e-09
  1.20660      1.2 1.329e+04 2.518e-09
  1.22700      1.4 1.327e+04 2.465e-09
  1.23726      2.5 1.301e+04 2.281e-09
  1.25755      1.4 1.303e+04 2.479e-09
  1.29377      3.1 1.306e+04 2.628e-09
  1.33436      4.8 1.314e+04 3.014e-09
  1.36176      6.4 1.307e+04 3.390e-09
  1.38206      6.8 1.306e+04 3.390e-09
  1.41554      8.5 1.292e+04 3.762e-09
  1.45613     10.2 1.287e+04 4.137e-09
  1.48648     11.7 1.294e+04 4.266e-09
  1.50648     12.5 1.300e+04 4.252e-09
  1.51663     13.0 1.298e+04 4.315e-09
  1.52697     13.8 1.297e+04 4.225e-09
  1.54393     14.6 1.300e+04 4.091e-09
  1.55408     14.1 1.309e+04 4.727e-09
  1.56756     14.9 1.312e+04 4.473e-09
  1.58401     15.7 1.314e+04 4.208e-09
  1.59416     16.3 1.310e+04 4.123e-09
  1.60815     17.4 1.303e+04 3.695e-09
  1.62845     17.9 1.306e+04 3.483e-09
  1.65150     18.8 1.301e+04 3.150e-09
  1.67189     20.3 1.294e+04 3.091e-09
  1.69968     21.9 1.300e+04 2.691e-09
  1.74027     23.3 1.304e+04 2.357e-09
  1.78086     24.9 1.305e+04 2.326e-09
  1.80666     26.3 1.313e+04 2.490e-09
  1.82695     28.0 1.320e+04 2.517e-09
  1.85089     27.9 1.324e+04 2.773e-09
  1.86094     27.1 1.335e+04 2.965e-09
  1.87199     27.4 1.332e+04 3.469e-09
  1.88399     27.6 1.327e+04 4.082e-09
  1.89414     28.4 1.332e+04 4.266e-09
  1.91258     28.4 1.324e+04 5.053e-09
  1.93288     28.4 1.313e+04 5.864e-09
  1.95138     28.2 1.303e+04 6.556e-09
  1.96152     28.8 1.310e+04 7.670e-09
  1.97347     28.4 1.301e+04 8.449e-09
  1.99376     27.9 1.290e+04 8.927e-09
  2.01406     27.4 1.281e+04 9.291e-09
  2.02891     26.9 1.278e+04 9.889e-09
  2.03906     27.5 1.279e+04 1.072e-08
  2.05465     26.9 1.278e+04 1.120e-08
  2.07494     26.1 1.288e+04 1.195e-08
  2.09639     24.3 1.264e+04 1.060e-08
  2.11678     25.7 1.270e+04 1.204e-08
  2.14617     25.3 1.240e+04 9.992e-09
  2.18676     25.5 1.201e+04 7.354e-09
  2.22735     25.9 1.158e+04 5.465e-09
  2.25155     27.1 1.122e+04 4.456e-09
  2.27185     27.8 1.136e+04 6.692e-09
  2.30854     29.1 1.121e+04 6.138e-09
  2.34913     30.4 1.126e+04 6.715e-09
  2.38632     31.6 1.141e+04 8.541e-09
  2.40661     32.2 1.132e+04 8.844e-09
  2.43031     33.2 1.155e+04 1.096e-08
  2.46472     33.9 1.160e+04 1.171e-08
  2.48502     31.7 1.160e+04 1.192e-08
  2.51149     32.5 1.132e+04 9.918e-09
  2.54138     33.4 1.086e+04 7.276e-09
  2.56168     34.8 1.074e+04 7.302e-09
  2.59267     36.0 1.034e+04 5.133e-09
  2.63326     37.3 9.966e+03 3.816e-09
  2.67385     38.9 9.785e+03 3.644e-09
  2.69644     40.8 9.884e+03 3.887e-09
  2.71674     42.6 9.878e+03 3.883e-09
  2.74479     43.0 9.979e+03 4.122e-09
  2.76363     43.4 1.010e+04 4.456e-09
  2.77378     43.8 1.010e+04 4.446e-09
  2.78154     44.0 1.027e+04 5.031e-09
  2.79169     43.8 1.042e+04 5.561e-09
  2.80557     43.8 1.063e+04 6.504e-09
  2.82587     43.5 1.092e+04 8.099e-09
  2.84116     42.5 1.153e+04 1.211e-08
  2.85131     43.2 1.131e+04 1.104e-08
  2.86646     41.8 1.226e+04 1.917e-08
  2.88676     40.4 1.369e+04 4.097e-08
  2.90705     39.3 1.498e+04 7.646e-08
  2.91869     37.9 1.558e+04 8.743e-08
  2.92884     38.2 1.553e+04 8.772e-08
  2.94764     36.5 1.562e+04 8.476e-08
  2.96794     34.7 1.539e+04 6.582e-08
  2.98608     32.7 1.482e+04 4.083e-08
  2.99623     33.1 1.490e+04 4.929e-08
  3.00853     30.9 1.418e+04 3.448e-08
  3.02882     29.3 1.379e+04 3.257e-08
  3.04912     28.4 1.382e+04 3.381e-08
  3.06361     27.6 1.408e+04 3.877e-08
  3.07376     27.2 1.405e+04 3.912e-08
  3.08841     26.2 1.431e+04 4.431e-08
  3.09855     25.2 1.416e+04 4.004e-08
  3.11000     24.3 1.404e+04 3.812e-08
  3.13030     23.7 1.365e+04 3.184e-08
  3.14114     23.1 1.323e+04 2.390e-08
  3.15129     23.0 1.303e+04 2.372e-08
  3.17089     22.2 1.264e+04 1.715e-08
  3.19118     21.7 1.230e+04 1.417e-08
  3.20853     21.7 1.223e+04 1.400e-08
  3.21867     21.7 1.212e+04 1.367e-08
  3.23177     22.1 1.214e+04 1.383e-08
  3.25207     22.4 1.226e+04 1.425e-08
  3.27237     22.9 1.239e+04 1.475e-08
  3.28606     23.0 1.244e+04 1.476e-08
  3.29620     22.9 1.230e+04 1.420e-08
  3.31296     23.3 1.224e+04 1.383e-08
  3.33325     23.5 1.218e+04 1.330e-08
  3.36379     24.2 1.227e+04 1.369e-08
  3.40448     25.6 1.228e+04 1.189e-08
  3.43117     27.1 1.236e+04 1.180e-08
  3.45146     26.5 1.228e+04 1.222e-08
  3.47542     27.4 1.260e+04 1.294e-08
  3.49561     27.9 1.281e+04 1.352e-08
  3.50850     28.5 1.293e+04 1.435e-08
  3.51865     28.0 1.280e+04 1.384e-08
  3.53620     28.5 1.294e+04 1.479e-08
  3.55650     28.9 1.313e+04 1.523e-08
  3.57589     29.4 1.324e+04 1.486e-08
  3.58603     28.8 1.301e+04 1.293e-08
  3.59709     29.4 1.307e+04 1.191e-08
  3.61738     29.7 1.312e+04 1.084e-08
  3.64793     30.4 1.306e+04 1.037e-08
  3.68861     31.7 1.286e+04 8.508e-09
  3.71248     33.5 1.262e+04 6.593e-09
  3.72457     33.8 1.265e+04 6.161e-09
  3.74129     33.9 1.248e+04 4.559e-09
  3.76979     36.2 1.240e+04 4.306e-09
  3.81039     38.8 1.229e+04 4.339e-09
  3.85098     41.5 1.226e+04 4.382e-09
  3.87606     44.3 1.222e+04 4.505e-09
  3.89636     45.0 1.223e+04 2.952e-09
  3.93216     47.8 1.215e+04 3.385e-09
  3.97275     50.5 1.218e+04 4.422e-09
  4.01083     53.2 1.232e+04 6.128e-09
  4.03112     53.8 1.225e+04 4.653e-09
  4.05393     56.3 1.235e+04 6.751e-09
  4.09452     58.3 1.239e+04 8.243e-09
  4.13511     59.9 1.236e+04 8.204e-09
  4.16589     61.6 1.213e+04 7.324e-09
  4.18619     62.4 1.218e+04 6.623e-09
  4.21629     64.3 1.195e+04 5.517e-09
  4.25688     66.2 1.164e+04 3.963e-09
  4.29747     68.6 1.136e+04 3.009e-09
  4.32095     71.2 1.133e+04 2.874e-09
  4.32930     70.6 1.149e+04 3.364e-09
  4.34641     71.8 1.168e+04 5.062e-09
  4.36841     72.7 1.158e+04 4.859e-09
  4.38814     73.7 1.155e+04 4.827e-09
  4.39829     73.9 1.160e+04 4.862e-09
  4.40890     74.7 1.165e+04 5.137e-09
  4.42920     75.4 1.178e+04 5.718e-09
  4.44949     76.1 1.199e+04 6.783e-09
  4.46567     76.5 1.229e+04 8.669e-09
  4.47582     75.9 1.253e+04 1.042e-08
  4.49008     75.9 1.302e+04 1.566e-08
  4.51038     75.6 1.369e+04 2.477e-08
  4.53067     75.2 1.455e+04 3.981e-08
  4.54321     74.4 1.539e+04 6.040e-08
  4.55335     72.9 1.545e+04 6.309e-08
  4.57126     71.7 1.576e+04 7.030e-08
  4.59156     70.4 1.561e+04 6.255e-08
  4.61059     68.9 1.510e+04 4.199e-08
  4.62074     67.0 1.401e+04 2.197e-08
  4.63215     64.8 1.327e+04 1.359e-08
  4.64303     62.7 1.265e+04 1.078e-08
  4.65318     60.8 1.273e+04 1.126e-08
  4.67274     60.0 1.255e+04 1.087e-08
  4.68812     59.9 1.259e+04 1.117e-08
  4.69827     59.2 1.290e+04 1.355e-08
  4.71333     59.1 1.309e+04 1.458e-08
  4.73362     59.0 1.331e+04 1.550e-08
  4.75392     58.7 1.356e+04 1.671e-08
  4.76565     58.1 1.387e+04 1.961e-08
  4.77580     56.8 1.380e+04 1.830e-08
  4.79451     56.0 1.394e+04 2.009e-08
  4.81481     54.9 1.409e+04 2.292e-08
  4.83304     53.5 1.416e+04 2.465e-08
  4.84318     52.3 1.323e+04 1.185e-08
  4.85540     50.9 1.294e+04 1.042e-08
  4.87569     49.6 1.268e+04 9.099e-09
  4.89599     48.4 1.244e+04 8.020e-09
  4.91057     47.5 1.225e+04 7.254e-09
  4.92071     47.6 1.194e+04 5.852e-09
  4.93658     47.4 1.189e+04 5.986e-09
  4.94990     47.7 1.181e+04 6.241e-09
  4.96005     47.8 1.170e+04 5.383e-09
  4.97717     48.2 1.163e+04 5.612e-09
  4.98810     48.6 1.157e+04 5.620e-09
  4.99825     49.3 1.170e+04 5.719e-09
  5.01776     49.2 1.177e+04 5.797e-09
  5.03805     48.5 1.192e+04 6.172e-09
  5.05548     47.0 1.238e+04 7.875e-09
  5.06563     45.4 1.372e+04 1.671e-08
  5.07864     43.8 1.451e+04 2.944e-08
  5.09894     42.5 1.500e+04 4.148e-08
  5.11923     41.1 1.509e+04 4.555e-08
  5.13301     39.8 1.489e+04 4.157e-08
  5.14316     37.6 1.511e+04 4.785e-08
  5.15982     36.1 1.449e+04 3.424e-08
  5.18012     34.5 1.386e+04 2.458e-08
  5.20040     32.7 1.368e+04 2.230e-08
  5.22069     26.9 1.359e+04 2.057e-08
  5.24101     23.6 1.444e+04 3.177e-08
  5.25618     20.0 1.542e+04 5.394e-08
  5.26174     19.6 1.549e+04 6.094e-08
  5.26682     18.2 1.566e+04 6.775e-08
  5.27642     16.3 1.644e+04 8.343e-08
  5.28291     14.6 1.666e+04 9.120e-08
  5.28798     13.4 1.613e+04 7.658e-08
  5.30184      9.6 1.602e+04 7.095e-08
  5.32219      5.6 1.512e+04 5.276e-08
  5.34248      2.4 1.368e+04 3.131e-08
  5.35546     -0.2 1.250e+04 1.709e-08
  5.36561     -0.3 1.251e+04 1.719e-08
  5.38307     -3.0 1.247e+04 1.411e-08
  5.40337     -6.9 1.344e+04 1.782e-08
  5.42284    -11.6 1.527e+04 3.661e-08
  5.43299    -12.2 1.697e+04 9.697e-08
  5.44396    -15.6 1.748e+04 1.486e-07
  5.46425    -18.2 1.725e+04 1.468e-07
  5.48455    -20.1 1.669e+04 1.159e-07
  5.50038    -21.6 1.583e+04 7.768e-08
  5.51052    -22.6 1.513e+04 5.054e-08
  5.52514    -24.8 1.369e+04 2.371e-08
  5.54543    -26.4 1.247e+04 1.288e-08
  5.56363    -27.3 1.183e+04 9.339e-09
  5.57378    -27.0 1.202e+04 1.083e-08
  5.57791    -26.9 1.152e+04 8.245e-09
  5.58805    -27.1 1.130e+04 7.805e-09
  5.60632    -26.8 1.108e+04 6.671e-09
  5.62662    -26.0 1.073e+04 5.530e-09
  5.64529    -25.4 1.058e+04 4.774e-09
  5.65544    -25.3 1.046e+04 4.495e-09
  5.66721    -24.4 1.030e+04 3.828e-09
  5.68750    -23.7 1.032e+04 3.434e-09
  5.70780    -22.8 1.031e+04 3.156e-09
  5.72282    -22.0 1.032e+04 3.084e-09
  5.73297    -21.9 1.020e+04 2.683e-09
  5.74839    -20.6 1.020e+04 2.632e-09
  5.76868    -20.3 1.023e+04 2.640e-09
  5.78898    -19.0 1.029e+04 2.712e-09
  5.80035    -18.7 1.033e+04 2.757e-09
  5.81060    -18.5 1.022e+04 2.508e-09
  5.83991    -16.8 1.031e+04 2.725e-09
  5.86784    -16.2 1.048e+04 3.096e-09
  5.87789    -15.3 1.035e+04 2.908e-09
  5.88065    -15.0 1.041e+04 3.068e-09
  5.89079    -14.8 1.042e+04 3.127e-09
  5.91075    -14.0 1.056e+04 3.555e-09
  5.93104    -13.3 1.071e+04 3.948e-09
  5.94527    -12.5 1.090e+04 4.175e-09
  5.95542    -12.0 1.066e+04 3.740e-09
  5.97164    -11.2 1.083e+04 3.825e-09
  5.99193    -10.5 1.084e+04 3.797e-09
  6.01223     -9.7 1.083e+04 3.670e-09
  6.02280     -8.8 1.080e+04 3.543e-09
  6.03295     -8.2 1.073e+04 3.416e-09
  6.05282     -7.4 1.078e+04 3.409e-09
  6.07311     -6.5 1.083e+04 3.428e-09
  6.09018     -5.6 1.089e+04 3.487e-09
  6.10033     -5.2 1.089e+04 3.480e-09
  6.11370     -4.5 1.104e+04 3.650e-09
  6.13400     -3.8 1.115e+04 4.095e-09
  6.15429     -3.0 1.123e+04 4.756e-09
  6.16772     -2.2 1.138e+04 5.661e-09
  6.17786     -1.9 1.149e+04 6.109e-09
  6.18751     -1.6 1.182e+04 7.762e-09
  6.19766     -0.8 1.171e+04 6.417e-09
  6.21518     -1.1 1.209e+04 8.580e-09
  6.23510     -1.7 1.248e+04 1.339e-08
  6.24525     -1.9 1.280e+04 1.812e-08
  6.25577     -2.1 1.329e+04 2.725e-08
  6.27606     -2.4 1.350e+04 2.946e-08
  6.29636     -2.6 1.338e+04 2.642e-08
  6.31263     -3.2 1.315e+04 1.896e-08
  6.32278     -3.4 1.333e+04 1.956e-08
  6.33695     -5.0 1.315e+04 1.246e-08
  6.35725     -6.7 1.285e+04 9.814e-09
  6.37754     -7.8 1.272e+04 9.788e-09
  6.39016     -8.5 1.278e+04 1.021e-08
  6.40031     -8.8 1.285e+04 1.030e-08
  6.41813     -9.4 1.290e+04 1.122e-08
  6.43843     -9.8 1.294e+04 1.291e-08
  6.45755    -10.0 1.298e+04 1.504e-08
  6.46769    -10.0 1.293e+04 1.317e-08
  6.47902    -10.1 1.297e+04 1.418e-08
  6.49438    -10.0 1.301e+04 1.520e-08
  6.50453    -10.4 1.318e+04 1.573e-08
  6.51961    -10.3 1.326e+04 1.933e-08
  6.53508    -10.0 1.341e+04 2.471e-08
  6.54523     -9.7 1.321e+04 1.975e-08
  6.56020     -9.2 1.335e+04 2.291e-08
  6.58049     -8.7 1.343e+04 2.383e-08
  6.60079     -8.1 1.341e+04 2.275e-08
  6.61261     -7.6 1.350e+04 1.964e-08
  6.62276     -6.9 1.327e+04 1.600e-08
  6.64138     -6.2 1.331e+04 1.315e-08
  6.66167     -6.0 1.331e+04 1.171e-08
  6.68009     -5.1 1.303e+04 8.668e-09
  6.70048     -3.6 1.281e+04 8.242e-09
  6.73290     -1.4 1.278e+04 8.140e-09
  6.77349      0.9 1.282e+04 8.864e-09
  6.80144      3.1 1.294e+04 9.579e-09
  6.82174      1.9 1.340e+04 1.146e-08
  6.83525      4.2 1.333e+04 9.182e-09
  6.85555      5.2 1.337e+04 1.060e-08
  6.89526      7.5 1.340e+04 8.363e-09
  6.93586     10.0 1.337e+04 6.288e-09
  6.97002     12.7 1.336e+04 4.767e-09
  6.99031     13.4 1.343e+04 5.095e-09
  7.01704     16.1 1.350e+04 4.214e-09
  7.05763     19.0 1.364e+04 3.877e-09
  7.09822     21.9 1.365e+04 3.908e-09
  7.12498     23.5 1.360e+04 4.189e-09
  7.13503     23.7 1.364e+04 4.466e-09
  7.14876     25.2 1.354e+04 4.685e-09
  7.16906     26.6 1.351e+04 5.041e-09
  7.18935     27.9 1.349e+04 5.504e-09
  7.20242     29.1 1.345e+04 5.951e-09
  7.21257     29.3 1.360e+04 6.356e-09
  7.22994     30.6 1.355e+04 6.792e-09
  7.25024     31.9 1.355e+04 7.245e-09
  7.26980     33.0 1.355e+04 7.639e-09
  7.27995     33.0 1.370e+04 8.490e-09
  7.29083     34.0 1.368e+04 8.924e-09
  7.31112     35.0 1.369e+04 9.265e-09
  7.33142     35.8 1.374e+04 9.407e-09
  7.34733     36.6 1.375e+04 9.358e-09
  7.35748     36.3 1.395e+04 1.055e-08
  7.37201     37.1 1.399e+04 9.954e-09
  7.39230     37.7 1.407e+04 9.108e-09
  7.41260     38.2 1.417e+04 8.773e-09
  7.42486     38.6 1.422e+04 8.850e-09
  7.42724     38.0 1.439e+04 9.057e-09
  7.43527     36.9 1.461e+04 7.708e-09
  7.45319     37.1 1.470e+04 7.850e-09
  7.47348     37.3 1.483e+04 8.095e-09
  7.49225     37.4 1.505e+04 7.842e-09
  7.50240     36.9 1.523e+04 6.953e-09
  7.51408     36.9 1.530e+04 6.286e-09
  7.53437     36.8 1.518e+04 5.879e-09
  7.55467     36.7 1.504e+04 5.908e-09
  7.56978     36.5 1.489e+04 6.271e-09
  7.57993     35.9 1.479e+04 5.553e-09
  7.59526     35.7 1.449e+04 7.132e-09
  7.61555     35.5 1.425e+04 9.659e-09
  7.63585     35.5 1.411e+04 1.257e-08
  7.64731     35.4 1.402e+04 1.496e-08
  7.65746     35.3 1.385e+04 1.407e-08
  7.67644     35.1 1.382e+04 1.435e-08
  7.69673     34.8 1.376e+04 1.424e-08
  7.71469     34.5 1.359e+04 1.416e-08
  7.72484     34.8 1.343e+04 1.253e-08
  7.73199     34.6 1.341e+04 1.263e-08
  7.74214     34.7 1.309e+04 9.263e-09
  7.75762     34.5 1.310e+04 9.259e-09
  7.77791     34.3 1.315e+04 9.613e-09
  7.79223     34.1 1.319e+04 1.090e-08
  7.80237     34.6 1.320e+04 8.486e-09
  7.81850     34.3 1.318e+04 1.062e-08
  7.83880     34.3 1.317e+04 1.390e-08
  7.85909     34.4 1.330e+04 1.714e-08
  7.86976     34.6 1.347e+04 1.754e-08
  7.87991     35.2 1.339e+04 1.655e-08
  7.89969     35.4 1.344e+04 1.618e-08
  7.91998     35.7 1.345e+04 1.438e-08
  7.93714     35.9 1.344e+04 1.203e-08
  7.94729     36.6 1.343e+04 1.240e-08
  7.96057     36.8 1.340e+04 1.065e-08
  7.98087     37.0 1.319e+04 9.935e-09
  8.00116     37.5 1.298e+04 9.946e-09
  8.01467     38.0 1.289e+04 9.979e-09
  8.02482     38.8 1.298e+04 1.017e-08
  8.03886     39.4 1.278e+04 1.053e-08
  8.04901     39.3 1.229e+04 1.270e-08
  8.06205     40.1 1.222e+04 1.118e-08
  8.08206     40.8 1.224e+04 9.639e-09
  8.09220     41.7 1.239e+04 1.026e-08
  8.10264     42.4 1.253e+04 8.792e-09
  8.12293     42.9 1.279e+04 7.780e-09
  8.14323     42.9 1.273e+04 6.760e-09
  8.15959     42.8 1.262e+04 6.551e-09
  8.16983     43.8 1.274e+04 6.683e-09
  8.19416     44.8 1.249e+04 6.223e-09
  8.23475     45.2 1.212e+04 5.958e-09
  8.27534     45.2 1.190e+04 5.817e-09
  8.30470     45.2 1.194e+04 5.868e-09
  8.32499     46.9 1.237e+04 7.134e-09
  8.34582     46.2 1.233e+04 6.671e-09
  8.35587     46.0 1.227e+04 6.757e-09
  8.36648     45.1 1.231e+04 6.786e-09
  8.38203     44.1 1.244e+04 7.017e-09
  8.39218     44.5 1.258e+04 7.339e-09
  8.40707     43.5 1.265e+04 7.183e-09
  8.42736     42.5 1.266e+04 6.949e-09
  8.44766     41.6 1.264e+04 6.609e-09
  8.45957     40.8 1.262e+04 6.167e-09
  8.46971     41.1 1.263e+04 5.833e-09
  8.48825     40.1 1.263e+04 5.548e-09
  8.50854     38.9 1.255e+04 5.233e-09
  8.52695     37.9 1.243e+04 5.011e-09
  8.53710     38.3 1.239e+04 4.967e-09
  8.55938     38.0 1.211e+04 4.432e-09
  8.59453     38.0 1.182e+04 3.750e-09
  8.61482     38.9 1.179e+04 3.326e-09
  8.64066     39.3 1.162e+04 2.897e-09
  8.66293     40.1 1.147e+04 2.816e-09
  8.68323     40.7 1.168e+04 3.409e-09
  8.72184     41.6 1.162e+04 3.430e-09
  8.74959     43.2 1.162e+04 3.918e-09
  8.76989     44.2 1.157e+04 2.385e-09
  8.79277     44.9 1.159e+04 2.808e-09
  8.81297     45.6 1.160e+04 3.111e-09
  8.82693     46.2 1.160e+04 3.497e-09
  8.83708     46.8 1.159e+04 2.645e-09
  8.85356     47.6 1.156e+04 3.127e-09
  8.87386     48.5 1.150e+04 3.652e-09
  8.89415     49.4 1.148e+04 4.154e-09
  8.90446     50.1 1.151e+04 4.608e-09
  8.91461     51.1 1.149e+04 4.033e-09
  8.93474     51.9 1.157e+04 4.579e-09
  8.95504     52.5 1.172e+04 5.098e-09
  8.96960     53.0 1.191e+04 5.526e-09
  8.97626     52.7 1.259e+04 6.538e-09
  8.98199     53.7 1.251e+04 6.190e-09
  8.99563     54.2 1.276e+04 7.154e-09
  9.01592     54.8 1.303e+04 8.039e-09
  9.03622     55.1 1.352e+04 9.164e-09
  9.04937     54.9 1.407e+04 1.140e-08
  9.05952     55.1 1.442e+04 1.705e-08
  9.07681     55.1 1.484e+04 2.643e-08
  9.08809     55.3 1.467e+04 2.522e-08
  9.09312     55.1 1.489e+04 3.011e-08
  9.10208     54.7 1.518e+04 3.302e-08
  9.11223     52.8 1.632e+04 4.291e-08
  9.12173     49.6 1.772e+04 7.997e-08
  9.12681     49.1 1.752e+04 1.083e-07
  9.12801     46.8 1.775e+04 2.154e-07
  9.13309     46.1 1.816e+04 4.496e-07
  9.14267     45.2 1.832e+04 5.319e-07
  9.15282     44.5 1.832e+04 4.862e-07
  9.16050     44.2 1.830e+04 3.276e-07
  9.16557     44.0 1.821e+04 2.402e-07
  9.17312     43.2 1.781e+04 1.135e-07
  9.18326     42.5 1.705e+04 8.603e-08
  9.19424     40.1 1.687e+04 3.111e-08
  9.20444     40.0 1.612e+04 2.402e-08
  9.21888     34.5 1.381e+04 6.976e-09
  9.23917     31.6 1.222e+04 5.829e-09
  9.25947     31.9 1.212e+04 5.861e-09
  9.27182     32.4 1.210e+04 6.089e-09
  9.27868     33.8 1.217e+04 5.849e-09
  9.28662     33.1 1.219e+04 5.672e-09
  9.30006     32.8 1.240e+04 7.075e-09
  9.32035     32.2 1.277e+04 1.084e-08
  9.33921     31.5 1.328e+04 1.903e-08
  9.34935     32.5 1.322e+04 1.746e-08
  9.36094     32.1 1.366e+04 2.635e-08
  9.38124     31.8 1.409e+04 3.220e-08
  9.40153     31.3 1.413e+04 3.076e-08
  9.41674     30.3 1.417e+04 2.479e-08
  9.42688     30.9 1.392e+04 1.930e-08
  9.44212     29.5 1.392e+04 1.750e-08
  9.46242     27.8 1.395e+04 1.849e-08
  9.48272     26.0 1.415e+04 2.501e-08
  9.49427     24.6 1.465e+04 3.736e-08
  9.50442     25.5 1.479e+04 3.988e-08
  9.52331     23.9 1.525e+04 4.650e-08
  9.54360     22.1 1.513e+04 4.086e-08
  9.56165     20.4 1.467e+04 2.339e-08
  9.57180     21.2 1.502e+04 3.091e-08
  9.58334     19.2 1.433e+04 1.314e-08
  9.59348     18.0 1.374e+04 1.162e-08
  9.60449     16.2 1.308e+04 6.545e-09
  9.62478     14.9 1.247e+04 5.415e-09
  9.63918     15.1 1.246e+04 5.482e-09
  9.65958     16.4 1.256e+04 5.331e-09
  9.68577     16.4 1.235e+04 5.221e-09
  9.70596     16.6 1.232e+04 5.270e-09
  9.71671     16.7 1.240e+04 5.671e-09
  9.72686     17.8 1.234e+04 5.065e-09
  9.74655     17.9 1.250e+04 5.914e-09
  9.76685     18.0 1.269e+04 6.909e-09
  9.78410     18.0 1.295e+04 7.190e-09
  9.79425     19.1 1.287e+04 6.930e-09
  9.80744     19.2 1.298e+04 6.485e-09
  9.82773     19.0 1.297e+04 6.021e-09
  9.85828     19.5 1.308e+04 4.424e-09
  9.89040     18.8 1.314e+04 3.595e-09
  9.91069     18.4 1.297e+04 3.951e-09
  9.92921     17.4 1.301e+04 4.280e-09
  9.94950     19.5 1.311e+04 4.206e-09
  9.96990     18.6 1.312e+04 4.574e-09
  9.99010     18.4 1.324e+04 4.929e-09
 10.00655     17.5 1.364e+04 5.874e-09
 10.01669     18.4 1.362e+04 5.583e-09
 10.03069     15.7 1.433e+04 9.402e-09
 10.05098     12.6 1.518e+04 2.961e-08
 10.07128     10.5 1.579e+04 6.104e-08
 10.08408      8.1 1.593e+04 6.265e-08
 10.09422      8.5 1.597e+04 6.605e-08
 10.11187      5.7 1.575e+04 4.807e-08
 10.13216      1.7 1.519e+04 2.755e-08
 10.15146     -1.3 1.402e+04 1.473e-08
 10.16161     -1.0 1.405e+04 1.440e-08
 10.17275     -3.0 1.334e+04 7.280e-09
 10.19305     -5.5 1.356e+04 4.496e-09
 10.20722     -9.6 1.402e+04 5.147e-09
 10.21736    -10.7 1.406e+04 6.356e-09
 10.22899    -12.4 1.342e+04 1.120e-08
 10.23914    -11.8 1.341e+04 9.391e-09
 10.25394    -12.8 1.336e+04 1.057e-08
 10.27423    -13.5 1.304e+04 9.181e-09
 10.30477    -14.7 1.270e+04 5.574e-09
 10.34546    -15.9 1.230e+04 2.707e-09
 10.37410    -16.5 1.189e+04 1.622e-09
 10.39440    -15.0 1.195e+04 1.596e-09
 10.42664    -15.2 1.187e+04 1.067e-09
 10.46723    -15.2 1.191e+04 1.070e-09
 10.50413    -14.9 1.186e+04 1.293e-09
 10.52443    -15.5 1.166e+04 1.557e-09
 10.52917    -14.4 1.167e+04 1.480e-09
 10.54946    -13.6 1.181e+04 1.452e-09
 10.58900    -12.6 1.184e+04 1.134e-09
 10.62959    -11.8 1.181e+04 9.241e-10
 10.66393    -10.8 1.179e+04 9.348e-10
 10.68423    -10.2 1.181e+04 9.208e-10
 10.71077     -9.5 1.192e+04 1.088e-09
 10.75136     -8.8 1.175e+04 1.623e-09
 10.79196     -7.7 1.167e+04 2.262e-09
 10.81900     -6.7 1.162e+04 2.283e-09
 10.83929     -5.7 1.166e+04 1.708e-09
 10.87314     -4.4 1.152e+04 1.525e-09
 10.91373     -3.0 1.144e+04 1.224e-09
 10.95376     -1.4 1.138e+04 9.608e-10
 10.97406     -0.3 1.137e+04 9.196e-10
 10.99491      1.6 1.134e+04 7.235e-10
 11.03550      3.5 1.135e+04 5.753e-10
 11.07609      5.3 1.136e+04 5.494e-10
 11.10883      7.2 1.138e+04 6.019e-10
 11.12912      8.5 1.144e+04 4.735e-10
 11.13816     10.4 1.147e+04 5.090e-10
 11.15845      9.9 1.143e+04 5.590e-10
 11.19786     11.9 1.138e+04 7.202e-10
 11.23845     13.8 1.135e+04 9.955e-10
 11.26389     15.8 1.157e+04 1.361e-09
 11.28418     16.7 1.179e+04 1.405e-09
 11.30939     17.0 1.194e+04 1.716e-09
 11.32958     16.9 1.211e+04 2.381e-09
 11.34123     16.8 1.228e+04 3.775e-09
 11.35137     17.0 1.247e+04 5.425e-09
 11.37017     17.0 1.273e+04 9.130e-09
 11.39047     17.1 1.300e+04 1.321e-08
 11.40861     17.1 1.322e+04 1.587e-08
 11.41876     16.9 1.355e+04 1.909e-08
 11.43106     16.7 1.352e+04 1.781e-08
 11.44483     16.4 1.356e+04 1.575e-08
 11.45498     16.3 1.353e+04 1.614e-08
 11.47165     16.0 1.365e+04 1.603e-08
 11.48614     15.8 1.377e+04 1.656e-08
 11.49629     15.3 1.357e+04 1.150e-08
 11.51224     15.2 1.363e+04 1.155e-08
 11.53254     15.2 1.364e+04 1.196e-08
 11.55283     15.4 1.360e+04 1.269e-08
 11.56367     15.6 1.351e+04 1.315e-08
 11.57382     15.7 1.317e+04 6.117e-09
 11.59342     16.1 1.309e+04 6.463e-09
 11.61372     16.4 1.304e+04 7.005e-09
 11.63106     16.8 1.299e+04 7.646e-09
 11.64120     17.3 1.283e+04 4.649e-09
 11.65431     17.9 1.276e+04 5.400e-09
 11.67460     18.6 1.271e+04 5.953e-09
 11.69490     19.5 1.274e+04 6.356e-09
 11.70859     20.4 1.273e+04 5.782e-09
 11.71873     20.9 1.254e+04 4.586e-09
 11.73549     21.7 1.253e+04 4.331e-09
 11.75170     22.3 1.262e+04 3.837e-09
 11.77209     22.6 1.262e+04 2.731e-09
 11.80672     23.7 1.268e+04 2.504e-09
 11.84355     25.1 1.265e+04 2.482e-09
 11.86385     26.5 1.262e+04 2.532e-09
 11.88790     27.8 1.259e+04 2.464e-09
 11.92849     29.2 1.253e+04 2.453e-09
 11.96908     30.6 1.252e+04 2.448e-09
 11.99861     32.0 1.249e+04 2.491e-09
 12.01891     33.2 1.244e+04 2.187e-09
 12.05026     34.6 1.247e+04 2.217e-09
 12.07605     35.2 1.255e+04 2.515e-09
 12.08610     35.9 1.248e+04 2.201e-09
 12.10080     36.5 1.256e+04 2.337e-09
 12.12110     36.9 1.263e+04 2.821e-09
 12.14139     37.3 1.267e+04 3.738e-09
 12.15348     37.9 1.275e+04 5.029e-09
 12.16363     38.5 1.258e+04 3.566e-09
 12.18199     39.1 1.269e+04 4.726e-09
 12.20228     39.5 1.285e+04 6.150e-09
 12.22086     39.6 1.296e+04 7.884e-09
 12.23101     40.4 1.275e+04 6.362e-09
 12.24287     40.7 1.285e+04 8.245e-09
 12.26317     40.8 1.295e+04 1.035e-08
 12.28346     41.0 1.303e+04 1.203e-08
 12.29840     41.2 1.307e+04 1.296e-08
 12.30854     42.0 1.303e+04 1.241e-08
 12.32405     42.1 1.302e+04 1.315e-08
 12.34435     42.0 1.302e+04 1.364e-08
 12.36464     41.9 1.307e+04 1.460e-08
 12.37558     41.8 1.321e+04 1.680e-08
 12.37671     42.2 1.334e+04 1.772e-08
 12.38607     43.3 1.327e+04 1.580e-08
 12.40523     43.0 1.355e+04 2.084e-08
 12.42553     42.9 1.387e+04 2.911e-08
 12.44331     42.8 1.418e+04 3.700e-08
 12.45346     43.5 1.418e+04 3.772e-08
 12.46612     43.2 1.447e+04 4.583e-08
 12.48641     42.7 1.438e+04 4.373e-08
 12.50671     42.4 1.391e+04 3.385e-08
 12.52084     42.2 1.326e+04 2.041e-08
 12.53099     42.9 1.364e+04 2.784e-08
 12.54730     42.7 1.304e+04 1.652e-08
 12.56760     42.2 1.273e+04 9.198e-09
 12.58789     41.5 1.264e+04 5.787e-09
 12.59837     41.2 1.231e+04 5.090e-09
 12.60852     42.0 1.249e+04 6.433e-09
 12.62848     41.6 1.236e+04 5.990e-09
 12.64878     41.3 1.239e+04 6.119e-09
 12.66576     40.7 1.253e+04 6.913e-09
 12.67591     41.2 1.258e+04 7.930e-09
 12.68244     40.2 1.289e+04 9.596e-09
 12.69259     40.7 1.292e+04 8.404e-09
 12.70966     40.2 1.302e+04 1.080e-08
 12.73324     38.6 1.344e+04 1.539e-08
 12.75363     39.7 1.318e+04 1.169e-08
 12.78089     37.9 1.319e+04 1.178e-08
 12.82148     37.0 1.291e+04 9.500e-09
 12.86207     37.2 1.263e+04 5.871e-09
 12.88840     37.6 1.251e+04 3.488e-09
 12.90869     38.7 1.265e+04 2.543e-09
 12.94325     39.3 1.256e+04 2.116e-09
 12.97936     40.5 1.255e+04 2.124e-09
 12.99965     41.5 1.261e+04 2.186e-09
 13.02317     42.8 1.265e+04 2.213e-09
 13.04346     43.8 1.270e+04 2.332e-09
 13.06502     45.1 1.276e+04 2.381e-09
 13.10562     46.2 1.284e+04 2.465e-09
 13.14621     47.2 1.301e+04 2.726e-09
 13.17823     47.7 1.326e+04 3.200e-09
 13.19853     48.6 1.327e+04 2.760e-09
 13.22739     48.8 1.351e+04 3.278e-09
 13.25566     48.5 1.372e+04 3.701e-09
 13.26571     48.5 1.373e+04 3.755e-09
 13.27793     48.6 1.385e+04 4.034e-09
 13.29618     48.8 1.399e+04 4.228e-09
 13.30632     49.2 1.397e+04 3.533e-09
 13.31852     49.3 1.414e+04 3.585e-09
 13.33310     49.4 1.433e+04 3.679e-09
 13.34325     49.6 1.444e+04 3.851e-09
 13.35911     49.6 1.462e+04 4.188e-09
 13.37941     49.5 1.474e+04 5.082e-09
 13.39970     49.2 1.479e+04 7.042e-09
 13.41063     49.0 1.476e+04 1.070e-08
 13.42078     48.9 1.462e+04 1.307e-08
 13.44029     48.8 1.460e+04 1.894e-08
 13.46059     48.7 1.474e+04 2.227e-08
 13.47801     48.1 1.489e+04 2.246e-08
 13.48816     47.6 1.478e+04 1.700e-08
 13.50118     46.2 1.488e+04 1.706e-08
 13.52147     44.6 1.501e+04 1.979e-08
 13.54177     43.4 1.511e+04 2.620e-08
 13.55554     42.5 1.514e+04 2.920e-08
 13.56569     43.1 1.459e+04 2.135e-08
 13.58236     42.4 1.467e+04 1.953e-08
 13.60265     41.8 1.467e+04 1.513e-08
 13.61319     41.4 1.449e+04 1.110e-08
 13.62332     42.4 1.443e+04 1.178e-08
 13.64322     42.9 1.422e+04 7.736e-09
 13.66354     43.0 1.410e+04 6.182e-09
 13.68383     43.1 1.408e+04 5.097e-09
 13.70046     43.3 1.404e+04 4.520e-09
 13.71061     44.0 1.396e+04 4.702e-09
 13.72443     44.4 1.391e+04 4.514e-09
 13.74472     44.8 1.385e+04 4.367e-09
 13.76502     45.4 1.381e+04 4.174e-09
 13.77799     46.0 1.372e+04 3.953e-09
 13.79838     47.4 1.377e+04 3.119e-09
 13.83624     47.9 1.361e+04 2.548e-09
 13.87684     48.5 1.352e+04 2.633e-09
 13.91295     49.2 1.337e+04 3.029e-09
 13.93325     50.0 1.335e+04 2.386e-09
 13.95802     50.8 1.316e+04 2.789e-09
 13.99861     51.9 1.301e+04 2.605e-09
 14.03920     53.1 1.290e+04 1.980e-09
 14.06802     54.5 1.291e+04 1.258e-09
 14.08831     55.3 1.287e+04 1.359e-09
 14.12038     56.7 1.296e+04 8.489e-10
 14.16097     58.0 1.308e+04 5.600e-10
 14.20156     59.5 1.289e+04 5.081e-10
 14.22308     61.4 1.287e+04 5.061e-10
 14.22834     62.2 1.282e+04 7.009e-10
 14.24741     63.2 1.280e+04 4.988e-10
 14.28274     65.1 1.279e+04 5.069e-10
 14.32333     66.9 1.280e+04 5.302e-10
 14.35785     68.8 1.280e+04 5.970e-10
 14.37814     69.4 1.277e+04 7.189e-10
 14.40451     70.8 1.285e+04 9.064e-10
 14.44510     71.6 1.286e+04 1.649e-09
 14.48569     71.6 1.280e+04 3.603e-09
 14.51291     71.4 1.305e+04 6.688e-09
 14.53321     71.4 1.300e+04 6.378e-09
 14.56687     70.2 1.320e+04 6.850e-09
 14.60746     68.9 1.302e+04 5.533e-09
 14.64768     69.0 1.278e+04 2.843e-09
 14.66797     69.6 1.269e+04 2.346e-09
 14.68865     69.6 1.290e+04 9.168e-10
 14.72924     69.2 1.283e+04 5.358e-10
 14.76983     69.5 1.270e+04 5.288e-10
 14.80274     70.3 1.271e+04 5.485e-10
 14.82304     71.3 1.264e+04 5.188e-10
 14.84085     72.0 1.266e+04 6.207e-10
 14.86114     72.9 1.265e+04 4.913e-10
 14.89160     73.7 1.257e+04 6.202e-10
 14.93219     74.5 1.246e+04 7.527e-10
 14.95780     75.4 1.232e+04 8.487e-10
 14.97810     76.3 1.230e+04 1.105e-09
 15.01337     77.2 1.218e+04 1.257e-09
 15.05396     77.9 1.209e+04 1.354e-09
 15.09257     78.6 1.201e+04 1.477e-09
 15.11287     79.3 1.205e+04 2.316e-09
 15.13514     79.8 1.202e+04 2.526e-09
 15.17573     80.0 1.196e+04 2.715e-09
 15.21632     80.0 1.190e+04 2.845e-09
 15.24763     79.7 1.180e+04 3.139e-09
 15.26793     80.0 1.188e+04 4.301e-09
 15.29750     79.2 1.185e+04 4.783e-09
 15.33809     77.9 1.184e+04 4.799e-09
 15.37868     76.6 1.165e+04 4.214e-09
 15.40270     75.9 1.127e+04 2.679e-09
 15.42299     76.0 1.122e+04 2.315e-09
 15.45458     75.7 1.094e+04 1.271e-09
 15.47488     76.8 1.105e+04 1.495e-09
 15.50046     76.6 1.085e+04 9.031e-10
 15.53746     76.7 1.080e+04 6.147e-10
 15.55776     77.3 1.077e+04 6.837e-10
 15.58164     77.8 1.073e+04 5.442e-10
 15.62223     78.6 1.044e+04 5.196e-10
 15.66282     79.7 1.040e+04 5.210e-10
 15.69253     80.9 1.037e+04 5.363e-10
 15.71282     81.5 1.035e+04 6.012e-10
 15.74400     82.5 1.031e+04 6.638e-10
 15.78459     83.5 1.033e+04 7.639e-10
 15.82518     84.3 1.035e+04 8.831e-10
 15.84759     85.0 1.031e+04 1.014e-09
 15.86789     85.3 1.027e+04 1.032e-09
 15.90636     85.9 1.018e+04 1.136e-09
 15.94695     86.5 1.014e+04 1.248e-09
 15.98236     87.2 1.015e+04 1.365e-09
 16.00265     87.6 1.010e+04 1.415e-09
 16.02813     88.3 1.013e+04 1.557e-09
 16.06831     89.1 1.015e+04 1.731e-09
 16.08861     89.1 1.018e+04 1.610e-09
 16.10931     89.7 1.019e+04 1.740e-09
 16.13742     90.1 1.022e+04 1.909e-09
 16.15772     90.2 1.015e+04 1.710e-09
 16.19049     90.3 1.016e+04 1.912e-09
 16.23109     90.2 1.016e+04 2.159e-09
 16.27168     90.0 1.018e+04 2.247e-09
 16.29248     89.7 1.017e+04 2.223e-09
 16.31278     89.0 1.013e+04 2.268e-09
 16.35286     88.5 1.015e+04 2.360e-09
 16.39345     87.8 1.022e+04 2.547e-09
 16.42725     87.1 1.036e+04 2.875e-09
 16.44755     85.9 1.043e+04 3.014e-09
 16.47463     85.0 1.051e+04 2.981e-09
 16.51522     84.0 1.060e+04 2.931e-09
 16.55581     83.2 1.067e+04 3.044e-09
 16.58231     82.4 1.082e+04 3.592e-09
 16.60261     81.1 1.056e+04 2.454e-09
 16.63699     80.8 1.071e+04 2.818e-09
 16.67758     80.7 1.089e+04 2.990e-09
 16.70234     80.8 1.100e+04 3.040e-09
 16.72155     81.9 1.092e+04 2.128e-09
 16.73738     80.7 1.072e+04 1.629e-09
 16.75876     81.2 1.082e+04 1.866e-09
 16.79935     81.9 1.093e+04 2.305e-09
 16.83994     83.0 1.104e+04 2.884e-09
 16.87214     84.4 1.121e+04 3.385e-09
 16.89244     83.6 1.108e+04 2.253e-09
 16.92112     85.0 1.124e+04 1.897e-09
 16.96171     86.3 1.142e+04 1.452e-09
 17.00231     87.6 1.147e+04 1.224e-09
 17.02721     89.0 1.147e+04 1.215e-09
 17.04750     88.8 1.139e+04 1.289e-09
 17.08349     90.6 1.150e+04 1.434e-09
 17.12408     92.3 1.164e+04 1.797e-09
 17.16197     93.3 1.178e+04 2.253e-09
 17.18217     93.6 1.193e+04 2.907e-09
 17.19492     94.2 1.215e+04 3.772e-09
 17.21521     94.6 1.240e+04 4.537e-09
 17.23551     94.9 1.263e+04 5.361e-09
 17.24946     95.1 1.273e+04 5.827e-09
 17.25961     94.9 1.276e+04 7.495e-09
 17.28634     94.8 1.255e+04 7.485e-09
 17.31608     94.7 1.222e+04 7.496e-09
 17.32613     95.0 1.237e+04 7.138e-09
 17.32699     94.9 1.208e+04 7.190e-09
 17.33714     94.3 1.244e+04 8.142e-09
 17.35728     94.3 1.213e+04 7.879e-09
 17.37757     94.3 1.187e+04 7.972e-09
 17.39437     94.3 1.161e+04 7.990e-09
 17.40452     93.6 1.173e+04 7.953e-09
 17.41816     93.8 1.152e+04 7.905e-09
 17.43846     93.9 1.134e+04 7.846e-09
 17.45875     94.1 1.116e+04 7.776e-09
 17.47191     94.2 1.096e+04 7.669e-09
 17.48205     93.7 1.116e+04 7.774e-09
 17.49934     93.8 1.099e+04 7.650e-09
 17.51964     94.0 1.082e+04 7.495e-09
 17.53929     94.2 1.065e+04 7.290e-09
 17.54944     93.7 1.108e+04 7.799e-09
 17.56023     93.9 1.089e+04 7.483e-09
 17.58053     94.1 1.069e+04 7.166e-09
 17.60082     94.4 1.048e+04 6.923e-09
 17.61682     94.8 1.034e+04 6.877e-09
 17.62697     94.1 1.088e+04 7.403e-09
 17.63289     94.5 1.090e+04 7.522e-09
 17.64304     94.2 1.117e+04 8.730e-09
 17.66171     94.5 1.131e+04 9.463e-09
 17.68200     94.6 1.168e+04 1.102e-08
 17.69435     94.5 1.246e+04 1.353e-08
 17.70450     91.8 1.394e+04 2.704e-08
 17.72259     92.2 1.422e+04 4.255e-08
 17.73307     92.4 1.421e+04 4.810e-08
 17.73809     92.2 1.429e+04 5.121e-08
 17.74786     91.9 1.450e+04 6.165e-08
 17.75801     91.1 1.499e+04 8.794e-08
 17.76671     90.2 1.542e+04 1.307e-07
 17.77179     90.7 1.622e+04 1.127e-07
 17.77831     89.8 1.679e+04 1.541e-07
 17.78623     88.5 1.716e+04 2.053e-07
 17.79130     87.9 1.718e+04 2.291e-07
 17.79860     86.9 1.740e+04 3.287e-07
 17.80548     86.1 1.761e+04 4.966e-07
 17.81055     85.1 1.983e+04 2.397e-07
 17.81890     83.6 2.036e+04 2.386e-07
 17.82904     82.1 2.071e+04 2.109e-07
 17.83917     80.7 2.059e+04 1.496e-07
 17.84937     73.2 1.832e+04 2.548e-08
 17.86466     68.8 1.550e+04 1.224e-08
 17.88495     65.1 1.301e+04 5.873e-09
 17.90525     62.5 1.225e+04 2.985e-09
 17.91690     61.4 1.116e+04 2.513e-09
 17.93121     59.9 1.069e+04 2.432e-09
 17.95010     59.4 1.066e+04 2.439e-09
 17.97648     58.8 1.053e+04 2.350e-09
 18.01707     58.3 1.055e+04 2.729e-09
 18.05176     58.1 1.073e+04 4.303e-09
 18.07206     57.9 1.090e+04 4.953e-09
 18.09825     57.9 1.104e+04 6.565e-09
 18.13884     57.6 1.104e+04 6.690e-09
 18.17943     57.6 1.092e+04 6.288e-09
 18.20682     57.8 1.075e+04 5.764e-09
 18.22712     58.3 1.069e+04 4.903e-09
 18.26061     58.8 1.046e+04 4.391e-09
 18.30120     59.5 1.043e+04 4.441e-09
 18.34159     60.3 1.040e+04 4.674e-09
 18.36189     61.3 1.028e+04 3.300e-09
 18.38238     62.1 1.040e+04 3.821e-09
 18.42297     63.0 1.042e+04 4.300e-09
 18.46356     63.9 1.039e+04 4.276e-09
 18.49665     64.7 1.036e+04 4.095e-09
 18.51695     64.8 1.038e+04 3.988e-09
 18.54354     65.5 1.029e+04 3.609e-09
 18.56374     65.5 1.012e+04 3.281e-09
 18.57399     66.0 1.013e+04 3.450e-09
 18.58414     66.0 1.007e+04 3.211e-09
 18.59529     66.4 1.010e+04 3.288e-09
 18.61558     66.5 1.019e+04 3.422e-09
 18.63588     66.5 1.028e+04 3.544e-09
 18.65152     66.5 1.045e+04 3.968e-09
 18.67192     66.9 1.029e+04 2.597e-09
 18.70711     66.6 1.060e+04 3.226e-09
 18.74770     65.7 1.123e+04 5.185e-09
 18.77804     65.3 1.125e+04 6.106e-09
 18.79644     64.9 1.135e+04 6.871e-09
 18.80659     65.9 1.104e+04 4.504e-09
 18.81854     65.3 1.141e+04 6.135e-09
 18.83883     64.6 1.187e+04 7.799e-09
 18.85913     63.9 1.229e+04 8.151e-09
 18.87051     63.1 1.234e+04 8.016e-09
 18.87520     62.8 1.242e+04 8.283e-09
 18.88412     63.6 1.251e+04 9.877e-09
 18.89972     62.6 1.270e+04 9.414e-09
 18.92001     61.0 1.288e+04 9.950e-09
 18.94031     58.6 1.332e+04 1.377e-08
 18.95150     56.6 1.390e+04 2.184e-08
 18.96165     57.6 1.392e+04 2.596e-08
 18.98090     55.7 1.445e+04 3.284e-08
 19.00119     53.9 1.448e+04 2.988e-08
 19.01888     52.3 1.416e+04 1.912e-08
 19.02903     53.4 1.443e+04 3.158e-08
 19.04178     52.0 1.387e+04 1.391e-08
 19.07232     48.5 1.305e+04 4.692e-09
 19.09661     45.9 1.238e+04 1.988e-09
 19.11691     47.5 1.323e+04 2.156e-09
 19.15360     46.3 1.241e+04 1.556e-09
 19.17757     46.1 1.237e+04 1.495e-09
 19.19786     46.7 1.212e+04 1.314e-09
 19.23138     46.7 1.204e+04 1.259e-09
 19.25167     48.1 1.234e+04 1.727e-09
 19.27537     48.1 1.209e+04 1.759e-09
 19.31597     48.2 1.201e+04 1.815e-09
 19.35656     48.5 1.184e+04 1.990e-09
 19.38644     48.9 1.175e+04 2.063e-09
 19.40674     50.1 1.199e+04 3.270e-09
 19.43774     50.5 1.196e+04 3.277e-09
 19.47833     51.0 1.184e+04 3.067e-09
 19.51892     51.7 1.168e+04 3.021e-09
 19.54150     52.7 1.167e+04 3.278e-09
 19.55155     53.0 1.179e+04 3.513e-09
 19.56946     53.4 1.173e+04 3.711e-09
 19.58976     54.0 1.178e+04 4.147e-09
 19.60869     54.4 1.177e+04 4.650e-09
 19.61884     54.6 1.192e+04 4.833e-09
 19.63035     55.2 1.182e+04 5.312e-09
 19.65064     55.7 1.178e+04 5.327e-09
 19.67094     56.2 1.157e+04 5.104e-09
 19.68622     56.7 1.130e+04 4.397e-09
 19.69637     57.1 1.142e+04 5.071e-09
 19.71153     57.6 1.117e+04 4.033e-09
 19.73182     58.1 1.105e+04 3.030e-09
 19.75212     58.2 1.099e+04 2.352e-09
 19.76376     58.3 1.068e+04 2.134e-09
 19.77390     58.4 1.082e+04 2.775e-09
 19.79111     58.7 1.078e+04 2.797e-09
 19.80125     59.9 1.046e+04 2.297e-09
 19.81300     60.3 1.046e+04 2.352e-09
 19.83114     60.7 1.050e+04 2.618e-09
 19.84129     60.6 1.089e+04 3.507e-09
 19.85359     60.4 1.115e+04 4.633e-09
 19.87389     59.5 1.165e+04 7.237e-09
 19.89418     58.2 1.224e+04 1.261e-08
 19.90867     57.6 1.278e+04 2.090e-08
 19.91882     55.8 1.424e+04 4.576e-08
 19.93478     55.0 1.481e+04 5.159e-08
 19.95507     53.1 1.561e+04 5.450e-08
 19.97537     50.1 1.619e+04 5.924e-08
 19.98620     47.0 1.576e+04 6.791e-08
 19.99635     44.1 1.476e+04 6.341e-08
 20.01596     41.7 1.529e+04 6.400e-08
 20.03625     37.7 1.590e+04 6.593e-08
 20.05359     33.9 1.532e+04 6.308e-08
 20.06373     29.3 1.326e+04 4.549e-08
 20.07684     29.2 1.276e+04 4.338e-08
 20.09714     29.7 1.196e+04 3.213e-08
 20.10812     28.8 1.125e+04 1.762e-08
 20.11827     26.8 1.047e+04 1.056e-08
 20.13112     23.3 9.434e+03 6.564e-09
 20.14127     23.6 9.505e+03 6.633e-09
 20.16827     20.5 9.526e+03 7.537e-09
 20.20896     17.5 9.652e+03 8.029e-09
 20.23930     16.3 9.459e+03 7.052e-09
 20.25950     15.6 9.355e+03 6.461e-09
 20.27603     14.0 9.431e+03 5.634e-09
 20.29643     13.7 9.454e+03 5.457e-09
 20.33073     11.4 9.383e+03 5.418e-09
 20.37132     11.2 9.335e+03 5.161e-09
 20.40503     11.9 9.110e+03 4.017e-09
 20.42441     11.3 8.631e+03 2.148e-09
 20.43129     11.0 8.820e+03 2.245e-09
 20.45250     11.0 8.950e+03 1.718e-09
 20.49309     11.4 9.060e+03 1.864e-09
 20.53368     12.2 9.310e+03 2.373e-09
 20.56606     12.3 9.789e+03 3.978e-09
 20.58635     12.1 1.039e+04 6.577e-09
 20.60462     12.4 1.078e+04 8.444e-09
 20.62481     11.8 1.146e+04 1.195e-08
 20.64339     11.8 1.191e+04 1.532e-08
 20.65354     11.1 1.191e+04 1.794e-08
 20.66540     10.8 1.230e+04 1.960e-08
 20.68570     10.4 1.241e+04 1.885e-08
 20.70600      9.6 1.251e+04 1.831e-08
 20.72093      7.2 1.348e+04 2.181e-08
 20.72663      7.9 1.240e+04 1.224e-08
 20.73200      6.1 1.374e+04 2.035e-08
 20.74659      4.7 1.338e+04 2.609e-08
 20.76688      5.1 1.283e+04 2.509e-08
 20.78718      5.9 1.221e+04 1.731e-08
 20.79846      4.7 1.264e+04 1.022e-08
 20.80861      4.6 1.150e+04 6.983e-09
 20.82777      3.2 1.165e+04 6.142e-09
 20.84806      1.4 1.229e+04 7.073e-09
 20.86584      0.7 1.224e+04 9.843e-09
 20.87599      2.0 1.173e+04 6.641e-09
 20.89890      2.5 1.171e+04 1.001e-08
 20.93959      2.7 1.201e+04 1.690e-08
 20.98018      2.5 1.212e+04 1.858e-08
 21.01095      3.1 1.164e+04 1.422e-08
 21.02915      3.3 1.232e+04 2.073e-08
 21.03887      3.3 1.219e+04 1.834e-08
 21.06126      3.2 1.135e+04 1.121e-08
 21.10195      3.1 1.072e+04 4.776e-09
 21.14254      3.3 1.056e+04 4.775e-09
 21.16601      2.9 1.058e+04 6.098e-09
 21.18631      4.0 1.126e+04 7.912e-09
 21.21347      3.9 1.173e+04 9.522e-09
 21.23320      1.8 1.228e+04 1.443e-08
 21.24335      2.6 1.272e+04 2.039e-08
 21.25397      1.6 1.337e+04 3.286e-08
 21.27426      0.4 1.425e+04 3.785e-08
 21.29456     -1.7 1.414e+04 2.901e-08
 21.31073     -4.6 1.295e+04 1.710e-08
 21.32088     -3.7 1.376e+04 1.565e-08
 21.33515     -8.6 1.246e+04 9.137e-09
 21.34573    -11.8 1.203e+04 7.722e-09
 21.35588    -12.4 1.173e+04 5.885e-09
 21.38598    -14.6 1.181e+04 6.435e-09
 21.42667    -20.2 1.150e+04 5.446e-09
 21.45585    -25.4 1.107e+04 4.772e-09
 21.47614    -26.2 1.125e+04 3.874e-09
 21.50785    -28.8 1.105e+04 3.979e-09
 21.53328    -28.8 1.063e+04 3.408e-09
 21.54333    -29.2 1.064e+04 3.098e-09
 21.55840    -29.7 1.049e+04 3.265e-09
 21.57869    -30.1 1.017e+04 3.245e-09
 21.59899    -30.1 1.021e+04 3.448e-09
 21.61081    -30.0 1.032e+04 3.651e-09
 21.62096    -31.0 1.033e+04 4.096e-09
 21.63958    -31.1 1.058e+04 5.273e-09
 21.65270    -30.4 1.089e+04 7.204e-09
 21.67309    -27.9 1.050e+04 2.328e-09
 21.71081    -27.9 1.071e+04 5.318e-09
 21.74568    -26.3 1.122e+04 9.230e-09
 21.76597    -26.7 1.146e+04 8.353e-09
 21.79199    -26.3 1.130e+04 7.437e-09
 21.83258    -25.3 1.078e+04 4.375e-09
 21.87317    -24.5 1.019e+04 2.372e-09
 21.90074    -23.1 9.768e+03 1.823e-09
 21.92103    -23.5 9.588e+03 1.771e-09
 21.95435    -21.4 9.474e+03 1.645e-09
 21.99494    -19.3 9.378e+03 1.602e-09
 22.03551    -16.9 9.300e+03 1.532e-09
 22.07610    -14.3 8.954e+03 9.362e-10
 22.11671    -12.0 8.904e+03 7.319e-10
 22.15730     -9.8 8.840e+03 6.013e-10
 22.19057     -7.6 8.798e+03 5.237e-10
 22.21086     -7.8 8.740e+03 4.987e-10
 22.23848     -5.7 8.752e+03 5.427e-10
 22.26653     -3.5 8.734e+03 6.070e-10
 22.28682     -3.3 8.847e+03 6.660e-10
 22.31966     -0.9 8.858e+03 7.336e-10
 22.34563      1.2 8.969e+03 6.972e-10
 22.36593      1.3 9.090e+03 6.992e-10
 22.40085      3.0 9.154e+03 6.955e-10
 22.44144      4.5 9.204e+03 8.076e-10
 22.48040      6.6 9.169e+03 9.932e-10
 22.50069      6.7 9.130e+03 9.319e-10
 22.52262      8.9 9.151e+03 8.977e-10
 22.56321     10.9 9.208e+03 7.917e-10
 22.60380     12.6 9.315e+03 6.530e-10
 22.63546     14.3 9.354e+03 6.413e-10
 22.65576     14.2 9.346e+03 6.012e-10
 22.68498     15.4 9.579e+03 7.547e-10
 22.72557     16.7 9.929e+03 1.801e-09
 22.75591     16.0 1.071e+04 3.609e-09
 22.77611     14.3 1.174e+04 8.123e-09
 22.79033     13.0 1.265e+04 2.039e-08
 22.80048     12.7 1.313e+04 3.302e-08
 22.81670     13.4 1.426e+04 6.071e-08
 22.83700     13.3 1.468e+04 6.349e-08
 22.85729     13.0 1.444e+04 5.155e-08
 22.86786     11.5 1.413e+04 3.422e-08
 22.87801     11.5 1.395e+04 3.020e-08
 22.89021      9.1 1.376e+04 1.754e-08
 22.90036      7.8 1.332e+04 1.279e-08
 22.92520      5.6 1.242e+04 1.077e-08
 22.94559      5.4 1.223e+04 7.591e-09
 22.96911      4.3 1.168e+04 6.808e-09
 23.00970      3.5 1.109e+04 5.457e-09
 23.05029      3.4 1.059e+04 3.749e-09
 23.08036      3.6 1.065e+04 1.859e-09
 23.10065      3.4 1.095e+04 3.504e-09
 23.13147      2.8 1.119e+04 3.140e-09
 23.17207      1.3 1.121e+04 5.283e-09
 23.21266      2.1 1.110e+04 1.102e-08
 23.23542      3.0 1.106e+04 1.236e-08
 23.24547      2.7 1.129e+04 1.577e-08
 23.26320      3.6 1.104e+04 1.401e-08
 23.28349      4.0 1.101e+04 1.009e-08
 23.30261      3.3 1.105e+04 7.790e-09
 23.31275      2.2 1.079e+04 4.824e-09
 23.32408      1.6 1.064e+04 4.791e-09
 23.34438      0.8 1.072e+04 5.332e-09
 23.36467      0.8 1.071e+04 7.300e-09
 23.38014      0.8 1.098e+04 8.366e-09
 23.39029      0.4 1.068e+04 5.800e-09
 23.40527      0.6 1.057e+04 7.972e-09
 23.42556      0.8 1.071e+04 8.673e-09
 23.44586      0.0 1.128e+04 9.148e-09
 23.45767     -1.6 1.164e+04 9.812e-09
 23.46782     -2.3 1.177e+04 9.868e-09
 23.49389     -2.0 1.124e+04 1.524e-08
 23.51419     -2.1 1.123e+04 1.586e-08
 23.52505     -1.5 1.137e+04 1.041e-08
 23.53520     -1.4 1.160e+04 1.133e-08
 23.54733     -2.0 1.114e+04 9.956e-09
 23.57787     -3.0 1.047e+04 6.549e-09
 23.61856     -2.7 9.785e+03 4.040e-09
 23.65915     -1.7 9.506e+03 3.310e-09
 23.68031     -0.1 9.285e+03 2.986e-09
 23.70061     -0.1 9.345e+03 3.500e-09
 23.74033      2.4 9.353e+03 3.169e-09
 23.77068      3.9 9.561e+03 3.023e-09
 23.79088     -0.8 1.295e+04 4.778e-09
 23.81081    -13.3 1.729e+04 3.597e-08
 23.82096    -17.7 1.953e+04 9.994e-08
 23.82498    -18.1 1.759e+04 7.531e-07
 23.83001    -15.9 1.781e+04 7.595e-07
 23.83644    -12.8 1.759e+04 1.672e-06
 23.84659    -11.0 1.752e+04 1.967e-06
 23.85674     -9.0 1.906e+04 8.060e-07
 23.86370    -15.6 2.238e+04 1.886e-07
 23.86877    -19.6 2.085e+04 1.037e-07
 23.87703    -28.6 1.494e+04 4.435e-08
 23.89230    -29.9 1.383e+04 3.633e-08
 23.91265    -30.2 1.272e+04 1.933e-08
 23.93294    -30.7 1.219e+04 1.274e-08
 23.95324    -31.6 1.168e+04 8.633e-09
 23.96995    -32.5 1.121e+04 7.055e-09
 23.98009    -32.2 1.106e+04 5.810e-09
 23.99383    -33.1 1.077e+04 5.465e-09
 24.01412    -33.6 1.072e+04 5.496e-09
 24.03442    -34.1 1.080e+04 6.117e-09
 24.04748    -34.7 1.089e+04 6.796e-09
 24.05763    -34.4 1.083e+04 6.676e-09
 24.07501    -34.7 1.094e+04 7.356e-09
 24.09530    -35.3 1.103e+04 7.660e-09
 24.11486    -36.1 1.103e+04 7.683e-09
 24.12501    -35.5 1.102e+04 8.256e-09
 24.12782    -36.2 1.094e+04 7.547e-09
 24.13797    -36.9 1.091e+04 7.492e-09
 24.15619    -37.4 1.079e+04 6.833e-09
 24.17649    -37.9 1.068e+04 6.121e-09
 24.19239    -38.4 1.059e+04 5.476e-09
 24.20254    -37.8 1.051e+04 5.408e-09
 24.21708    -38.4 1.044e+04 4.923e-09
 24.23737    -38.9 1.051e+04 4.847e-09
 24.25988    -39.7 1.053e+04 4.710e-09
 24.28027    -38.5 1.032e+04 3.608e-09
 24.30860    -39.7 1.041e+04 3.471e-09
 24.34919    -41.4 1.078e+04 4.074e-09
 24.38978    -43.2 1.096e+04 5.989e-09
 24.41504    -45.0 1.121e+04 8.206e-09
 24.43533    -44.1 1.104e+04 5.715e-09
 24.47096    -46.5 1.168e+04 1.046e-08
 24.51155    -50.4 1.219e+04 1.251e-08
 24.54980    -55.6 1.231e+04 7.998e-09
 24.57000    -57.1 1.274e+04 9.486e-09
 24.58239    -61.0 1.203e+04 5.451e-09
 24.60269    -64.5 1.175e+04 4.562e-09
 24.62298    -67.5 1.176e+04 4.472e-09
 24.63729    -70.3 1.206e+04 5.009e-09
 24.64743    -70.5 1.186e+04 4.701e-09
 24.66357    -73.1 1.202e+04 5.688e-09
 24.68387    -75.1 1.207e+04 6.697e-09
 24.70477    -77.2 1.209e+04 7.675e-09
 24.72506    -78.9 1.192e+04 7.557e-09
 24.74156    -80.3 1.187e+04 7.835e-09
 24.75170    -81.4 1.222e+04 8.371e-09
 24.76505    -82.7 1.201e+04 8.413e-09
 24.78220    -83.7 1.159e+04 8.152e-09
 24.79235    -83.9 1.161e+04 7.732e-09
 24.80564    -84.7 1.127e+04 7.441e-09
 24.82593    -85.2 1.093e+04 6.984e-09
 24.84623    -85.5 1.066e+04 6.146e-09
 24.85973    -85.7 1.049e+04 4.921e-09
 24.86988    -85.8 1.069e+04 5.052e-09
 24.88682    -86.1 1.054e+04 3.827e-09
 24.91736    -86.4 1.034e+04 2.836e-09
 24.95805    -86.5 9.866e+03 2.041e-09
 24.99470    -85.7 9.464e+03 1.414e-09
 25.01499    -85.7 9.731e+03 1.294e-09
 25.03923    -85.1 9.788e+03 1.150e-09
 25.07982    -85.0 9.913e+03 1.132e-09
 25.12041    -85.3 1.039e+04 1.365e-09
 25.14976    -85.2 1.048e+04 2.334e-09
 25.17005    -86.5 1.053e+04 4.328e-09
 25.20159    -86.1 1.099e+04 5.914e-09
 25.22719    -85.4 1.153e+04 7.781e-09
 25.23724    -87.2 1.133e+04 7.587e-09
 25.25213    -95.9 1.680e+04 1.110e-08
 25.26581   -105.5 2.307e+04 3.068e-08
 25.27084   -107.4 2.203e+04 4.156e-08
 25.27741   -111.2 2.083e+04 1.671e-07
 25.28755   -114.4 1.924e+04 5.738e-07
 25.29770   -116.7 1.898e+04 1.001e-06
 25.30453   -119.9 1.897e+04 1.091e-06
 25.30960   -121.8 1.918e+04 5.097e-07
 25.31800   -125.7 1.909e+04 3.020e-07
 25.32814   -131.1 1.815e+04 8.776e-08
 25.33822   -137.9 1.505e+04 2.264e-08
 25.34329   -138.2 1.403e+04 1.944e-08
 25.34844   -142.1 1.241e+04 1.169e-08
 25.35859   -143.1 1.193e+04 9.880e-09
 25.36539   -143.9 1.153e+04 8.116e-09
 25.37369   -143.0 1.152e+04 8.509e-09
 25.38216   -142.7 1.101e+04 6.339e-09
 25.39420   -143.7 1.043e+04 4.358e-09
 25.41450   -143.7 1.025e+04 3.862e-09
 25.43479   -143.5 1.018e+04 3.572e-09
 25.44954   -142.8 1.011e+04 3.268e-09
 25.45969   -142.3 9.905e+03 2.502e-09
 25.48563   -141.8 9.809e+03 2.340e-09
 25.52632   -140.7 9.661e+03 2.059e-09
 25.56691   -139.1 9.511e+03 1.770e-09
 25.59465   -137.4 9.426e+03 1.519e-09
 25.61495   -136.5 9.347e+03 1.330e-09
 25.64809   -134.6 9.369e+03 1.276e-09
 25.68868   -132.7 9.388e+03 1.212e-09
 25.72927   -130.8 9.402e+03 1.160e-09
 25.76986   -127.8 9.423e+03 1.356e-09
 25.81045   -125.8 9.463e+03 1.424e-09
 25.85104   -123.8 9.509e+03 1.446e-09
 25.88448   -121.7 9.540e+03 1.438e-09
 25.90478   -120.6 9.620e+03 1.926e-09
 25.93222   -118.5 9.639e+03 1.960e-09
 25.96922   -116.5 9.701e+03 1.867e-09
 25.98951   -116.3 9.642e+03 1.599e-09
 26.01340   -114.3 9.700e+03 1.349e-09
 26.03955   -112.3 9.775e+03 1.100e-09
 26.05984   -111.1 9.855e+03 1.951e-09
 26.09458   -109.2 9.950e+03 1.520e-09
 26.13517   -107.5 1.009e+04 1.151e-09
 26.17431   -105.8 1.014e+04 9.703e-10
 26.19461   -104.6 1.020e+04 1.970e-09
 26.21635   -103.0 1.033e+04 1.636e-09
 26.25694   -101.6 1.037e+04 1.508e-09
 26.29754   -100.2 1.038e+04 1.494e-09
 26.32938    -99.0 1.037e+04 1.670e-09
 26.34967    -97.7 1.058e+04 3.666e-09
 26.37872    -96.4 1.066e+04 3.484e-09
 26.41931    -95.1 1.073e+04 3.283e-09
 26.45990    -94.0 1.074e+04 3.019e-09
 26.48444    -93.0 1.072e+04 2.713e-09
 26.50473    -91.5 1.109e+04 4.370e-09
 26.54108    -90.4 1.102e+04 3.529e-09
 26.58167    -89.3 1.096e+04 2.889e-09
 26.60325    -88.2 1.100e+04 2.495e-09
 26.62049    -87.7 1.111e+04 3.056e-09
 26.63950    -86.7 1.176e+04 5.136e-09
 26.66285    -86.2 1.181e+04 4.825e-09
 26.70344    -86.0 1.183e+04 4.787e-09
 26.74403    -85.9 1.190e+04 4.896e-09
 26.77427    -86.0 1.188e+04 4.962e-09
 26.78432    -86.8 1.196e+04 8.918e-09
 26.79457    -86.3 1.171e+04 8.476e-09
 26.81487    -85.9 1.156e+04 6.980e-09
 26.83516    -85.4 1.142e+04 5.378e-09
 26.85161    -84.9 1.119e+04 3.996e-09
 26.86175    -84.7 1.119e+04 4.010e-09
 26.87576    -84.2 1.106e+04 3.062e-09
 26.90630    -83.7 1.091e+04 2.276e-09
 26.92933    -82.2 1.078e+04 1.510e-09
 26.94963    -81.9 1.095e+04 1.661e-09
 26.98757    -80.3 1.075e+04 1.580e-09
 27.02816    -78.9 1.072e+04 1.585e-09
 27.06410    -78.1 1.084e+04 1.784e-09
 27.08440    -77.3 1.098e+04 2.567e-09
 27.10935    -76.9 1.137e+04 3.154e-09
 27.14994    -76.7 1.178e+04 3.863e-09
 27.18028    -77.0 1.202e+04 4.718e-09
 27.20048    -77.4 1.219e+04 5.504e-09
 27.21678    -78.0 1.233e+04 6.197e-09
 27.22512    -76.9 1.188e+04 5.728e-09
 27.23936    -75.1 1.171e+04 8.020e-09
 27.27171    -76.1 1.187e+04 8.492e-09
 27.31230    -76.8 1.183e+04 7.455e-09
 27.35289    -76.7 1.160e+04 4.753e-09
 27.37423    -76.1 1.145e+04 2.490e-09
 27.39452    -73.8 1.151e+04 2.834e-09
 27.43407    -73.2 1.150e+04 1.336e-09
 27.47466    -72.2 1.165e+04 8.431e-10
 27.50899    -70.8 1.173e+04 7.617e-10
 27.52929    -68.8 1.168e+04 7.604e-10
 27.55584    -67.5 1.179e+04 7.572e-10
 27.59643    -66.9 1.208e+04 1.029e-09
 27.63702    -66.2 1.212e+04 1.579e-09
 27.66406    -65.6 1.226e+04 1.942e-09
 27.68435    -63.5 1.220e+04 2.094e-09
 27.71820    -63.0 1.233e+04 2.257e-09
 27.75879    -62.6 1.244e+04 2.103e-09
 27.79882    -61.9 1.266e+04 1.452e-09
 27.81912    -60.4 1.271e+04 2.033e-09
 27.83071    -59.6 1.292e+04 1.418e-09
 27.85101    -59.5 1.289e+04 1.879e-09
 27.88057    -58.5 1.317e+04 1.346e-09
 27.92116    -57.1 1.330e+04 1.222e-09
 27.95389    -56.0 1.360e+04 1.228e-09
 27.97418    -55.1 1.345e+04 1.856e-09
 28.00234    -54.8 1.394e+04 2.271e-09
 28.03132    -55.0 1.383e+04 4.039e-09
 28.04137    -54.7 1.389e+04 3.901e-09
 28.05288    -54.8 1.386e+04 5.906e-09
 28.07318    -54.8 1.401e+04 9.483e-09
 28.09347    -55.3 1.435e+04 1.581e-08
 28.10875    -55.8 1.480e+04 2.616e-08
 28.11890    -55.4 1.455e+04 2.152e-08
 28.13406    -56.3 1.464e+04 2.681e-08
 28.14753    -57.2 1.456e+04 2.774e-08
 28.15768    -57.4 1.468e+04 3.505e-08
 28.17465    -57.6 1.398e+04 2.887e-08
 28.18629    -57.5 1.339e+04 1.802e-08
 28.19643    -57.3 1.332e+04 1.515e-08
 28.21524    -57.3 1.298e+04 1.039e-08
 28.23554    -57.3 1.270e+04 7.678e-09
 28.25367    -57.1 1.252e+04 6.243e-09
 28.26392    -56.8 1.266e+04 7.419e-09
 28.28647    -55.6 1.226e+04 5.015e-09
 28.32706    -54.2 1.196e+04 3.779e-09
 28.36765    -52.8 1.180e+04 3.361e-09
 28.39878    -51.4 1.169e+04 3.130e-09
 28.41908    -50.7 1.162e+04 3.075e-09
 28.44444    -49.2 1.153e+04 2.762e-09
 28.46474    -49.4 1.157e+04 2.886e-09
 28.48942    -48.1 1.153e+04 3.051e-09
 28.53001    -47.0 1.148e+04 3.124e-09
 28.55384    -45.9 1.144e+04 3.133e-09
 28.57414    -45.1 1.123e+04 2.540e-09
 28.61120    -44.0 1.125e+04 2.916e-09
 28.65179    -43.0 1.130e+04 3.080e-09
 28.68861    -42.2 1.134e+04 2.989e-09
 28.70891    -41.2 1.132e+04 3.750e-09
 28.73297    -40.6 1.130e+04 3.408e-09
 28.77356    -39.8 1.120e+04 2.460e-09
 28.81415    -39.2 1.111e+04 1.745e-09
 28.84367    -38.5 1.099e+04 1.488e-09
 28.86397    -38.0 1.095e+04 1.880e-09
 28.89533    -37.1 1.088e+04 1.662e-09
 28.93592    -36.1 1.088e+04 1.624e-09
 28.97651    -35.0 1.092e+04 1.665e-09
 28.99874    -34.0 1.104e+04 1.695e-09
 29.01903    -33.6 1.096e+04 1.709e-09
 29.05769    -32.7 1.111e+04 1.733e-09
 29.07847    -32.0 1.127e+04 1.777e-09
 29.09877    -32.1 1.108e+04 2.470e-09
 29.13350    -31.4 1.130e+04 2.497e-09
 29.15380    -30.9 1.134e+04 2.745e-09
 29.17946    -30.4 1.144e+04 2.827e-09
 29.22005    -30.3 1.145e+04 2.881e-09
 29.26064    -30.5 1.147e+04 2.859e-09
 29.28857    -31.6 1.173e+04 3.450e-09
 29.30886    -30.9 1.131e+04 2.821e-09
 29.34182    -32.0 1.152e+04 3.525e-09
 29.38242    -33.0 1.166e+04 4.040e-09
 29.42301    -33.8 1.151e+04 3.666e-09
 29.44363    -34.5 1.118e+04 2.548e-09
 29.46393    -32.9 1.116e+04 2.600e-09
 29.50419    -33.5 1.122e+04 2.133e-09
 29.54478    -34.4 1.133e+04 2.195e-09
 29.57840    -35.8 1.164e+04 3.886e-09
 29.59869    -34.0 1.162e+04 4.112e-09
 29.62596    -35.4 1.202e+04 7.431e-09
 29.66655    -37.1 1.222e+04 8.608e-09
 29.69211    -38.3 1.193e+04 7.143e-09
 29.70216    -38.2 1.208e+04 7.744e-09
 29.71709    -38.8 1.190e+04 4.524e-09
 29.73326    -40.2 1.170e+04 2.878e-09
 29.74341    -39.2 1.161e+04 2.871e-09
 29.75768    -40.1 1.134e+04 2.243e-09
 29.78822    -40.4 1.110e+04 2.037e-09
 29.82891    -41.1 1.105e+04 2.087e-09
 29.86823    -42.2 1.126e+04 3.330e-09
 29.88852    -40.2 1.112e+04 2.586e-09
 29.91009    -41.4 1.141e+04 4.688e-09
 29.94044    -43.1 1.157e+04 6.457e-09
 29.95571    -43.7 1.163e+04 6.751e-09
 29.96586    -42.8 1.154e+04 6.547e-09
 29.98093    -43.5 1.156e+04 6.496e-09
 29.99887    -44.2 1.143e+04 5.526e-09
 30.00902    -44.0 1.154e+04 5.570e-09
 30.02152    -44.6 1.136e+04 4.595e-09
 30.03324    -45.2 1.120e+04 4.056e-09
 30.04339    -44.4 1.102e+04 4.085e-09
 30.07236    -44.7 1.095e+04 3.830e-09
 30.11304    -44.7 1.096e+04 3.732e-09
 30.15364    -45.5 1.126e+04 3.895e-09
 30.17835    -46.8 1.215e+04 7.008e-09
 30.19865    -46.1 1.165e+04 4.745e-09
 30.22457    -47.4 1.218e+04 8.329e-09
 30.24477    -49.5 1.342e+04 1.711e-08
 30.25569    -51.4 1.504e+04 4.423e-08
 30.26584    -51.6 1.446e+04 2.661e-08
 30.28536    -53.6 1.586e+04 7.042e-08
 30.30565    -55.5 1.668e+04 1.165e-07
 30.32307    -57.7 1.734e+04 1.632e-07
 30.33322    -57.9 1.727e+04 1.564e-07
 30.34624    -60.4 1.672e+04 1.317e-07
 30.36654    -62.0 1.530e+04 5.782e-08
 30.38684    -63.7 1.353e+04 1.893e-08
 30.40060    -65.5 1.247e+04 7.731e-09
 30.41075    -65.2 1.271e+04 1.348e-08
 30.42743    -66.2 1.206e+04 7.988e-09
 30.44772    -66.4 1.173e+04 5.909e-09
 30.46799    -66.5 1.154e+04 4.758e-09
 30.48828    -66.0 1.161e+04 5.499e-09
 30.50861    -65.7 1.147e+04 4.650e-09
 30.52890    -65.4 1.135e+04 4.147e-09
 30.54552    -65.1 1.128e+04 3.923e-09
 30.55567    -64.8 1.137e+04 4.771e-09
 30.56949    -64.6 1.131e+04 4.664e-09
 30.58979    -64.4 1.131e+04 4.641e-09
 30.61008    -64.3 1.139e+04 4.709e-09
 30.62275    -65.1 1.184e+04 6.361e-09
 30.62558    -65.4 1.223e+04 6.683e-09
 30.63320    -64.5 1.193e+04 6.688e-09
 30.65067    -65.7 1.264e+04 9.921e-09
 30.67097    -67.3 1.332e+04 1.570e-08
 30.69044    -69.2 1.378e+04 2.239e-08
 30.70058    -68.1 1.376e+04 2.237e-08
 30.71156    -70.3 1.415e+04 2.928e-08
 30.73185    -73.0 1.430e+04 3.074e-08
 30.75215    -76.8 1.445e+04 2.771e-08
 30.76797    -81.7 1.487e+04 2.517e-08
 30.77811    -82.7 1.666e+04 5.318e-08
 30.78762    -86.7 1.657e+04 3.863e-08
 30.79772    -89.7 1.753e+04 5.054e-08
 30.80663    -94.1 1.793e+04 8.369e-08
 30.81171    -94.8 1.840e+04 1.644e-07
 30.81801    -96.9 1.840e+04 2.572e-07
 30.82816    -98.6 1.828e+04 3.354e-07
 30.83831    -99.9 1.821e+04 3.616e-07
 30.84540   -101.0 1.801e+04 3.230e-07
 30.85047   -101.1 1.784e+04 2.503e-07
 30.85860   -102.6 1.742e+04 1.530e-07
 30.86875   -104.9 1.670e+04 7.697e-08
 30.87890   -107.7 1.563e+04 3.835e-08
 30.89417   -111.3 1.418e+04 1.855e-08
 30.91288   -116.5 1.159e+04 6.698e-09
 30.92303   -119.4 9.488e+03 3.713e-09
 30.92962   -120.4 8.974e+03 3.223e-09
 30.93977   -118.9 9.191e+03 3.485e-09
 30.95510   -119.4 8.869e+03 3.139e-09
 30.97540   -119.4 8.840e+03 3.039e-09
 30.99041   -119.3 8.810e+03 2.923e-09
 31.00056   -119.1 8.752e+03 2.729e-09
 31.01599   -118.9 8.758e+03 2.709e-09
 31.04653   -118.7 8.785e+03 2.703e-09
 31.06814   -118.5 8.693e+03 2.370e-09
 31.08844   -119.1 8.431e+03 1.823e-09
 31.12781   -119.5 8.399e+03 1.756e-09
 31.16840   -119.8 8.382e+03 1.853e-09
 31.20291   -120.0 8.493e+03 1.974e-09
 31.22320   -120.6 8.535e+03 2.185e-09
 31.24958   -122.6 9.533e+03 2.685e-09
 31.27992   -124.2 1.028e+04 2.615e-09
 31.29039   -127.4 1.151e+04 4.347e-09
 31.30054   -129.6 1.254e+04 6.993e-09
 31.32042   -132.1 1.378e+04 1.580e-08
 31.34071   -134.8 1.434e+04 3.438e-08
 31.35778   -136.9 1.460e+04 4.705e-08
 31.36792   -138.8 1.480e+04 5.312e-08
 31.38130   -141.0 1.427e+04 4.513e-08
 31.40160   -143.4 1.318e+04 2.708e-08
 31.42189   -146.0 1.175e+04 1.458e-08
 31.43531   -148.2 1.064e+04 9.172e-09
 31.44545   -149.8 1.016e+04 6.937e-09
 31.46248   -150.5 1.006e+04 6.238e-09
 31.48278   -150.9 1.007e+04 6.043e-09
 31.50269   -151.3 1.009e+04 5.996e-09
 31.51284   -151.9 1.001e+04 5.595e-09
 31.52337   -152.5 1.024e+04 6.018e-09
 31.54335   -153.1 1.047e+04 6.738e-09
 31.55350   -151.9 1.042e+04 6.809e-09
 31.56396   -152.5 1.058e+04 7.233e-09
 31.58022   -153.4 1.081e+04 7.884e-09
 31.59037   -154.3 1.107e+04 9.007e-09
 31.60455   -155.6 1.151e+04 1.117e-08
 31.62485   -157.0 1.212e+04 1.514e-08
 31.64514   -158.5 1.281e+04 2.123e-08
 31.65775   -160.1 1.344e+04 2.818e-08
 31.66790   -161.1 1.312e+04 2.327e-08
 31.68573   -162.9 1.325e+04 2.388e-08
 31.70603   -164.9 1.333e+04 2.235e-08
 31.72514   -166.9 1.314e+04 1.801e-08
 31.73528   -168.3 1.226e+04 9.619e-09
 31.74662   -170.1 1.196e+04 7.283e-09
 31.76691   -171.2 1.173e+04 5.769e-09
 31.78721   -171.8 1.161e+04 4.820e-09
 31.80267   -172.1 1.161e+04 4.137e-09
 31.81282   -172.8 1.138e+04 2.665e-09
 31.82780   -172.9 1.140e+04 2.258e-09
 31.84809   -172.6 1.141e+04 2.044e-09
 31.86037   -172.2 1.144e+04 1.996e-09
 31.87051   -171.9 1.156e+04 2.231e-09
 31.89893   -171.7 1.152e+04 1.989e-09
 31.93763   -171.0 1.147e+04 1.879e-09
 31.95793   -171.4 1.116e+04 1.593e-09
 31.98021   -170.4 1.139e+04 1.656e-09
 32.02080   -169.6 1.152e+04 1.984e-09
 32.06139   -169.1 1.170e+04 2.623e-09
 32.09269   -168.9 1.197e+04 3.870e-09
 32.11299   -169.9 1.188e+04 4.462e-09
 32.14257   -170.2 1.208e+04 6.273e-09
 32.16743   -170.6 1.224e+04 7.405e-09
 32.18772   -169.9 1.264e+04 8.075e-09
 32.22375   -170.6 1.264e+04 8.346e-09
 32.24776   -171.1 1.246e+04 6.977e-09
 32.26805   -172.4 1.231e+04 3.935e-09
 32.30493   -172.4 1.225e+04 2.553e-09
 32.34552   -172.3 1.211e+04 2.008e-09
 32.38253   -171.4 1.213e+04 1.614e-09
 32.40282   -172.6 1.217e+04 1.207e-09
 32.42670   -171.7 1.237e+04 1.109e-09
 32.46730   -170.7 1.243e+04 1.094e-09
 32.50789   -169.8 1.257e+04 1.092e-09
 32.53759   -168.9 1.284e+04 1.097e-09
 32.55788   -170.1 1.293e+04 9.495e-10
 32.58907   -169.1 1.306e+04 9.965e-10
 32.62966   -168.1 1.316e+04 1.088e-09
 32.67025   -167.1 1.325e+04 1.266e-09
 32.69265   -166.3 1.334e+04 1.546e-09
 32.71295   -167.2 1.339e+04 1.340e-09
 32.75143   -166.7 1.349e+04 1.647e-09
 32.78116   -166.4 1.365e+04 1.993e-09
 32.80146   -165.5 1.374e+04 1.972e-09
 32.82742   -165.4 1.405e+04 2.394e-09
 32.84771   -166.1 1.406e+04 2.097e-09
 32.87320   -166.2 1.436e+04 2.512e-09
 32.91379   -166.2 1.466e+04 2.737e-09
 32.95438   -166.2 1.479e+04 2.786e-09
 32.98248   -165.9 1.481e+04 2.792e-09
 33.00278   -166.3 1.486e+04 3.148e-09
 33.03556   -165.9 1.471e+04 3.399e-09
 33.07615   -165.6 1.448e+04 3.681e-09
 33.11674   -165.4 1.430e+04 3.912e-09
 33.13754   -165.2 1.423e+04 3.983e-09
 33.15784   -165.4 1.430e+04 4.536e-09
 33.19792   -165.1 1.409e+04 4.527e-09
 33.23852   -164.6 1.371e+04 3.753e-09
 33.27231   -163.8 1.358e+04 2.789e-09
 33.29261   -163.6 1.359e+04 2.434e-09
 33.31970   -162.3 1.352e+04 1.795e-09
 33.36029   -160.6 1.352e+04 1.448e-09
 33.39489   -158.8 1.357e+04 1.361e-09
 33.41519   -159.0 1.355e+04 1.187e-09
 33.42737   -157.3 1.362e+04 1.186e-09
 33.44767   -157.7 1.372e+04 1.279e-09
 33.48206   -156.5 1.376e+04 1.606e-09
 33.52265   -155.5 1.376e+04 2.057e-09
 33.56214   -154.6 1.377e+04 2.442e-09
 33.58244   -155.2 1.375e+04 1.830e-09
 33.60383   -154.3 1.383e+04 1.689e-09
 33.64442   -153.2 1.389e+04 1.478e-09
 33.68501   -152.1 1.395e+04 1.319e-09
 33.71721   -150.7 1.397e+04 1.237e-09
 33.73750   -150.7 1.376e+04 1.164e-09
 33.76619   -149.0 1.376e+04 1.158e-09
 33.80678   -147.2 1.375e+04 1.198e-09
 33.84737   -145.3 1.374e+04 1.297e-09
 33.87227   -143.4 1.375e+04 1.391e-09
 33.89256   -143.0 1.373e+04 1.363e-09
 33.92855   -141.1 1.375e+04 1.405e-09
 33.96914   -139.1 1.377e+04 1.413e-09
 34.00704   -137.1 1.387e+04 1.370e-09
 34.02622   -136.5 1.402e+04 1.120e-09
 34.02892   -136.2 1.393e+04 9.285e-10
 34.05033   -134.4 1.405e+04 9.126e-10
 34.09092   -133.0 1.444e+04 9.631e-10
 34.13151   -132.2 1.466e+04 1.222e-09
 34.16210   -131.7 1.472e+04 1.731e-09
 34.18239   -132.1 1.461e+04 4.565e-09
 34.21269   -131.9 1.470e+04 6.282e-09
 34.25328   -132.0 1.471e+04 6.963e-09
 34.29387   -132.0 1.466e+04 6.997e-09
 34.31716   -130.8 1.449e+04 5.426e-09
 34.33746   -131.0 1.448e+04 7.128e-09
 34.37505   -128.7 1.462e+04 3.770e-09
 34.41564   -126.3 1.507e+04 2.028e-09
 34.45193   -124.2 1.575e+04 1.180e-09
 34.47222   -124.5 1.613e+04 1.364e-09
 34.49682   -123.0 1.659e+04 1.017e-09
 34.53741   -121.8 1.671e+04 9.840e-10
 34.57800   -120.9 1.657e+04 1.501e-09
 34.60699   -119.9 1.584e+04 2.789e-09
 34.62729   -120.6 1.525e+04 7.105e-09
 34.64265   -119.5 1.532e+04 8.083e-09
 34.66295   -118.5 1.562e+04 3.407e-09
 34.69977   -117.5 1.562e+04 4.121e-09
 34.74036   -116.5 1.559e+04 4.942e-09
 34.76205   -115.5 1.554e+04 6.010e-09
 34.78235   -116.6 1.494e+04 1.389e-08
 34.82155   -115.6 1.491e+04 1.456e-08
 34.86214   -114.6 1.484e+04 1.374e-08
 34.89682   -113.3 1.475e+04 1.115e-08
 34.91712   -113.8 1.489e+04 6.529e-09
 34.94332   -112.3 1.467e+04 5.425e-09
 34.98391   -110.6 1.447e+04 4.937e-09
 35.02450   -108.9 1.441e+04 4.879e-09
 35.05189   -107.3 1.439e+04 5.082e-09
 35.07218   -108.2 1.433e+04 4.660e-09
 35.10568   -107.1 1.438e+04 6.117e-09
 35.14627   -106.3 1.451e+04 8.375e-09
 35.18665   -105.7 1.462e+04 1.031e-08
 35.20695   -106.7 1.437e+04 7.974e-09
 35.22745   -106.2 1.434e+04 8.052e-09
 35.25639   -105.6 1.426e+04 7.477e-09
 35.27668   -103.9 1.433e+04 8.304e-09
 35.30863   -103.3 1.428e+04 8.279e-09
 35.34172   -102.6 1.422e+04 7.866e-09
 35.36201   -103.3 1.412e+04 6.534e-09
 35.38981   -102.3 1.417e+04 6.136e-09
 35.43040   -101.1 1.428e+04 5.778e-09
 35.47099    -99.9 1.440e+04 5.446e-09
 35.49678    -98.7 1.443e+04 5.040e-09
 35.51707    -99.0 1.436e+04 4.151e-09
 35.55217    -97.6 1.436e+04 3.660e-09
 35.59277    -96.2 1.437e+04 3.151e-09
 35.63155    -94.7 1.441e+04 2.681e-09
 35.65184    -94.7 1.436e+04 2.562e-09
 35.67395    -93.1 1.440e+04 2.227e-09
 35.71454    -91.5 1.438e+04 2.052e-09
 35.75513    -89.9 1.436e+04 2.021e-09
 35.78661    -88.6 1.435e+04 2.105e-09
 35.80690    -88.8 1.437e+04 2.261e-09
 35.83631    -88.3 1.429e+04 3.388e-09
 35.87012    -87.9 1.419e+04 4.797e-09
 35.89041    -87.5 1.428e+04 4.979e-09
 35.91749    -87.3 1.432e+04 6.062e-09
 35.94167    -87.3 1.435e+04 6.280e-09
 35.96197    -88.3 1.437e+04 6.940e-09
 35.99867    -88.2 1.439e+04 6.162e-09
 36.03926    -87.4 1.444e+04 4.625e-09
 36.07644    -86.3 1.443e+04 3.405e-09
 36.09673    -86.9 1.461e+04 2.639e-09
 36.12044    -85.6 1.469e+04 2.063e-09
 36.16103    -84.2 1.471e+04 1.921e-09
 36.20162    -83.0 1.476e+04 1.930e-09
 36.23150    -82.2 1.479e+04 2.431e-09
 36.25180    -82.3 1.492e+04 1.936e-09
 36.28280    -81.7 1.492e+04 2.397e-09
 36.32339    -81.2 1.498e+04 2.656e-09
 36.36399    -80.8 1.499e+04 2.680e-09
 36.38657    -80.5 1.499e+04 2.636e-09
 36.40686    -80.3 1.498e+04 2.452e-09
 36.44517    -80.1 1.500e+04 2.490e-09
 36.48385    -80.2 1.513e+04 2.710e-09
 36.50415    -80.9 1.498e+04 3.276e-09
 36.52133    -81.3 1.500e+04 4.078e-09
 36.54163    -81.2 1.495e+04 4.007e-09
 36.56694    -81.7 1.493e+04 4.614e-09
 36.60753    -82.5 1.489e+04 5.325e-09
 36.64812    -83.3 1.479e+04 5.972e-09
 36.67640    -84.0 1.457e+04 6.469e-09
 36.69669    -83.7 1.447e+04 4.806e-09
 36.72930    -84.1 1.418e+04 4.451e-09
 36.76989    -84.2 1.400e+04 3.910e-09
 36.81048    -84.2 1.385e+04 3.529e-09
 36.83146    -84.2 1.381e+04 3.384e-09
 36.85175    -83.8 1.358e+04 2.491e-09
 36.89166    -83.8 1.355e+04 2.502e-09
 36.93225    -84.2 1.344e+04 3.330e-09
 36.96623    -84.5 1.334e+04 4.745e-09
 36.98652    -84.0 1.320e+04 3.577e-09
 37.01343    -84.2 1.307e+04 4.428e-09
 37.04366    -84.4 1.308e+04 4.802e-09
 37.05371    -84.1 1.300e+04 4.480e-09
 37.06398    -84.1 1.290e+04 4.185e-09
 37.08427    -84.2 1.270e+04 3.720e-09
 37.10457    -84.3 1.262e+04 3.368e-09
 37.11778    -84.2 1.257e+04 3.124e-09
 37.12426    -84.9 1.247e+04 2.417e-09
 37.14158    -84.4 1.242e+04 2.063e-09
 37.17580    -84.2 1.235e+04 1.916e-09
 37.21639    -84.0 1.231e+04 1.913e-09
 37.25606    -84.0 1.227e+04 1.911e-09
 37.27635    -83.7 1.231e+04 2.601e-09
 37.29757    -83.9 1.218e+04 2.333e-09
 37.33816    -83.9 1.211e+04 1.594e-09
 37.37875    -83.8 1.219e+04 9.350e-10
 37.41112    -83.8 1.231e+04 6.369e-10
 37.43141    -84.7 1.219e+04 8.576e-10
 37.45993    -84.7 1.211e+04 8.067e-10
 37.50052    -84.6 1.192e+04 1.131e-09
 37.54111    -84.4 1.195e+04 1.604e-09
 37.56618    -84.3 1.193e+04 2.091e-09
 37.58648    -85.5 1.204e+04 2.599e-09
 37.62229    -85.8 1.204e+04 3.245e-09
 37.66288    -86.1 1.206e+04 3.812e-09
 37.70095    -86.5 1.205e+04 4.028e-09
 37.72125    -88.0 1.219e+04 4.330e-09
 37.73161    -88.2 1.198e+04 3.722e-09
 37.75191    -88.4 1.185e+04 3.355e-09
 37.78465    -88.2 1.171e+04 2.444e-09
 37.82524    -87.9 1.165e+04 1.827e-09
 37.85601    -87.4 1.163e+04 1.524e-09
 37.87631    -88.7 1.170e+04 2.174e-09
 37.90643    -87.9 1.161e+04 1.907e-09
 37.94702    -86.8 1.157e+04 1.568e-09
 37.98761    -85.7 1.155e+04 1.307e-09
 38.01108    -84.5 1.148e+04 1.196e-09
 38.03137    -84.8 1.151e+04 1.607e-09
 38.06879    -83.2 1.152e+04 1.546e-09
 38.10938    -81.7 1.154e+04 1.546e-09
 38.14584    -80.3 1.162e+04 1.624e-09
 38.16614    -80.1 1.173e+04 1.913e-09
 38.19056    -78.9 1.177e+04 2.132e-09
 38.23115    -77.9 1.176e+04 2.192e-09
 38.27174    -76.8 1.167e+04 2.091e-09
 38.30091    -75.4 1.155e+04 1.680e-09
 38.32120    -75.2 1.163e+04 2.036e-09
 38.34535    -73.5 1.159e+04 1.421e-09
 38.36564    -72.9 1.152e+04 1.662e-09
 38.39351    -71.3 1.150e+04 1.151e-09
 38.43410    -69.6 1.151e+04 8.086e-10
 38.45597    -67.9 1.150e+04 6.173e-10
 38.47626    -67.4 1.156e+04 6.278e-10
 38.51528    -65.8 1.156e+04 5.278e-10
 38.55587    -64.1 1.156e+04 5.037e-10
 38.59074    -62.5 1.159e+04 5.030e-10
 38.61103    -62.4 1.162e+04 6.280e-10
 38.63705    -61.3 1.160e+04 7.453e-10
 38.67765    -60.1 1.159e+04 9.181e-10
 38.71824    -58.9 1.161e+04 1.061e-09
 38.74580    -57.7 1.163e+04 1.106e-09
 38.76609    -57.7 1.167e+04 1.073e-09
 38.79942    -56.5 1.174e+04 9.609e-10
 38.84001    -55.3 1.186e+04 8.555e-10
 38.88057    -54.2 1.197e+04 7.827e-10
 38.92116    -52.8 1.209e+04 7.172e-10
 38.95908    -51.7 1.215e+04 8.016e-10
 38.97937    -51.8 1.208e+04 9.440e-10
 39.00237    -50.7 1.214e+04 1.108e-09
 39.03563    -49.7 1.224e+04 1.228e-09
 39.05593    -49.4 1.224e+04 1.452e-09
 39.08355    -48.6 1.234e+04 1.545e-09
 39.12414    -47.8 1.245e+04 1.612e-09
 39.16473    -47.2 1.258e+04 1.742e-09
 39.19069    -46.7 1.268e+04 2.061e-09
 39.21099    -46.4 1.284e+04 1.997e-09
 39.24591    -45.8 1.296e+04 2.358e-09
 39.28650    -45.4 1.310e+04 2.879e-09
 39.32546    -45.0 1.322e+04 3.308e-09
 39.34576    -44.7 1.328e+04 2.988e-09
 39.36768    -44.2 1.340e+04 3.325e-09
 39.40827    -43.6 1.345e+04 3.296e-09
 39.44887    -42.6 1.347e+04 2.744e-09
 39.48052    -41.4 1.350e+04 2.356e-09
 39.50082    -41.2 1.368e+04 3.357e-09
 39.53005    -40.0 1.378e+04 3.479e-09
 39.57064    -39.0 1.401e+04 4.357e-09
 39.59311    -38.3 1.420e+04 6.557e-09
 39.61340    -38.8 1.445e+04 7.749e-09
 39.63549    -38.5 1.465e+04 9.914e-09
 39.64554    -39.6 1.477e+04 9.972e-09
 39.66177    -39.8 1.530e+04 1.156e-08
 39.68207    -41.7 1.716e+04 1.530e-08
 39.69724    -52.0 2.128e+04 5.285e-08
 39.70734    -56.7 2.025e+04 2.173e-07
 39.71282    -58.6 1.832e+04 1.075e-06
 39.71790    -58.8 1.847e+04 8.863e-07
 39.72763    -61.3 1.808e+04 2.349e-06
 39.73778    -65.9 1.801e+04 3.088e-06
 39.74625    -71.4 1.829e+04 1.701e-06
 39.74991    -71.9 1.855e+04 8.207e-07
 39.75159    -72.1 1.859e+04 5.089e-07
 39.75807    -76.7 1.803e+04 1.453e-07
 39.76822    -79.6 1.717e+04 7.102e-08
 39.78026    -83.1 1.585e+04 2.859e-08
 39.79045    -82.2 1.566e+04 2.540e-08
 39.80384    -84.8 1.493e+04 7.670e-09
 39.82413    -85.5 1.460e+04 4.790e-09
 39.84443    -85.4 1.449e+04 3.921e-09
 39.85784    -85.1 1.452e+04 3.257e-09
 39.86798    -84.2 1.453e+04 3.141e-09
 39.88502    -83.9 1.469e+04 2.915e-09
 39.89978    -83.9 1.481e+04 2.903e-09
 39.90992    -84.1 1.480e+04 2.946e-09
 39.92532    -84.2 1.491e+04 2.858e-09
 39.94571    -82.7 1.484e+04 2.758e-09
 39.97654    -82.2 1.493e+04 2.491e-09
 40.01713    -81.8 1.507e+04 2.115e-09
 40.05772    -81.4 1.515e+04 1.654e-09
 40.08048    -80.8 1.505e+04 1.276e-09
 40.10077    -80.0 1.521e+04 1.370e-09
 40.13890    -79.3 1.498e+04 1.148e-09
 40.17949    -78.4 1.482e+04 1.100e-09
 40.20684    -77.4 1.476e+04 1.100e-09
 40.22230    -77.6 1.480e+04 1.098e-09
 40.23554    -77.1 1.476e+04 1.044e-09
 40.26068    -76.2 1.472e+04 9.913e-10
 40.30127    -75.4 1.473e+04 9.595e-10
 40.34186    -74.6 1.470e+04 9.489e-10
 40.37031    -73.7 1.469e+04 9.503e-10
 40.39061    -73.1 1.476e+04 7.211e-10
 40.42304    -72.1 1.475e+04 7.254e-10
 40.46363    -71.1 1.472e+04 7.274e-10
 40.50422    -69.9 1.474e+04 6.937e-10
 40.52537    -68.6 1.480e+04 6.205e-10
 40.54567    -67.5 1.487e+04 5.024e-10
 40.58540    -66.1 1.494e+04 4.282e-10
 40.62599    -64.5 1.499e+04 3.783e-10
 40.66014    -62.8 1.503e+04 3.535e-10
 40.68044    -61.8 1.512e+04 3.018e-10
 40.70717    -60.1 1.516e+04 2.813e-10
 40.74776    -58.2 1.518e+04 2.721e-10
 40.78835    -56.3 1.519e+04 2.703e-10
 40.81520    -54.4 1.526e+04 2.773e-10
 40.82713    -53.5 1.528e+04 2.541e-10
 40.84087    -53.5 1.532e+04 2.674e-10
 40.86953    -51.9 1.523e+04 3.195e-10
 40.91012    -50.2 1.512e+04 4.174e-10
 40.94997    -48.6 1.503e+04 5.751e-10
 40.97027    -47.9 1.509e+04 5.489e-10
 40.99131    -46.4 1.504e+04 7.454e-10
 41.03190    -45.2 1.500e+04 9.511e-10
 41.07249    -44.1 1.504e+04 1.073e-09
 41.10503    -43.1 1.514e+04 1.092e-09
 41.12533    -42.5 1.492e+04 1.318e-09
 41.15367    -41.5 1.499e+04 1.283e-09
 41.19426    -40.2 1.511e+04 1.150e-09
 41.23485    -38.8 1.515e+04 9.864e-10
 41.26010    -37.4 1.518e+04 8.274e-10
 41.28039    -37.0 1.525e+04 7.925e-10
 41.31603    -35.4 1.531e+04 6.563e-10
 41.35662    -33.7 1.541e+04 5.639e-10
 41.39486    -31.8 1.553e+04 5.252e-10
 41.41516    -31.2 1.528e+04 5.743e-10
 41.43430    -29.3 1.542e+04 5.682e-10
 41.45460    -29.2 1.534e+04 6.309e-10
 41.47839    -27.3 1.518e+04 6.600e-10
 41.51898    -25.3 1.503e+04 6.728e-10
 41.54993    -23.4 1.493e+04 6.386e-10
 41.57022    -22.8 1.497e+04 6.444e-10
 41.60016    -20.7 1.490e+04 5.867e-10
 41.64075    -18.7 1.483e+04 5.181e-10
 41.68134    -16.5 1.472e+04 4.596e-10
 41.70499    -14.3 1.459e+04 4.143e-10
 41.72529    -13.4 1.475e+04 3.758e-10
 41.76253    -11.1 1.465e+04 3.437e-10
 41.80312     -8.7 1.457e+04 3.185e-10
 41.83976     -6.3 1.455e+04 2.981e-10
 41.86005     -5.6 1.478e+04 2.591e-10
 41.88430     -3.6 1.470e+04 2.883e-10
 41.92489     -1.4 1.457e+04 3.572e-10
 41.96548      0.8 1.449e+04 4.343e-10
 41.99482      3.0 1.451e+04 4.988e-10
 42.01512      3.9 1.453e+04 5.809e-10
 42.04666      5.9 1.459e+04 5.611e-10
 42.06833      7.7 1.472e+04 4.952e-10
 42.08863      7.9 1.456e+04 5.402e-10
 42.12784      9.5 1.449e+04 5.016e-10
 42.14988     11.3 1.444e+04 4.862e-10
 42.17018     12.0 1.454e+04 4.692e-10
 42.20902     13.8 1.454e+04 4.735e-10
 42.24961     15.4 1.458e+04 5.065e-10
 42.28465     16.6 1.465e+04 6.269e-10
 42.30495     17.1 1.474e+04 6.247e-10
 42.33079     17.8 1.465e+04 1.063e-09
 42.37138     19.1 1.434e+04 1.891e-09
 42.41197     19.9 1.463e+04 2.034e-09
 42.43971     20.6 1.484e+04 1.686e-09
 42.46001     21.4 1.506e+04 1.404e-09
 42.49315     21.8 1.539e+04 9.195e-10
 42.53375     22.3 1.542e+04 7.655e-10
 42.57434     23.5 1.529e+04 7.813e-10
 42.61493     25.5 1.506e+04 7.975e-10
 42.65552     26.7 1.500e+04 9.189e-10
 42.68206     27.9 1.489e+04 1.018e-09
 42.70236     27.8 1.474e+04 9.683e-10
 42.72954     28.9 1.465e+04 1.008e-09
 42.74984     29.6 1.473e+04 8.959e-10
 42.77729     30.8 1.464e+04 9.567e-10
 42.81788     31.9 1.458e+04 1.012e-09
 42.85847     33.1 1.454e+04 1.133e-09
 42.88461     34.1 1.451e+04 1.323e-09
 42.90490     34.8 1.449e+04 1.647e-09
 42.93965     35.7 1.460e+04 1.765e-09
 42.98024     36.2 1.468e+04 2.034e-09
 43.01937     36.6 1.470e+04 2.517e-09
 43.03967     37.3 1.483e+04 1.650e-09
 43.06142     37.6 1.487e+04 2.076e-09
 43.10201     38.2 1.487e+04 2.470e-09
 43.14260     38.8 1.492e+04 2.376e-09
 43.17444     39.8 1.484e+04 1.903e-09
 43.19473     40.7 1.496e+04 2.216e-09
 43.22378     41.8 1.490e+04 1.706e-09
 43.26437     43.0 1.485e+04 1.179e-09
 43.29580     44.1 1.488e+04 8.819e-10
 43.31609     44.1 1.483e+04 8.532e-10
 43.32950     45.4 1.483e+04 7.784e-10
 43.34980     46.0 1.481e+04 1.101e-09
 43.38615     47.5 1.489e+04 9.818e-10
 43.42674     49.0 1.511e+04 8.375e-10
 43.46427     50.5 1.531e+04 7.114e-10
 43.48456     50.8 1.555e+04 6.439e-10
 43.50792     52.1 1.544e+04 5.794e-10
 43.54851     53.5 1.536e+04 5.898e-10
 43.58910     54.8 1.526e+04 6.380e-10
 43.61933     56.2 1.523e+04 7.091e-10
 43.63963     56.4 1.526e+04 7.288e-10
 43.67028     57.8 1.528e+04 7.673e-10
 43.71087     59.1 1.530e+04 7.686e-10
 43.75146     60.3 1.532e+04 7.737e-10
 43.77439     61.6 1.532e+04 7.981e-10
 43.79469     61.8 1.538e+04 6.571e-10
 43.83264     62.8 1.524e+04 7.128e-10
 43.87323     63.9 1.508e+04 8.413e-10
 43.90916     65.1 1.498e+04 9.996e-10
 43.92516     65.6 1.494e+04 1.014e-09
 43.92982     65.3 1.491e+04 1.066e-09
 43.95441     66.5 1.491e+04 1.189e-09
 43.99500     67.6 1.492e+04 1.225e-09
 44.03559     68.7 1.491e+04 1.229e-09
 44.06422     70.0 1.489e+04 1.246e-09
 44.08452     70.5 1.486e+04 1.171e-09
 44.11678     71.9 1.484e+04 1.178e-09
 44.15737     73.2 1.484e+04 1.207e-09
 44.19796     74.5 1.483e+04 1.257e-09
 44.21929     75.7 1.482e+04 1.328e-09
 44.23958     76.1 1.471e+04 1.275e-09
 44.27914     77.3 1.461e+04 1.442e-09
 44.31973     78.4 1.455e+04 1.764e-09
 44.35405     79.2 1.458e+04 2.359e-09
 44.37435     79.5 1.446e+04 2.346e-09
 44.40091     80.0 1.446e+04 3.067e-09
 44.44150     80.0 1.444e+04 3.513e-09
 44.48209     79.8 1.446e+04 3.544e-09
 44.50912     79.4 1.448e+04 3.551e-09
 44.52941     79.8 1.439e+04 3.337e-09
 44.54356     79.5 1.438e+04 3.114e-09
 44.56385     78.9 1.438e+04 2.616e-09
 44.60386     78.6 1.438e+04 2.401e-09
 44.64388     78.6 1.440e+04 2.184e-09
 44.66418     79.3 1.441e+04 1.727e-09
 44.68504     79.4 1.443e+04 1.564e-09
 44.72563     79.8 1.441e+04 1.414e-09
 44.76622     80.5 1.448e+04 1.248e-09
 44.79895     81.5 1.471e+04 1.165e-09
 44.81924     82.5 1.460e+04 1.146e-09
 44.84740     83.7 1.465e+04 1.163e-09
 44.88800     85.0 1.470e+04 1.330e-09
 44.92859     86.1 1.457e+04 1.846e-09
 44.95401     87.0 1.437e+04 2.515e-09
 44.97431     87.9 1.446e+04 2.242e-09
 45.00977     88.7 1.429e+04 2.625e-09
 45.05036     89.3 1.423e+04 2.612e-09
 45.08878     90.3 1.412e+04 2.370e-09
 45.10907     91.4 1.412e+04 2.508e-09
 45.13154     92.6 1.406e+04 2.312e-09
 45.15729     93.9 1.409e+04 2.008e-09
 45.17758     93.7 1.411e+04 1.965e-09
 45.21272     95.1 1.422e+04 1.704e-09
 45.24384     96.6 1.433e+04 1.566e-09
 45.26414     97.5 1.417e+04 2.161e-09
 45.29390     98.9 1.430e+04 2.079e-09
 45.33449    100.3 1.437e+04 2.051e-09
 45.37508    101.7 1.438e+04 2.088e-09
 45.39890    103.0 1.434e+04 2.281e-09
 45.41920    103.6 1.431e+04 2.716e-09
 45.45626    104.8 1.426e+04 3.237e-09
 45.49685    106.0 1.427e+04 4.189e-09
 45.53367    106.8 1.438e+04 5.229e-09
 45.55397    107.2 1.442e+04 5.634e-09
 45.57803    107.5 1.442e+04 5.663e-09
 45.61862    107.9 1.437e+04 5.347e-09
 45.65922    108.3 1.434e+04 4.699e-09
 45.68873    108.9 1.439e+04 4.150e-09
 45.70903    109.6 1.439e+04 3.560e-09
 45.74040    110.6 1.438e+04 3.457e-09
 45.77102    111.7 1.442e+04 3.562e-09
 45.79132    111.2 1.451e+04 2.991e-09
 45.82158    112.1 1.459e+04 3.720e-09
 45.84380    112.7 1.462e+04 5.482e-09
 45.86409    113.6 1.462e+04 3.811e-09
 45.90276    114.1 1.470e+04 5.033e-09
 45.94335    114.5 1.482e+04 5.882e-09
 45.97856    114.9 1.487e+04 5.828e-09
 45.99886    116.2 1.487e+04 5.044e-09
 46.02453    116.7 1.491e+04 4.992e-09
 46.06512    117.4 1.495e+04 4.681e-09
 46.10571    118.2 1.501e+04 4.040e-09
 46.13363    119.4 1.509e+04 3.374e-09
 46.15392    120.2 1.512e+04 3.521e-09
 46.18689    121.5 1.523e+04 2.888e-09
 46.22748    123.0 1.525e+04 2.449e-09
 46.26807    124.6 1.527e+04 2.145e-09
 46.28869    126.3 1.525e+04 1.996e-09
 46.30899    127.0 1.521e+04 1.975e-09
 46.34925    128.8 1.518e+04 1.953e-09
 46.38475    130.7 1.518e+04 1.958e-09
 46.40505    130.4 1.504e+04 2.524e-09
 46.42346    132.2 1.505e+04 2.524e-09
 46.44375    132.9 1.495e+04 2.780e-09
 46.47103    134.8 1.496e+04 2.824e-09
 46.51162    136.6 1.497e+04 2.924e-09
 46.55221    138.5 1.499e+04 3.047e-09
 46.57852    140.2 1.504e+04 3.099e-09
 46.59882    140.9 1.492e+04 3.241e-09
 46.63339    142.7 1.494e+04 3.276e-09
 46.67398    144.4 1.498e+04 3.295e-09
 46.71329    146.1 1.507e+04 3.335e-09
 46.73358    147.3 1.495e+04 4.411e-09
 46.74491    147.8 1.508e+04 4.658e-09
 46.76511    148.0 1.513e+04 4.650e-09
 46.78541    148.5 1.511e+04 4.634e-09
 46.80077    148.8 1.507e+04 4.621e-09
 46.81092    149.5 1.491e+04 5.798e-09
 46.82600    150.0 1.482e+04 5.784e-09
 46.84629    150.5 1.473e+04 5.676e-09
 46.86659    151.1 1.466e+04 5.476e-09
 46.87830    151.8 1.462e+04 5.293e-09
 46.88845    152.2 1.472e+04 6.799e-09
 46.90718    152.9 1.473e+04 6.723e-09
 46.92747    153.5 1.474e+04 6.782e-09
 46.94569    154.0 1.476e+04 7.042e-09
 46.95584    154.0 1.489e+04 9.369e-09
 46.96806    154.3 1.490e+04 1.072e-08
 46.98836    154.3 1.494e+04 1.299e-08
 47.00844    154.2 1.500e+04 1.619e-08
 47.01859    154.2 1.506e+04 1.834e-08
 47.02322    154.0 1.516e+04 2.397e-08
 47.03337    153.5 1.541e+04 4.406e-08
 47.04925    153.1 1.558e+04 5.171e-08
 47.06954    152.5 1.570e+04 5.379e-08
 47.08984    151.6 1.573e+04 5.207e-08
 47.10075    150.6 1.574e+04 4.625e-08
 47.11090    149.6 1.588e+04 5.200e-08
 47.13043    148.5 1.583e+04 4.309e-08
 47.15072    147.3 1.579e+04 3.517e-08
 47.16813    145.9 1.571e+04 2.785e-08
 47.17828    145.4 1.568e+04 2.885e-08
 47.20156    143.7 1.537e+04 1.570e-08
 47.24225    143.3 1.515e+04 7.401e-09
 47.28284    143.6 1.504e+04 4.214e-09
 47.31324    144.4 1.500e+04 3.190e-09
 47.33354    144.9 1.486e+04 2.947e-09
 47.36402    146.6 1.493e+04 2.855e-09
 47.40461    148.4 1.494e+04 2.857e-09
 47.44520    150.2 1.496e+04 2.800e-09
 47.46831    152.0 1.502e+04 2.520e-09
 47.48860    153.0 1.490e+04 2.835e-09
 47.52638    154.8 1.491e+04 2.752e-09
 47.56697    156.5 1.498e+04 2.510e-09
 47.60308    158.2 1.512e+04 2.251e-09
 47.62337    159.0 1.493e+04 3.008e-09
 47.63251    160.6 1.503e+04 2.853e-09
 47.65281    159.6 1.507e+04 3.112e-09
 47.68874    161.1 1.504e+04 3.111e-09
 47.72933    162.3 1.505e+04 3.216e-09
 47.75814    163.4 1.506e+04 3.460e-09
 47.76819    163.3 1.501e+04 3.966e-09
 47.77987    163.7 1.502e+04 3.995e-09
 47.80017    164.3 1.502e+04 4.106e-09
 47.82047    164.8 1.503e+04 4.285e-09
 47.83547    165.2 1.501e+04 4.952e-09
 47.84562    165.1 1.506e+04 5.433e-09
 47.86106    165.3 1.503e+04 6.070e-09
 47.88135    165.2 1.498e+04 6.871e-09
 47.90165    165.0 1.496e+04 7.862e-09
 47.91301    164.7 1.497e+04 8.888e-09
 47.92315    163.9 1.508e+04 1.012e-08
 47.93919    163.4 1.509e+04 1.111e-08
 47.94933    162.0 1.514e+04 1.197e-08
 47.96253    161.3 1.513e+04 1.184e-08
 47.98039    160.6 1.512e+04 1.123e-08
 47.99054    159.1 1.519e+04 1.026e-08
 48.00312    158.4 1.520e+04 8.776e-09
 48.02342    157.6 1.521e+04 7.716e-09
 48.04371    157.1 1.519e+04 7.158e-09
 48.05792    156.6 1.510e+04 6.999e-09
 48.06807    155.5 1.509e+04 6.260e-09
 48.08430    155.4 1.505e+04 6.641e-09
 48.10460    155.3 1.504e+04 7.555e-09
 48.12489    155.0 1.503e+04 9.043e-09
 48.13545    154.6 1.507e+04 1.150e-08
 48.14560    153.6 1.513e+04 1.265e-08
 48.16548    152.7 1.528e+04 1.798e-08
 48.18578    151.4 1.550e+04 2.579e-08
 48.20284    149.8 1.574e+04 3.414e-08
 48.21298    148.5 1.581e+04 3.554e-08
 48.22637    146.5 1.590e+04 3.644e-08
 48.24605    144.4 1.588e+04 3.396e-08
 48.25620    142.4 1.572e+04 2.459e-08
 48.26696    140.5 1.561e+04 1.846e-08
 48.29750    136.5 1.563e+04 8.565e-09
 48.33780    132.6 1.549e+04 7.249e-09
 48.35809    132.4 1.547e+04 5.384e-09
 48.37878    129.5 1.535e+04 5.828e-09
 48.41937    126.8 1.510e+04 8.091e-09
 48.45996    124.4 1.516e+04 1.004e-08
 48.49286    121.7 1.523e+04 9.970e-09
 48.51316    121.7 1.518e+04 7.553e-09
 48.54114    119.2 1.530e+04 6.505e-09
 48.58173    117.6 1.529e+04 4.865e-09
 48.62232    117.0 1.530e+04 3.610e-09
 48.64792    117.0 1.512e+04 3.338e-09
 48.66822    117.1 1.516e+04 3.321e-09
 48.70350    117.6 1.504e+04 3.314e-09
 48.74410    118.6 1.496e+04 3.341e-09
 48.78269    119.9 1.488e+04 3.298e-09
 48.80299    119.9 1.484e+04 2.164e-09
 48.82528    121.4 1.495e+04 1.746e-09
 48.85998    123.0 1.500e+04 1.506e-09
 48.88028    121.9 1.528e+04 1.080e-09
 48.90646    123.8 1.520e+04 1.158e-09
 48.93776    125.8 1.497e+04 1.487e-09
 48.95805    125.9 1.470e+04 1.354e-09
 48.98764    128.1 1.459e+04 2.106e-09
 49.02823    130.3 1.460e+04 3.177e-09
 49.06882    132.2 1.475e+04 4.266e-09
 49.09282    133.7 1.510e+04 4.632e-09
 49.11311    133.5 1.499e+04 4.396e-09
 49.15000    134.3 1.499e+04 4.281e-09
 49.19059    135.1 1.497e+04 3.711e-09
 49.22759    136.0 1.496e+04 2.839e-09
 49.24788    136.2 1.472e+04 2.132e-09
 49.27177    137.3 1.483e+04 1.504e-09
 49.31236    138.7 1.483e+04 1.235e-09
 49.35295    140.5 1.480e+04 1.229e-09
 49.38265    142.5 1.480e+04 1.281e-09
 49.40294    143.0 1.493e+04 8.458e-10
 49.43413    145.1 1.497e+04 9.552e-10
 49.47371    147.2 1.490e+04 1.271e-09
 49.49401    146.5 1.454e+04 2.299e-09
 49.51532    148.7 1.446e+04 3.257e-09
 49.53771    150.9 1.452e+04 4.809e-09
 49.55801    151.5 1.441e+04 3.814e-09
 49.59650    153.6 1.456e+04 6.231e-09
 49.63709    155.0 1.485e+04 8.845e-09
 49.67248    155.5 1.505e+04 9.442e-09
 49.69277    155.8 1.506e+04 9.377e-09
 49.71827    156.1 1.510e+04 9.059e-09
 49.75886    156.3 1.504e+04 7.833e-09
 49.79945    156.9 1.500e+04 5.849e-09
 49.82754    157.7 1.483e+04 4.361e-09
 49.84784    157.3 1.450e+04 5.062e-09
 49.88063    158.3 1.426e+04 4.848e-09
 49.92122    159.5 1.425e+04 4.918e-09
 49.96181    160.7 1.416e+04 5.674e-09
 49.98260    161.6 1.416e+04 6.943e-09
 50.00290    160.6 1.385e+04 7.315e-09
 50.04299    161.2 1.385e+04 8.922e-09
 50.08358    162.1 1.384e+04 1.086e-08
 50.10764    162.1 1.375e+04 1.189e-08
 50.11769    161.7 1.396e+04 1.327e-08
 50.12732    161.9 1.401e+04 1.448e-08
 50.13757    161.3 1.344e+04 1.170e-08
 50.16476    161.8 1.371e+04 1.415e-08
 50.20535    161.8 1.400e+04 1.703e-08
 50.23570    161.4 1.389e+04 1.583e-08
 50.25590    161.1 1.380e+04 1.463e-08
 50.27224    160.9 1.376e+04 1.400e-08
 50.29263    160.1 1.331e+04 6.806e-09
 50.32713    159.6 1.316e+04 5.809e-09
 50.36772    159.2 1.288e+04 5.025e-09
 50.40720    159.1 1.259e+04 4.221e-09
 50.42750    159.5 1.255e+04 4.285e-09
 50.44890    159.6 1.240e+04 3.401e-09
 50.48949    159.7 1.230e+04 2.498e-09
 50.53008    160.0 1.216e+04 1.857e-09
 50.56227    160.9 1.189e+04 1.665e-09
 50.58256    161.1 1.197e+04 1.813e-09
 50.61126    162.6 1.193e+04 1.818e-09
 50.65185    164.5 1.189e+04 1.917e-09
 50.69244    166.4 1.193e+04 2.427e-09
 50.71733    168.4 1.206e+04 3.340e-09
 50.72607    168.0 1.214e+04 3.926e-09
 50.74177    167.7 1.237e+04 3.962e-09
 50.77362    168.7 1.278e+04 6.510e-09
 50.81421    168.9 1.314e+04 9.844e-09
 50.85210    168.4 1.348e+04 1.323e-08
 50.87239    166.3 1.324e+04 1.003e-08
 50.89539    164.8 1.320e+04 9.564e-09
 50.93598    163.5 1.295e+04 7.632e-09
 50.97657    163.0 1.260e+04 5.179e-09
 51.00716    163.0 1.234e+04 3.345e-09
 51.02745    162.9 1.214e+04 2.241e-09
 51.05776    163.5 1.202e+04 1.839e-09
 51.09835    164.4 1.188e+04 1.700e-09
 51.13894    165.7 1.180e+04 1.703e-09
 51.16222    167.1 1.177e+04 1.757e-09
 51.18252    167.8 1.169e+04 2.105e-09
 51.22012    168.8 1.170e+04 2.304e-09
 51.26071    169.5 1.171e+04 2.366e-09
 51.29699    169.9 1.169e+04 2.343e-09
 51.31728    169.9 1.165e+04 2.538e-09
 51.33521    170.2 1.157e+04 2.203e-09
 51.35550    170.0 1.162e+04 2.445e-09
 51.38248    170.4 1.154e+04 1.863e-09
 51.42307    171.1 1.145e+04 1.393e-09
 51.45205    172.0 1.130e+04 1.196e-09
 51.47235    172.0 1.119e+04 1.302e-09
 51.50425    173.5 1.118e+04 1.319e-09
 51.54484    175.2 1.116e+04 1.414e-09
 51.58543    176.8 1.118e+04 1.681e-09
 51.60712    178.3 1.124e+04 2.126e-09
 51.62741    178.4 1.123e+04 2.214e-09
 51.66661    179.6 1.134e+04 2.762e-09
 51.70720    180.6 1.150e+04 3.207e-09
 51.74188    181.4 1.168e+04 3.503e-09
 51.76218    181.1 1.168e+04 3.367e-09
 51.78838    181.2 1.181e+04 3.436e-09
 51.82898    181.0 1.196e+04 3.463e-09
 51.86957    180.6 1.215e+04 3.503e-09
 51.89695    179.8 1.233e+04 3.603e-09
 51.91724    179.1 1.224e+04 3.101e-09
 51.94894    177.8 1.237e+04 3.267e-09
 51.96923    178.8 1.223e+04 2.740e-09
 51.99134    177.3 1.236e+04 3.304e-09
 52.03171    175.2 1.255e+04 5.771e-09
 52.05191    173.7 1.256e+04 6.325e-09
 52.06218    172.1 1.273e+04 9.224e-09
 52.08247    170.9 1.284e+04 1.184e-08
 52.10277    168.9 1.306e+04 1.408e-08
 52.11920    167.1 1.314e+04 1.448e-08
 52.12934    166.6 1.305e+04 1.289e-08
 52.14336    164.7 1.301e+04 1.272e-08
 52.16365    163.2 1.284e+04 1.180e-08
 52.18395    162.2 1.257e+04 1.033e-08
 52.19673    161.4 1.230e+04 8.536e-09
 52.20688    161.7 1.216e+04 6.452e-09
 52.23478    161.7 1.192e+04 5.150e-09
 52.27547    161.6 1.185e+04 4.245e-09
 52.31606    161.6 1.191e+04 3.669e-09
 52.34184    161.7 1.195e+04 3.173e-09
 52.36213    162.2 1.194e+04 3.180e-09
 52.39724    162.4 1.197e+04 2.805e-09
 52.43783    162.6 1.203e+04 2.307e-09
 52.47661    162.8 1.220e+04 2.093e-09
 52.49690    163.6 1.235e+04 2.239e-09
 52.51901    163.5 1.246e+04 2.201e-09
 52.55960    163.3 1.263e+04 2.275e-09
 52.58287    163.1 1.282e+04 2.474e-09
 52.59292    163.5 1.296e+04 2.736e-09
 52.61015    163.1 1.310e+04 3.216e-09
 52.63044    162.4 1.323e+04 3.985e-09
 52.64162    161.6 1.331e+04 4.992e-09
 52.65177    161.6 1.333e+04 4.773e-09
 52.67103    160.5 1.334e+04 5.667e-09
 52.69133    159.2 1.332e+04 5.918e-09
 52.70901    157.7 1.329e+04 5.849e-09
 52.71915    157.7 1.328e+04 5.846e-09
 52.73192    156.3 1.315e+04 5.443e-09
 52.75221    155.1 1.301e+04 4.628e-09
 52.77251    154.1 1.289e+04 3.778e-09
 52.78654    153.2 1.271e+04 3.269e-09
 52.79668    153.2 1.271e+04 3.756e-09
 52.81310    152.6 1.268e+04 3.759e-09
 52.83340    152.1 1.266e+04 3.850e-09
 52.85369    151.7 1.265e+04 4.180e-09
 52.86407    151.2 1.266e+04 4.750e-09
 52.87422    150.8 1.288e+04 6.179e-09
 52.88964    150.3 1.291e+04 7.093e-09
 52.89978    150.2 1.283e+04 6.315e-09
 52.91458    149.6 1.284e+04 7.348e-09
 52.93145    148.9 1.290e+04 8.407e-09
 52.94160    148.0 1.313e+04 9.907e-09
 52.95517    146.9 1.324e+04 1.106e-08
 52.97546    145.4 1.343e+04 1.276e-08
 52.99576    143.6 1.370e+04 1.561e-08
 53.00898    141.6 1.402e+04 2.013e-08
 53.01913    138.8 1.467e+04 2.977e-08
 53.03635    136.6 1.493e+04 3.595e-08
 53.05664    134.0 1.518e+04 4.190e-08
 53.07637    130.9 1.549e+04 4.952e-08
 53.08652    127.1 1.594e+04 6.030e-08
 53.09723    123.1 1.643e+04 7.529e-08
 53.11753    119.0 1.648e+04 7.600e-08
 53.13782    115.2 1.623e+04 6.648e-08
 53.15390    111.8 1.557e+04 4.474e-08
 53.16405    109.5 1.530e+04 3.900e-08
 53.17841    106.2 1.403e+04 2.163e-08
 53.19650    103.9 1.302e+04 1.804e-08
 53.20665    104.2 1.302e+04 1.963e-08
 53.21901    103.3 1.284e+04 1.893e-08
 53.23143    102.9 1.276e+04 1.824e-08
 53.25182    100.9 1.209e+04 1.015e-08
 53.29023     99.3 1.168e+04 8.814e-09
 53.33082     98.1 1.151e+04 8.706e-09
 53.36639     97.3 1.145e+04 9.075e-09
 53.38669     95.7 1.120e+04 6.334e-09
 53.41201     95.4 1.117e+04 6.367e-09
 53.45260     95.2 1.108e+04 6.125e-09
 53.49319     95.3 1.084e+04 5.047e-09
 53.52146     95.5 1.061e+04 3.416e-09
 53.54175     94.7 1.055e+04 3.114e-09
 53.57437     95.0 1.032e+04 2.149e-09
 53.61496     95.5 1.019e+04 1.836e-09
 53.65555     95.9 1.024e+04 1.890e-09
 53.67652     95.6 1.040e+04 2.303e-09
 53.69681     94.1 1.104e+04 3.896e-09
 53.73673     92.8 1.211e+04 8.227e-09
 53.77732     91.1 1.257e+04 1.182e-08
 53.81043     89.0 1.237e+04 1.106e-08
 53.82410     89.5 1.203e+04 1.071e-08
 53.83148     88.1 1.209e+04 1.279e-08
 53.84816     87.4 1.174e+04 9.333e-09
 53.86845     86.9 1.144e+04 6.387e-09
 53.88862     86.3 1.116e+04 4.281e-09
 53.89877     85.8 1.120e+04 4.414e-09
 53.90904     85.1 1.102e+04 3.421e-09
 53.93958     85.5 1.072e+04 2.681e-09
 53.96635     86.3 1.065e+04 2.681e-09
 53.98664     86.1 1.067e+04 3.262e-09
 54.02086     87.3 1.069e+04 3.323e-09
 54.04378     88.2 1.071e+04 3.503e-09
 54.05383     88.1 1.077e+04 3.521e-09
 54.07141     88.8 1.089e+04 3.778e-09
 54.09170     89.3 1.103e+04 4.110e-09
 54.11107     89.8 1.119e+04 4.561e-09
 54.12122     89.9 1.097e+04 5.523e-09
 54.12725     90.4 1.116e+04 6.446e-09
 54.13740     90.2 1.136e+04 7.500e-09
 54.15259     90.6 1.161e+04 9.171e-09
 54.17288     90.9 1.184e+04 1.128e-08
 54.18860     91.3 1.206e+04 1.391e-08
 54.19875     91.2 1.229e+04 1.369e-08
 54.21347     91.2 1.251e+04 1.696e-08
 54.23377     91.1 1.273e+04 2.137e-08
 54.25406     90.9 1.292e+04 2.788e-08
 54.26613     90.6 1.322e+04 3.798e-08
 54.27628     91.1 1.337e+04 3.304e-08
 54.29465     90.8 1.380e+04 4.174e-08
 54.31495     90.3 1.438e+04 4.813e-08
 54.33352     89.2 1.456e+04 4.806e-08
 54.34366     88.6 1.403e+04 2.674e-08
 54.35554     87.0 1.400e+04 2.480e-08
 54.37584     85.2 1.371e+04 2.032e-08
 54.39613     83.4 1.331e+04 1.605e-08
 54.41115     81.8 1.307e+04 1.253e-08
 54.42893     80.7 1.305e+04 9.906e-09
 54.44446     81.2 1.271e+04 9.707e-09
 54.46736     78.8 1.267e+04 7.680e-09
 54.50795     76.7 1.256e+04 5.914e-09
 54.54601     75.3 1.237e+04 4.922e-09
 54.56631     73.8 1.225e+04 5.917e-09
 54.58913     73.6 1.204e+04 5.755e-09
 54.62972     73.5 1.189e+04 5.327e-09
 54.67031     73.4 1.176e+04 4.725e-09
 54.70107     73.2 1.167e+04 4.603e-09
 54.72137     72.4 1.153e+04 4.513e-09
 54.75149     71.8 1.157e+04 5.240e-09
 54.79208     70.6 1.156e+04 5.931e-09
 54.83267     68.9 1.147e+04 5.841e-09
 54.85614     67.4 1.114e+04 5.139e-09
 54.87643     66.2 1.092e+04 4.608e-09
 54.91385     65.7 1.053e+04 3.353e-09
 54.95445     65.4 1.029e+04 2.357e-09
 54.99090     65.6 1.021e+04 1.664e-09
 55.01120     64.6 1.005e+04 9.805e-10
 55.03563     64.9 1.003e+04 8.558e-10
 55.05819     65.5 1.004e+04 8.715e-10
 55.07849     66.3 1.002e+04 1.112e-09
 55.11681     66.8 1.015e+04 1.217e-09
 55.14597     66.7 1.032e+04 1.384e-09
 55.16626     66.0 1.038e+04 1.444e-09
 55.19799     65.1 1.060e+04 2.045e-09
 55.22340     64.7 1.074e+04 2.337e-09
 55.23345     64.4 1.074e+04 2.485e-09
 55.24853     63.6 1.083e+04 2.881e-09
 55.26883     62.6 1.099e+04 3.477e-09
 55.28912     61.8 1.120e+04 4.022e-09
 55.30083     61.1 1.127e+04 4.475e-09
 55.31098     60.3 1.159e+04 6.322e-09
 55.32971     60.0 1.157e+04 5.978e-09
 55.35001     59.7 1.161e+04 5.388e-09
 55.36486     59.3 1.162e+04 4.708e-09
 55.37293     59.5 1.161e+04 4.611e-09
 55.37837     58.2 1.180e+04 4.811e-09
 55.39060     57.0 1.189e+04 4.185e-09
 55.41089     56.2 1.176e+04 3.871e-09
 55.43119     55.3 1.186e+04 3.948e-09
 55.44575     54.8 1.178e+04 3.987e-09
 55.45599     53.6 1.170e+04 4.289e-09
 55.48212     52.0 1.178e+04 4.750e-09
 55.52271     49.8 1.193e+04 5.796e-09
 55.56330     47.3 1.210e+04 6.030e-09
 55.59086     44.9 1.207e+04 5.593e-09
 55.61116     42.8 1.180e+04 4.119e-09
 55.64448     41.7 1.169e+04 2.930e-09
 55.67192     41.2 1.176e+04 1.841e-09
 55.69222     41.9 1.179e+04 2.123e-09
 55.72563     41.2 1.169e+04 1.620e-09
 55.76622     39.7 1.153e+04 1.584e-09
 55.80685     39.6 1.137e+04 1.893e-09
 55.84744     39.7 1.127e+04 2.115e-09
 55.88069     40.0 1.120e+04 2.035e-09
 55.90099     39.5 1.113e+04 1.813e-09
 55.92862     40.3 1.102e+04 1.359e-09
 55.96921     41.2 1.102e+04 8.900e-10
 56.00980     41.9 1.107e+04 6.125e-10
 56.03575     43.0 1.100e+04 5.681e-10
 56.05605     42.7 1.109e+04 5.711e-10
 56.09098     43.9 1.113e+04 6.247e-10
 56.13157     45.0 1.116e+04 8.993e-10
 56.17052     46.1 1.129e+04 1.956e-09
 56.19082     45.7 1.144e+04 2.817e-09
 56.21275     46.0 1.186e+04 5.188e-09
 56.25334     45.6 1.256e+04 8.599e-09
 56.28566     44.1 1.289e+04 8.912e-09
 56.30585     44.2 1.351e+04 1.445e-08
 56.32418     42.5 1.361e+04 1.234e-08
 56.33554     41.0 1.338e+04 9.900e-09
 56.34568     39.3 1.334e+04 9.522e-09
 56.37502     38.0 1.299e+04 7.857e-09
 56.40302     38.2 1.244e+04 5.869e-09
 56.41307     37.8 1.247e+04 5.743e-09
 56.42566     37.7 1.220e+04 4.622e-09
 56.44595     37.9 1.202e+04 3.790e-09
 56.46625     38.1 1.189e+04 3.227e-09
 56.48045     38.4 1.169e+04 2.947e-09
 56.49060     38.1 1.165e+04 2.924e-09
 56.50684     38.7 1.154e+04 2.917e-09
 56.52713     39.3 1.152e+04 2.957e-09
 56.54743     39.8 1.147e+04 3.140e-09
 56.55798     40.3 1.141e+04 3.520e-09
 56.56813     39.9 1.142e+04 3.516e-09
 56.58802     40.4 1.139e+04 4.083e-09
 56.60248     40.7 1.137e+04 4.876e-09
 56.61262     40.9 1.143e+04 5.078e-09
 56.62537     41.3 1.142e+04 5.818e-09
 56.63551     40.9 1.134e+04 5.103e-09
 56.64890     41.2 1.131e+04 5.459e-09
 56.66920     41.2 1.125e+04 5.653e-09
 56.68949     41.1 1.121e+04 5.733e-09
 56.70290     40.9 1.117e+04 5.766e-09
 56.71305     40.8 1.100e+04 4.805e-09
 56.73009     40.7 1.096e+04 4.920e-09
 56.75038     40.6 1.091e+04 5.170e-09
 56.77028     40.4 1.089e+04 5.620e-09
 56.78043     40.5 1.094e+04 5.365e-09
 56.79097     40.2 1.104e+04 6.219e-09
 56.81127     39.7 1.120e+04 7.356e-09
 56.83156     39.1 1.137e+04 8.566e-09
 56.84781     38.3 1.153e+04 9.272e-09
 56.85796     38.2 1.178e+04 1.114e-08
 56.87215     36.9 1.185e+04 1.128e-08
 56.89245     35.5 1.179e+04 1.100e-08
 56.90934     34.0 1.158e+04 1.016e-08
 56.91949     34.4 1.170e+04 1.100e-08
 56.92534     33.2 1.141e+04 9.711e-09
 56.93549     32.6 1.160e+04 1.113e-08
 56.95333     31.4 1.122e+04 9.220e-09
 56.97363     30.4 1.080e+04 7.439e-09
 56.99273     29.6 1.037e+04 5.935e-09
 57.00288     29.3 1.027e+04 5.370e-09
 57.01422     28.9 9.826e+03 3.519e-09
 57.03451     28.3 9.560e+03 2.615e-09
 57.06021     28.8 9.379e+03 2.129e-09
 57.08060     28.5 9.166e+03 1.345e-09
 57.10574     28.7 8.689e+03 9.489e-10
 57.14633     29.9 8.649e+03 9.765e-10
 57.18692     31.5 8.778e+03 1.257e-09
 57.21537     32.1 9.202e+03 1.831e-09
 57.23567     32.0 9.244e+03 1.808e-09
 57.25786     31.7 9.586e+03 2.756e-09
 57.27806     30.5 1.013e+04 4.326e-09
 57.29271     28.0 1.137e+04 9.468e-09
 57.30285     26.8 1.184e+04 1.211e-08
 57.31865     24.8 1.324e+04 2.918e-08
 57.33894     23.0 1.384e+04 3.795e-08
 57.35924     21.1 1.371e+04 3.348e-08
 57.37024     18.7 1.330e+04 2.254e-08
 57.38039     18.7 1.328e+04 2.021e-08
 57.39983     15.2 1.245e+04 1.306e-08
 57.42012     12.8 1.165e+04 1.105e-08
 57.43762     12.0 1.128e+04 1.021e-08
 57.44777     12.4 1.117e+04 8.851e-09
 57.46071     12.7 1.089e+04 7.390e-09
 57.48101     12.4 1.069e+04 5.803e-09
 57.50510     12.2 1.025e+04 3.421e-09
 57.52550     13.5 1.027e+04 3.851e-09
 57.53342     13.6 9.928e+03 2.008e-09
 57.55371     13.4 9.986e+03 1.882e-09
 57.59283     13.2 9.759e+03 1.191e-09
 57.63342     13.5 9.695e+03 1.206e-09
 57.66026     13.8 9.702e+03 1.511e-09
 57.68056     15.5 9.836e+03 1.941e-09
 57.71460     15.8 9.974e+03 2.716e-09
 57.75519     16.1 1.027e+04 3.489e-09
 57.78554     16.0 1.065e+04 4.264e-09
 57.80498     16.0 1.082e+04 4.575e-09
 57.81523     16.5 1.158e+04 8.659e-09
 57.82613     15.8 1.118e+04 6.379e-09
 57.84009     14.7 1.128e+04 6.278e-09
 57.85024     14.0 1.128e+04 6.380e-09
 57.86662     13.0 1.160e+04 6.829e-09
 57.88252     11.1 1.190e+04 8.084e-09
 57.89266     10.6 1.340e+04 1.915e-08
 57.90721      8.5 1.397e+04 2.845e-08
 57.92751      6.9 1.409e+04 3.354e-08
 57.94780      5.9 1.363e+04 2.892e-08
 57.96005      1.3 1.504e+04 2.925e-08
 57.97019     -1.7 1.782e+04 4.322e-08
 57.98839    -14.5 1.856e+04 1.068e-07
 58.00869    -19.9 1.727e+04 1.785e-07
 58.02386    -22.8 1.752e+04 6.800e-08
 58.03241    -24.8 1.619e+04 4.777e-08
 58.03748    -26.2 1.619e+04 3.713e-08
 58.04923    -34.3 1.351e+04 1.060e-08
 58.06957    -37.6 1.173e+04 6.242e-09
 58.08987    -38.1 1.136e+04 5.021e-09
 58.10496    -37.9 1.111e+04 4.096e-09
 58.11511    -38.7 1.125e+04 4.169e-09
 58.13046    -38.4 1.114e+04 3.660e-09
 58.14695    -37.7 1.102e+04 3.298e-09
 58.15710    -38.2 1.115e+04 3.669e-09
 58.17105    -37.4 1.103e+04 3.235e-09
 58.18249    -36.8 1.091e+04 2.782e-09
 58.19264    -37.0 1.097e+04 3.764e-09
 58.21164    -36.3 1.085e+04 3.220e-09
 58.23983    -35.3 1.068e+04 2.671e-09
 58.26012    -34.9 1.063e+04 3.335e-09
 58.28277    -33.7 1.042e+04 3.114e-09
 58.32346    -30.9 9.986e+03 2.043e-09
 58.36405    -28.2 9.932e+03 1.173e-09
 58.39499    -26.3 9.924e+03 8.026e-10
 58.41528    -26.4 9.813e+03 1.254e-09
 58.44523    -24.5 9.900e+03 1.109e-09
 58.48582    -23.5 1.007e+04 1.403e-09
 58.52641    -22.1 1.011e+04 2.463e-09
 58.55005    -20.0 1.013e+04 3.582e-09
 58.57035    -19.8 1.017e+04 3.740e-09
 58.60759    -18.0 1.008e+04 3.008e-09
 58.64818    -16.6 9.877e+03 1.840e-09
 58.68482    -16.5 9.621e+03 1.313e-09
 58.70511    -16.5 9.623e+03 1.305e-09
 58.72936    -15.7 9.470e+03 1.373e-09
 58.76088    -15.5 9.458e+03 2.094e-09
 58.78118    -15.8 9.566e+03 2.274e-09
 58.81055    -15.1 9.863e+03 3.417e-09
 58.83978    -14.8 9.988e+03 3.460e-09
 58.86008    -14.9 9.949e+03 3.090e-09
 58.89173    -15.0 1.013e+04 2.591e-09
 58.93232    -15.7 1.027e+04 2.093e-09
 58.97291    -16.3 1.032e+04 2.056e-09
 58.99494    -17.1 1.054e+04 2.355e-09
 59.01524    -16.9 1.056e+04 2.391e-09
 59.05409    -17.0 1.071e+04 3.952e-09
 59.09468    -16.7 1.102e+04 4.634e-09
 59.12971    -16.7 1.115e+04 4.179e-09
 59.15001    -16.4 1.113e+04 4.902e-09
 59.17586    -15.7 1.105e+04 3.625e-09
 59.21645    -15.4 1.110e+04 2.377e-09
 59.25704    -15.0 1.110e+04 2.139e-09
 59.28477    -14.6 1.098e+04 2.542e-09
 59.30507    -14.0 1.100e+04 2.443e-09
 59.33822    -12.9 1.093e+04 2.663e-09
 59.37462    -11.6 1.087e+04 2.323e-09
 59.39491    -11.4 1.103e+04 2.859e-09
 59.41940    -10.6 1.102e+04 2.576e-09
 59.45999    -10.2 1.138e+04 2.592e-09
 59.50058    -10.4 1.168e+04 3.773e-09
 59.54117     -9.9 1.184e+04 5.874e-09
 59.57460     -9.5 1.208e+04 7.368e-09
 59.59490    -10.5 1.229e+04 8.493e-09
 59.62236    -10.5 1.219e+04 7.502e-09
 59.66295    -10.3 1.207e+04 6.163e-09
 59.70354     -9.7 1.192e+04 4.472e-09
 59.72967     -9.3 1.191e+04 3.032e-09
 59.74996     -9.3 1.187e+04 2.804e-09
 59.78472     -8.4 1.184e+04 2.337e-09
 59.82531     -7.6 1.174e+04 1.971e-09
 59.86444     -7.0 1.169e+04 1.720e-09
 59.88473     -6.0 1.180e+04 1.662e-09
 59.90649     -5.9 1.179e+04 1.812e-09
 59.94708     -5.5 1.174e+04 2.732e-09
 59.98767     -4.6 1.191e+04 3.779e-09
 60.00864     -3.5 1.185e+04 4.486e-09
 60.02018     -3.1 1.198e+04 5.325e-09
 60.03979     -3.2 1.277e+04 1.072e-08
 60.06885     -2.6 1.278e+04 1.144e-08
 60.10944     -1.5 1.249e+04 9.624e-09
 60.15003     -0.3 1.212e+04 6.642e-09
 60.17456      0.9 1.186e+04 5.299e-09
 60.19486      0.4 1.181e+04 5.997e-09
 60.23121      1.9 1.163e+04 5.682e-09
 60.27180      3.7 1.152e+04 6.037e-09
 60.30933      5.6 1.156e+04 6.694e-09
 60.32962      5.4 1.110e+04 6.637e-09
 60.35299      7.3 1.123e+04 7.248e-09
 60.39358      9.2 1.114e+04 6.989e-09
 60.43417     11.7 1.078e+04 5.728e-09
 60.46439     14.4 1.039e+04 3.975e-09
 60.48469     15.0 1.001e+04 3.072e-09
 60.51535     17.7 1.011e+04 2.573e-09
 60.55594     20.1 1.018e+04 2.640e-09
 60.58628     21.7 1.011e+04 2.793e-09
 60.60648     23.0 1.009e+04 3.237e-09
 60.61926     24.3 1.026e+04 4.181e-09
 60.62481     24.4 1.023e+04 4.244e-09
 60.63233     25.0 1.015e+04 4.296e-09
 60.64707     26.0 1.043e+04 5.612e-09
 60.66737     26.7 1.088e+04 7.823e-09
 60.68664     27.1 1.152e+04 1.199e-08
 60.69679     27.1 1.150e+04 1.228e-08
 60.70796     27.4 1.226e+04 1.995e-08
 60.72825     28.0 1.291e+04 3.049e-08
 60.74855     28.8 1.329e+04 3.860e-08
 60.76417     29.4 1.335e+04 3.854e-08
 60.77432     29.7 1.294e+04 3.239e-08
 60.78914     30.2 1.285e+04 3.070e-08
 60.80943     30.3 1.265e+04 2.763e-08
 60.82973     30.4 1.253e+04 2.628e-08
 60.84171     30.6 1.256e+04 2.670e-08
 60.85185     31.1 1.230e+04 2.481e-08
 60.87032     31.5 1.248e+04 2.698e-08
 60.89061     32.2 1.267e+04 2.955e-08
 60.90909     33.1 1.272e+04 3.001e-08
 60.91924     33.8 1.266e+04 2.986e-08
 60.92905     34.9 1.261e+04 2.932e-08
 60.93919     34.3 1.298e+04 3.435e-08
 60.95150     35.4 1.275e+04 3.166e-08
 60.97180     36.4 1.248e+04 2.775e-08
 60.98662     36.7 1.251e+04 2.667e-08
 60.99677     37.8 1.250e+04 2.752e-08
 61.01239     37.9 1.275e+04 2.915e-08
 61.03268     36.9 1.377e+04 3.864e-08
 61.05298     35.6 1.517e+04 6.098e-08
 61.06415     33.6 1.639e+04 8.598e-08
 61.07430     35.6 1.623e+04 8.933e-08
 61.09357     32.1 1.727e+04 1.081e-07
 61.11386     25.9 1.819e+04 1.268e-07
 61.13154     18.7 1.823e+04 1.344e-07
 61.14164     15.9 1.914e+04 2.071e-07
 61.14928     12.3 1.896e+04 2.343e-07
 61.15943      9.1 1.899e+04 2.667e-07
 61.16958      5.8 1.931e+04 3.167e-07
 61.17528      1.6 1.986e+04 4.564e-07
 61.18035      0.6 1.971e+04 4.686e-07
 61.18987     -3.4 1.936e+04 8.004e-07
 61.20002     -6.5 1.864e+04 1.555e-06
 61.20897     -9.0 1.812e+04 2.891e-06
 61.21404    -13.9 1.897e+04 1.447e-06
 61.22031    -17.0 1.854e+04 1.982e-06
 61.23046    -18.7 1.847e+04 1.610e-06
 61.24061    -18.7 1.883e+04 8.472e-07
 61.24596    -18.7 1.966e+04 3.449e-07
 61.24801    -20.8 1.941e+04 2.977e-07
 61.25281    -20.5 1.928e+04 3.263e-07
 61.26091    -22.3 1.910e+04 2.050e-07
 61.27105    -24.6 1.847e+04 1.150e-07
 61.28120    -26.2 1.788e+04 1.059e-07
 61.28650    -26.7 1.706e+04 1.174e-07
 61.29158    -26.6 1.654e+04 8.104e-08
 61.30150    -27.1 1.697e+04 8.610e-08
 61.31164    -29.4 1.971e+04 1.352e-07
 61.32019    -35.3 2.084e+04 5.178e-07
 61.32527    -34.8 2.293e+04 1.672e-07
 61.33194    -40.5 1.890e+04 1.481e-06
 61.34209    -41.3 1.682e+04 8.679e-06
 61.35223    -42.2 1.617e+04 1.812e-05
 61.35896    -44.4 1.685e+04 8.964e-06
 61.36403    -45.2 1.693e+04 7.521e-06
 61.37253    -47.2 1.814e+04 2.462e-06
 61.38268    -50.1 1.959e+04 5.350e-07
 61.39265    -53.7 1.954e+04 1.082e-07
 61.39772    -52.9 1.921e+04 2.248e-07
 61.39940    -55.5 1.799e+04 7.408e-08
 61.40447    -54.5 1.881e+04 9.502e-08
 61.41824    -57.5 1.578e+04 2.835e-08
 61.43151    -57.0 1.300e+04 9.286e-09
 61.44166    -55.5 1.467e+04 2.479e-08
 61.45888    -54.8 1.251e+04 7.076e-09
 61.47918    -54.5 1.100e+04 4.338e-09
 61.49890    -52.8 1.052e+04 3.870e-09
 61.50905    -52.3 1.185e+04 6.396e-09
 61.51977    -50.9 1.152e+04 5.740e-09
 61.54006    -49.3 1.144e+04 5.797e-09
 61.55293    -47.8 1.145e+04 6.399e-09
 61.56307    -47.2 1.149e+04 6.432e-09
 61.57643    -45.8 1.166e+04 7.254e-09
 61.58658    -45.5 1.217e+04 1.047e-08
 61.60095    -44.5 1.259e+04 1.207e-08
 61.62124    -43.9 1.302e+04 1.554e-08
 61.64154    -43.5 1.345e+04 2.180e-08
 61.65396    -43.0 1.394e+04 3.121e-08
 61.66411    -43.2 1.444e+04 3.914e-08
 61.68213    -42.5 1.496e+04 5.314e-08
 61.70242    -41.7 1.518e+04 5.934e-08
 61.72134    -41.1 1.495e+04 5.357e-08
 61.73149    -41.6 1.517e+04 5.894e-08
 61.74302    -40.7 1.468e+04 4.283e-08
 61.76331    -40.0 1.416e+04 2.557e-08
 61.78361    -39.3 1.372e+04 1.430e-08
 61.79897    -38.8 1.316e+04 8.287e-09
 61.80912    -38.8 1.354e+04 1.043e-08
 61.82420    -38.1 1.318e+04 7.089e-09
 61.84974    -37.0 1.305e+04 5.466e-09
 61.87004    -35.9 1.277e+04 4.595e-09
 61.89533    -33.7 1.300e+04 3.584e-09
 61.93384    -31.0 1.296e+04 2.304e-09
 61.95413    -30.7 1.307e+04 2.143e-09
 61.97661    -28.4 1.313e+04 1.930e-09
 62.01720    -26.5 1.333e+04 2.091e-09
 62.05779    -24.9 1.308e+04 3.269e-09
 62.08890    -23.0 1.292e+04 4.624e-09
 62.10920    -22.2 1.303e+04 5.746e-09
 62.13897    -21.3 1.276e+04 6.030e-09
 62.17956    -20.4 1.254e+04 4.014e-09
 62.20990    -18.9 1.237e+04 3.214e-09
 62.23010    -18.7 1.210e+04 2.995e-09
 62.24387    -17.8 1.193e+04 2.423e-09
 62.26426    -16.4 1.206e+04 2.468e-09
 62.30133    -14.8 1.193e+04 1.809e-09
 62.34192    -13.3 1.170e+04 1.713e-09
 62.37873    -11.5 1.143e+04 1.989e-09
 62.39903    -10.3 1.160e+04 2.023e-09
 62.42310     -8.3 1.146e+04 2.269e-09
 62.46357     -6.4 1.139e+04 2.419e-09
 62.50416     -3.6 1.148e+04 2.821e-09
 62.53380     -1.9 1.128e+04 3.114e-09
 62.55409     -0.9 1.147e+04 3.094e-09
 62.58546      0.8 1.124e+04 3.370e-09
 62.62605      2.7 1.110e+04 3.048e-09
 62.66664      4.9 1.079e+04 2.255e-09
 62.68886      7.2 1.063e+04 1.333e-09
 62.70915      7.9 1.074e+04 1.863e-09
 62.74783     10.2 1.064e+04 1.091e-09
 62.78842     12.2 1.074e+04 6.258e-10
 62.82363     14.2 1.065e+04 4.589e-10
 62.84392     15.3 1.076e+04 6.138e-10
 62.86960     17.2 1.069e+04 5.165e-10
 62.91019     19.2 1.064e+04 5.545e-10
 62.95078     20.9 1.060e+04 7.420e-10
 62.97869     22.8 1.077e+04 1.257e-09
 62.99898     23.1 1.118e+04 1.764e-09
 63.02171     23.7 1.134e+04 2.240e-09
 63.04191     23.8 1.144e+04 2.949e-09
 63.05602     24.1 1.155e+04 4.293e-09
 63.06617     23.7 1.172e+04 5.465e-09
 63.08250     24.2 1.200e+04 7.085e-09
 63.09741     24.5 1.232e+04 8.610e-09
 63.10755     24.2 1.246e+04 1.001e-08
 63.12309     24.2 1.270e+04 1.136e-08
 63.13356     24.2 1.286e+04 1.230e-08
 63.14370     23.4 1.278e+04 1.047e-08
 63.16368     23.6 1.286e+04 1.001e-08
 63.18398     23.7 1.299e+04 8.960e-09
 63.20094     23.7 1.315e+04 7.826e-09
 63.21109     22.5 1.314e+04 5.579e-09
 63.22457     22.0 1.327e+04 5.886e-09
 63.24486     20.9 1.359e+04 7.158e-09
 63.26516     18.9 1.425e+04 1.191e-08
 63.27847     17.2 1.487e+04 2.483e-08
 63.28862     15.7 1.519e+04 3.700e-08
 63.30575     15.1 1.546e+04 4.772e-08
 63.32605     15.0 1.532e+04 4.507e-08
 63.34586     15.0 1.509e+04 3.045e-08
 63.35600     14.4 1.495e+04 1.528e-08
 63.36664     13.0 1.488e+04 8.308e-09
 63.38693     11.9 1.453e+04 5.839e-09
 63.40427     11.6 1.407e+04 5.491e-09
 63.41442     10.3 1.396e+04 6.359e-09
 63.42339     11.0 1.376e+04 6.379e-09
 63.43353     11.2 1.361e+04 5.962e-09
 63.44782     11.6 1.359e+04 6.036e-09
 63.47836     12.8 1.331e+04 5.670e-09
 63.51905     14.2 1.314e+04 5.699e-09
 63.55835     15.7 1.313e+04 5.548e-09
 63.57864     15.2 1.321e+04 5.415e-09
 63.58998     16.1 1.313e+04 4.961e-09
 63.61018     16.8 1.312e+04 4.543e-09
 63.63047     17.6 1.305e+04 4.007e-09
 63.64583     18.4 1.295e+04 3.584e-09
 63.65598     18.0 1.298e+04 3.172e-09
 63.67107     19.3 1.290e+04 2.596e-09
 63.69136     19.6 1.299e+04 2.474e-09
 63.71114     21.0 1.295e+04 2.239e-09
 63.72295     21.6 1.293e+04 2.959e-09
 63.73371     21.5 1.289e+04 2.400e-09
 63.76259     23.6 1.296e+04 2.364e-09
 63.80318     25.7 1.302e+04 2.400e-09
 63.84377     27.7 1.311e+04 2.532e-09
 63.86848     29.3 1.310e+04 2.784e-09
 63.88877     29.5 1.318e+04 2.491e-09
 63.92495     30.7 1.317e+04 3.004e-09
 63.94591     31.8 1.309e+04 3.718e-09
 63.95596     31.7 1.315e+04 3.441e-09
 63.97549     32.4 1.326e+04 4.018e-09
 63.99579     32.8 1.345e+04 4.730e-09
 64.01320     32.7 1.359e+04 5.566e-09
 64.02334     32.4 1.365e+04 5.572e-09
 64.02815     31.9 1.396e+04 7.144e-09
 64.03830     32.1 1.371e+04 6.786e-09
 64.05668     31.4 1.401e+04 8.245e-09
 64.07697     30.3 1.441e+04 1.118e-08
 64.09073     28.7 1.484e+04 1.853e-08
 64.10087     29.6 1.466e+04 1.498e-08
 64.11756     27.9 1.501e+04 2.625e-08
 64.13786     26.5 1.536e+04 4.912e-08
 64.15811     25.5 1.561e+04 6.876e-08
 64.17841     25.4 1.564e+04 7.039e-08
 64.19874     25.3 1.515e+04 4.722e-08
 64.21904     24.5 1.492e+04 1.947e-08
 64.23564     22.0 1.442e+04 8.336e-09
 64.24579     23.0 1.480e+04 1.038e-08
 64.25963     20.5 1.352e+04 6.097e-09
 64.29017     20.2 1.309e+04 4.422e-09
 64.31327     20.5 1.280e+04 3.691e-09
 64.32778     20.1 1.273e+04 3.518e-09
 64.34536     20.8 1.307e+04 2.691e-09
 64.36120     21.2 1.283e+04 2.874e-09
 64.38056     21.8 1.274e+04 3.008e-09
 64.39070     21.7 1.283e+04 2.946e-09
 64.40169     22.4 1.285e+04 3.399e-09
 64.42199     22.8 1.302e+04 3.827e-09
 64.44229     22.7 1.324e+04 5.346e-09
 64.45809     22.7 1.335e+04 7.999e-09
 64.46824     22.8 1.330e+04 7.905e-09
 64.48288     22.7 1.344e+04 1.163e-08
 64.50317     21.8 1.406e+04 1.883e-08
 64.52347     19.3 1.521e+04 3.937e-08
 64.53562     16.8 1.609e+04 7.734e-08
 64.54577     17.0 1.636e+04 9.590e-08
 64.56406     14.5 1.633e+04 9.798e-08
 64.58435     13.6 1.556e+04 6.709e-08
 64.60300     11.3 1.498e+04 3.414e-08
 64.61315     12.7 1.506e+04 3.555e-08
 64.62494      9.1 1.413e+04 1.931e-08
 64.64188      7.2 1.384e+04 1.894e-08
 64.65203      8.6 1.387e+04 1.880e-08
 64.66553      6.3 1.433e+04 2.405e-08
 64.68054      4.9 1.460e+04 3.940e-08
 64.69068      6.3 1.447e+04 3.047e-08
 64.70612      5.2 1.441e+04 4.236e-08
 64.72642      5.8 1.399e+04 3.524e-08
 64.74671      5.5 1.352e+04 2.192e-08
 64.75807      4.7 1.290e+04 9.998e-09
 64.76821      6.4 1.299e+04 1.243e-08
 64.78730      4.4 1.250e+04 6.538e-09
 64.80760      3.8 1.185e+04 3.888e-09
 64.82545      3.5 1.146e+04 2.808e-09
 64.83560      4.7 1.165e+04 3.087e-09
 64.85844      5.1 1.106e+04 1.844e-09
 64.89303      6.1 1.091e+04 1.033e-09
 64.91332      7.4 1.095e+04 1.241e-09
 64.93880      8.3 1.098e+04 8.555e-10
 64.95909     10.0 1.107e+04 1.298e-09
 64.98030     10.9 1.075e+04 1.052e-09
 65.02090     12.0 1.059e+04 1.097e-09
 65.04809     12.9 1.038e+04 1.389e-09
 65.06839     13.9 1.056e+04 1.462e-09
 65.10208     14.4 1.055e+04 2.056e-09
 65.14267     14.2 1.062e+04 2.900e-09
 65.17301     13.3 1.068e+04 4.171e-09
 65.19281     13.3 1.061e+04 5.128e-09
 65.20296     13.4 1.081e+04 6.073e-09
 65.21351     13.4 1.085e+04 6.487e-09
 65.23380     13.2 1.085e+04 6.443e-09
 65.26434     13.7 1.064e+04 5.921e-09
 65.30503     13.9 1.035e+04 5.022e-09
 65.33792     14.4 1.017e+04 4.599e-09
 65.35822     14.0 1.022e+04 4.671e-09
 65.38621     14.8 1.003e+04 4.414e-09
 65.42680     15.7 9.993e+03 4.498e-09
 65.46739     16.6 1.001e+04 5.043e-09
 65.49299     17.5 9.980e+03 5.224e-09
 65.51328     17.4 9.817e+03 4.461e-09
 65.54857     18.6 9.733e+03 4.379e-09
 65.57283     19.8 9.495e+03 3.531e-09
 65.59312     20.4 9.200e+03 3.288e-09
 65.62775     21.3 8.978e+03 2.528e-09
 65.64805     20.8 9.388e+03 3.722e-09
 65.67034     21.7 9.383e+03 3.882e-09
 65.71093     22.7 9.446e+03 4.330e-09
 65.75152     24.0 9.549e+03 4.731e-09
 65.78282     25.4 9.592e+03 4.630e-09
 65.80311     24.5 9.667e+03 4.294e-09
 65.83271     25.6 9.675e+03 3.642e-09
 65.87330     26.7 9.736e+03 3.676e-09
 65.91389     27.5 9.978e+03 4.283e-09
 65.93788     28.4 1.043e+04 6.199e-09
 65.95817     27.4 1.034e+04 5.865e-09
 65.99507     28.1 1.051e+04 5.639e-09
 66.03566     28.8 1.054e+04 4.626e-09
 66.07265     29.2 1.038e+04 3.216e-09
 66.09294     27.9 1.026e+04 2.198e-09
 66.11684     28.3 1.024e+04 2.120e-09
 66.15743     28.3 1.033e+04 2.278e-09
 66.18656     27.9 1.056e+04 2.952e-09
 66.20685     27.7 1.037e+04 2.749e-09
 66.22771     26.9 1.065e+04 4.186e-09
 66.24800     24.4 1.068e+04 4.231e-09
 66.27920     22.6 1.105e+04 6.756e-09
 66.31979     20.3 1.128e+04 8.672e-09
 66.36038     17.6 1.120e+04 8.157e-09
 66.38277     15.2 1.121e+04 7.089e-09
 66.40307     11.8 1.117e+04 7.343e-09
 66.43132     11.0 1.102e+04 6.533e-09
 66.44996     10.1 1.091e+04 6.312e-09
 66.46011      8.7 1.092e+04 6.535e-09
 66.47181      8.2 1.080e+04 6.281e-09
 66.49211      7.9 1.068e+04 5.798e-09
 66.50338      7.6 1.048e+04 4.138e-09
 66.51353      7.4 1.043e+04 3.777e-09
 66.52749      7.0 1.034e+04 3.250e-09
 66.53774      6.3 1.021e+04 2.692e-09
 66.56334      5.6 9.883e+03 1.827e-09
 66.60393      5.3 9.566e+03 1.396e-09
 66.64452      5.8 9.422e+03 1.090e-09
 66.67260      6.7 9.411e+03 8.001e-10
 66.69290      6.5 9.446e+03 7.741e-10
 66.72570      7.1 9.551e+03 5.798e-10
 66.76629      7.8 9.529e+03 5.252e-10
 66.80029      8.7 9.550e+03 5.416e-10
 66.82059      9.3 9.536e+03 5.469e-10
 66.82767      9.9 9.657e+03 6.634e-10
 66.84796     10.0 9.649e+03 6.552e-10
 66.88806     10.6 9.696e+03 1.047e-09
 66.92865     11.6 9.778e+03 1.492e-09
 66.96243     12.3 9.851e+03 1.518e-09
 66.98273     12.6 9.770e+03 1.431e-09
 67.00983     13.3 9.797e+03 1.228e-09
 67.05042     13.7 9.813e+03 1.018e-09
 67.09101     14.2 9.829e+03 1.044e-09
 67.11750     14.7 9.897e+03 1.253e-09
 67.13779     15.4 9.821e+03 1.029e-09
 67.17219     15.7 1.004e+04 1.478e-09
 67.21278     15.4 1.042e+04 2.228e-09
 67.24313     14.9 1.067e+04 2.946e-09
 67.26222     13.7 1.103e+04 4.107e-09
 67.27236     13.9 1.101e+04 4.201e-09
 67.28362     12.4 1.141e+04 6.497e-09
 67.30392     11.7 1.137e+04 8.266e-09
 67.32421     10.1 1.161e+04 1.004e-08
 67.33975      8.6 1.150e+04 1.010e-08
 67.34990      9.0 1.134e+04 9.664e-09
 67.37505      5.3 1.158e+04 1.017e-08
 67.40549      4.8 1.151e+04 1.036e-08
 67.41728      1.6 1.233e+04 1.300e-08
 67.42571      2.0 1.231e+04 1.352e-08
 67.43412      3.5 1.207e+04 1.204e-08
 67.44598      0.3 1.269e+04 1.843e-08
 67.46628     -1.5 1.291e+04 2.686e-08
 67.48466     -3.5 1.352e+04 2.950e-08
 67.49481     -2.0 1.294e+04 2.437e-08
 67.50687     -5.7 1.341e+04 2.208e-08
 67.52716     -9.1 1.253e+04 2.609e-08
 67.54746    -10.4 1.241e+04 2.303e-08
 67.56219    -12.9 1.236e+04 1.572e-08
 67.57234    -12.2 1.229e+04 1.510e-08
 67.58805    -15.2 1.200e+04 1.693e-08
 67.60835    -16.3 1.173e+04 1.866e-08
 67.62864    -16.3 1.179e+04 1.771e-08
 67.65918    -16.5 1.144e+04 1.215e-08
 67.69716    -16.7 1.064e+04 6.638e-09
 67.71745    -16.1 1.098e+04 8.571e-09
 67.74046    -15.6 1.052e+04 4.052e-09
 67.78105    -15.7 1.064e+04 3.217e-09
 67.82164    -17.3 1.134e+04 5.199e-09
 67.85199    -17.8 1.146e+04 1.064e-08
 67.86217    -17.7 1.168e+04 1.491e-08
 67.87232    -18.0 1.196e+04 1.859e-08
 67.89248    -17.5 1.232e+04 2.280e-08
 67.91277    -17.3 1.242e+04 2.178e-08
 67.92956    -17.4 1.217e+04 1.672e-08
 67.93970    -17.5 1.238e+04 1.843e-08
 67.95337    -18.4 1.209e+04 1.335e-08
 67.98391    -19.3 1.154e+04 9.478e-09
 68.00728    -19.7 1.132e+04 7.449e-09
 68.02758    -20.5 1.128e+04 7.904e-09
 68.04805    -20.1 1.114e+04 6.993e-09
 68.06835    -19.4 1.111e+04 5.896e-09
 68.10578    -18.6 1.092e+04 4.654e-09
 68.14205    -17.7 1.086e+04 3.569e-09
 68.16235    -17.9 1.070e+04 2.886e-09
 68.18696    -16.5 1.080e+04 2.874e-09
 68.22755    -15.0 1.082e+04 3.510e-09
 68.26814    -13.2 1.094e+04 3.898e-09
 68.29711    -12.0 1.116e+04 3.502e-09
 68.31741    -11.0 1.127e+04 5.704e-09
 68.34932     -9.8 1.140e+04 4.564e-09
 68.38991     -9.4 1.150e+04 4.162e-09
 68.42025     -9.1 1.178e+04 4.898e-09
 68.44045    -10.1 1.230e+04 5.644e-09
 68.45198    -10.9 1.229e+04 8.704e-09
 68.46213    -11.1 1.261e+04 1.329e-08
 68.48104    -10.5 1.283e+04 1.719e-08
 68.50134    -10.8 1.340e+04 1.836e-08
 68.51936    -16.8 1.649e+04 2.629e-08
 68.52951    -16.5 1.706e+04 4.154e-08
 68.54193    -24.0 1.762e+04 1.280e-07
 68.55710    -25.7 1.751e+04 1.898e-07
 68.56311    -27.1 1.781e+04 1.937e-07
 68.56818    -27.3 1.833e+04 2.678e-07
 68.57735    -31.3 1.947e+04 1.677e-07
 68.58749    -39.7 1.946e+04 7.383e-08
 68.59680    -51.7 1.443e+04 3.072e-08
 68.60187    -53.2 1.451e+04 3.382e-08
 68.60779    -56.5 1.294e+04 2.621e-08
 68.62306    -58.4 1.234e+04 2.123e-08
 68.64340    -60.0 1.126e+04 1.337e-08
 68.66159    -61.1 1.020e+04 7.239e-09
 68.67174    -61.9 9.979e+03 6.520e-09
 68.67443    -62.4 9.412e+03 4.125e-09
 68.68458    -64.1 9.006e+03 2.848e-09
 68.70429    -64.0 8.713e+03 2.246e-09
 68.72459    -63.6 8.601e+03 2.090e-09
 68.74191    -62.4 8.522e+03 1.983e-09
 68.76230    -63.9 8.264e+03 1.746e-09
 68.79581    -62.0 8.079e+03 1.667e-09
 68.83640    -60.4 8.025e+03 1.706e-09
 68.87677    -59.0 8.034e+03 1.971e-09
 68.89707    -60.0 7.933e+03 1.870e-09
 68.91759    -58.5 7.926e+03 1.902e-09
 68.95818    -57.2 7.950e+03 1.881e-09
 68.99877    -56.2 8.062e+03 1.890e-09
 69.03184    -55.7 8.318e+03 2.082e-09
 69.05213    -57.2 8.263e+03 2.069e-09
 69.07995    -56.7 8.450e+03 2.467e-09
 69.12054    -56.3 8.654e+03 2.741e-09
 69.16113    -56.2 8.754e+03 2.785e-09
 69.18690    -56.4 8.844e+03 2.677e-09
 69.20720    -56.9 8.514e+03 2.309e-09
 69.24231    -56.8 8.703e+03 2.384e-09
 69.27552    -56.3 8.762e+03 2.445e-09
 69.29581    -56.8 8.834e+03 2.685e-09
 69.32167    -56.2 8.910e+03 2.535e-09
 69.34196    -56.0 8.671e+03 2.417e-09
 69.36408    -54.9 8.759e+03 1.956e-09
 69.40467    -53.8 8.725e+03 1.439e-09
 69.44526    -52.6 8.745e+03 1.124e-09
 69.47673    -51.3 8.753e+03 1.037e-09
 69.49703    -50.8 8.612e+03 1.036e-09
 69.52644    -49.6 8.740e+03 1.024e-09
 69.56703    -48.8 9.054e+03 1.215e-09
 69.60762    -47.9 9.202e+03 1.654e-09
 69.63179    -46.9 9.491e+03 2.028e-09
 69.65209    -46.1 9.454e+03 2.136e-09
 69.68881    -45.3 9.632e+03 2.182e-09
 69.72940    -44.9 9.841e+03 2.008e-09
 69.76656    -44.5 1.006e+04 1.824e-09
 69.78686    -43.9 1.006e+04 1.872e-09
 69.81058    -43.6 1.034e+04 1.861e-09
 69.85117    -43.1 1.065e+04 2.055e-09
 69.88925    -42.3 1.076e+04 2.255e-09
 69.90955    -42.6 1.108e+04 3.163e-09
 69.92162    -42.0 1.102e+04 2.836e-09
 69.94192    -41.8 1.113e+04 3.218e-09
 69.97294    -41.2 1.099e+04 2.956e-09
 70.01353    -40.2 1.084e+04 2.656e-09
 70.05412    -39.1 1.076e+04 2.232e-09
 70.07669    -38.1 1.072e+04 1.852e-09
 70.09698    -38.2 1.086e+04 2.501e-09
 70.13530    -37.4 1.083e+04 2.440e-09
 70.17589    -37.0 1.090e+04 2.898e-09
 70.21145    -36.9 1.102e+04 4.397e-09
 70.23175    -37.0 1.109e+04 4.776e-09
 70.25707    -36.6 1.135e+04 6.572e-09
 70.29766    -36.7 1.143e+04 7.088e-09
 70.32801    -37.2 1.146e+04 6.456e-09
 70.34821    -37.4 1.140e+04 6.361e-09
 70.36642    -37.6 1.134e+04 6.317e-09
 70.38681    -37.3 1.115e+04 5.415e-09
 70.40919    -37.2 1.108e+04 4.991e-09
 70.42939    -36.9 1.096e+04 4.644e-09
 70.45993    -36.4 1.080e+04 3.385e-09
 70.50062    -36.2 1.057e+04 2.200e-09
 70.52158    -35.5 1.035e+04 1.632e-09
 70.52395    -34.8 1.037e+04 1.902e-09
 70.54357    -34.4 1.053e+04 2.221e-09
 70.58180    -33.7 1.044e+04 2.254e-09
 70.62239    -33.0 1.034e+04 2.773e-09
 70.65635    -31.9 1.034e+04 3.174e-09
 70.67664    -31.2 1.034e+04 3.267e-09
 70.70357    -30.6 1.035e+04 3.014e-09
 70.74416    -30.7 1.036e+04 2.281e-09
 70.78475    -31.7 1.035e+04 2.208e-09
 70.81141    -34.1 1.080e+04 4.076e-09
 70.83171    -34.1 1.110e+04 4.802e-09
 70.85569    -38.0 1.278e+04 9.657e-09
 70.87588    -43.8 1.381e+04 2.246e-08
 70.88875    -46.8 1.431e+04 4.203e-08
 70.89889    -46.8 1.428e+04 3.987e-08
 70.91647    -49.4 1.461e+04 4.057e-08
 70.93677    -54.7 1.409e+04 1.538e-08
 70.95613    -62.4 1.230e+04 5.708e-09
 70.96628    -62.6 1.212e+04 5.471e-09
 70.97736    -65.3 1.175e+04 4.718e-09
 70.99765    -66.9 1.175e+04 4.664e-09
 71.01795    -68.8 1.177e+04 4.793e-09
 71.03366    -70.5 1.176e+04 5.099e-09
 71.04381    -70.1 1.169e+04 4.900e-09
 71.05854    -71.5 1.171e+04 5.202e-09
 71.07884    -72.8 1.173e+04 5.348e-09
 71.09913    -74.0 1.174e+04 5.370e-09
 71.11119    -75.1 1.178e+04 5.186e-09
 71.12134    -74.6 1.168e+04 5.188e-09
 71.13682    -75.7 1.168e+04 4.925e-09
 71.14696    -75.5 1.170e+04 5.205e-09
 71.16002    -76.5 1.166e+04 5.049e-09
 71.17858    -77.4 1.157e+04 4.969e-09
 71.18872    -76.9 1.153e+04 4.957e-09
 71.20061    -77.8 1.149e+04 4.961e-09
 71.23115    -78.8 1.142e+04 5.118e-09
 71.25630    -80.1 1.152e+04 5.479e-09
 71.27660    -79.5 1.152e+04 5.811e-09
 71.31243    -81.8 1.196e+04 8.059e-09
 71.35302    -84.1 1.274e+04 1.366e-08
 71.38336    -85.9 1.336e+04 2.106e-08
 71.40102    -87.3 1.389e+04 2.812e-08
 71.41117    -86.7 1.345e+04 2.161e-08
 71.42386    -88.2 1.363e+04 2.440e-08
 71.44368    -89.6 1.360e+04 2.447e-08
 71.45383    -89.4 1.359e+04 2.423e-08
 71.46445    -90.4 1.325e+04 1.970e-08
 71.47856    -91.4 1.283e+04 1.355e-08
 71.48870    -90.6 1.265e+04 1.175e-08
 71.50504    -91.6 1.231e+04 8.896e-09
 71.52533    -92.5 1.202e+04 7.130e-09
 71.54604    -93.2 1.180e+04 5.933e-09
 71.56643    -91.4 1.166e+04 5.067e-09
 71.59656    -91.3 1.141e+04 4.006e-09
 71.63715    -91.0 1.128e+04 3.284e-09
 71.67774    -90.2 1.118e+04 2.697e-09
 71.70120    -89.1 1.113e+04 2.302e-09
 71.72149    -87.6 1.111e+04 2.130e-09
 71.75074    -86.4 1.112e+04 1.905e-09
 71.77104    -85.8 1.107e+04 2.425e-09
 71.79951    -84.5 1.107e+04 2.386e-09
 71.83596    -83.2 1.119e+04 2.398e-09
 71.85626    -82.0 1.119e+04 2.372e-09
 71.88069    -80.8 1.134e+04 2.702e-09
 71.92128    -79.6 1.145e+04 3.114e-09
 71.96187    -78.5 1.157e+04 3.395e-09
 71.99103    -77.4 1.166e+04 3.462e-09
 72.01132    -76.5 1.174e+04 3.886e-09
 72.04306    -75.5 1.185e+04 4.106e-09
 72.08365    -74.7 1.199e+04 4.401e-09
 72.12424    -74.1 1.216e+04 4.946e-09
 72.14609    -73.5 1.233e+04 5.660e-09
 72.16639    -72.5 1.235e+04 6.054e-09
 72.20542    -72.0 1.247e+04 6.699e-09
 72.24601    -71.5 1.250e+04 6.854e-09
 72.28086    -70.9 1.233e+04 6.146e-09
 72.30115    -69.7 1.246e+04 6.862e-09
 72.32719    -68.8 1.221e+04 5.414e-09
 72.36448    -67.7 1.198e+04 3.612e-09
 72.38477    -68.1 1.211e+04 2.894e-09
 72.40837    -66.8 1.207e+04 2.278e-09
 72.43592    -65.8 1.207e+04 2.276e-09
 72.45622    -64.8 1.206e+04 2.465e-09
 72.48955    -64.5 1.224e+04 3.074e-09
 72.53014    -64.6 1.259e+04 6.433e-09
 72.57069    -64.9 1.316e+04 1.257e-08
 72.61128    -64.6 1.355e+04 1.681e-08
 72.64167    -65.3 1.385e+04 1.993e-08
 72.65817    -66.1 1.388e+04 1.983e-08
 72.66832    -65.5 1.376e+04 1.763e-08
 72.69241    -66.9 1.358e+04 1.502e-08
 72.72575    -67.5 1.320e+04 8.683e-09
 72.74605    -65.9 1.310e+04 1.019e-08
 72.77369    -66.7 1.305e+04 5.774e-09
 72.81428    -67.4 1.317e+04 3.715e-09
 72.85487    -67.8 1.325e+04 3.368e-09
 72.88081    -67.9 1.333e+04 3.640e-09
 72.90111    -67.1 1.334e+04 4.965e-09
 72.93605    -67.2 1.333e+04 4.955e-09
 72.97664    -67.1 1.319e+04 4.625e-09
 72.99850    -66.9 1.310e+04 4.051e-09
 73.01715    -66.2 1.328e+04 3.767e-09
 73.03588    -65.4 1.328e+04 4.029e-09
 73.05782    -65.1 1.329e+04 3.653e-09
 73.09841    -64.9 1.333e+04 3.565e-09
 73.13900    -64.9 1.348e+04 3.878e-09
 73.17064    -66.0 1.384e+04 6.351e-09
 73.19094    -64.8 1.365e+04 5.958e-09
 73.22018    -66.1 1.406e+04 1.021e-08
 73.24808    -67.5 1.451e+04 1.473e-08
 73.25813    -66.9 1.417e+04 1.268e-08
 73.27072    -68.2 1.463e+04 1.503e-08
 73.29102    -69.6 1.484e+04 1.629e-08
 73.30517    -70.8 1.488e+04 1.606e-08
 73.31532    -71.0 1.500e+04 1.905e-08
 73.32551    -71.9 1.504e+04 1.531e-08
 73.33566    -71.1 1.485e+04 1.172e-08
 73.35191    -71.6 1.499e+04 8.508e-09
 73.37220    -72.1 1.499e+04 6.759e-09
 73.39250    -72.2 1.483e+04 6.079e-09
 73.42304    -72.3 1.468e+04 5.624e-09
 73.46048    -71.7 1.455e+04 5.955e-09
 73.48077    -70.1 1.479e+04 3.222e-09
 73.50431    -69.3 1.457e+04 3.479e-09
 73.54491    -68.5 1.419e+04 4.276e-09
 73.58550    -67.5 1.390e+04 4.858e-09
 73.61224    -66.4 1.381e+04 4.987e-09
 73.62198    -66.0 1.382e+04 4.947e-09
 73.63583    -64.1 1.415e+04 3.985e-09
 73.66668    -63.1 1.414e+04 4.272e-09
 73.70727    -62.2 1.381e+04 4.141e-09
 73.74786    -61.2 1.381e+04 3.084e-09
 73.77060    -60.1 1.394e+04 1.952e-09
 73.79090    -58.8 1.394e+04 2.833e-09
 73.82904    -57.7 1.402e+04 1.759e-09
 73.86963    -56.6 1.408e+04 1.156e-09
 73.90537    -55.2 1.408e+04 8.965e-10
 73.92566    -54.2 1.408e+04 1.136e-09
 73.95081    -52.7 1.407e+04 9.114e-10
 73.99140    -51.1 1.406e+04 8.178e-10
 74.03199    -49.4 1.406e+04 7.754e-10
 74.06043    -47.6 1.408e+04 7.627e-10
 74.08073    -46.7 1.416e+04 9.353e-10
 74.11317    -44.9 1.422e+04 9.593e-10
 74.15376    -43.0 1.424e+04 1.016e-09
 74.19435    -41.1 1.428e+04 1.044e-09
 74.21549    -38.9 1.434e+04 1.022e-09
 74.22681    -38.3 1.448e+04 1.111e-09
 74.24626    -37.1 1.443e+04 1.598e-09
 74.27553    -34.9 1.451e+04 1.492e-09
 74.31613    -32.6 1.464e+04 1.338e-09
 74.35026    -30.4 1.474e+04 1.281e-09
 74.37056    -30.1 1.485e+04 1.234e-09
 74.39731    -28.3 1.509e+04 1.400e-09
 74.43790    -26.9 1.493e+04 2.327e-09
 74.47849    -25.5 1.475e+04 4.152e-09
 74.50532    -24.1 1.468e+04 6.329e-09
 74.52562    -23.9 1.455e+04 7.339e-09
 74.55967    -22.9 1.451e+04 7.581e-09
 74.60026    -21.7 1.438e+04 6.428e-09
 74.64009    -20.4 1.429e+04 4.776e-09
 74.66039    -20.1 1.403e+04 4.287e-09
 74.68144    -18.5 1.418e+04 3.478e-09
 74.72203    -17.1 1.409e+04 2.765e-09
 74.76262    -15.4 1.403e+04 2.338e-09
 74.79516    -13.7 1.400e+04 2.122e-09
 74.81545    -13.2 1.379e+04 2.009e-09
 74.83970    -11.5 1.382e+04 1.934e-09
 74.86000    -11.1 1.392e+04 2.278e-09
 74.88439     -9.8 1.408e+04 2.238e-09
 74.92498     -9.4 1.441e+04 2.860e-09
 74.95012     -9.1 1.431e+04 4.332e-09
 74.96017     -8.7 1.424e+04 4.242e-09
 74.97553     -8.7 1.414e+04 6.304e-09
 74.99582     -8.0 1.418e+04 8.351e-09
 75.01612     -7.7 1.419e+04 8.987e-09
 75.02755     -7.7 1.395e+04 8.262e-09
 75.03770     -7.5 1.394e+04 8.898e-09
 75.05671     -7.5 1.391e+04 7.039e-09
 75.07700     -7.9 1.387e+04 5.629e-09
 75.09494     -8.2 1.369e+04 4.876e-09
 75.10509     -8.1 1.364e+04 5.439e-09
 75.11759     -8.1 1.350e+04 4.766e-09
 75.13789     -7.7 1.344e+04 3.980e-09
 75.16843     -7.4 1.338e+04 2.996e-09
 75.20912     -6.1 1.311e+04 1.769e-09
 75.24005     -4.1 1.330e+04 9.958e-10
 75.26034     -3.9 1.343e+04 6.338e-10
 75.29030     -2.5 1.342e+04 4.829e-10
 75.33089     -0.7 1.341e+04 4.506e-10
 75.37148      0.5 1.386e+04 4.765e-10
 75.39511      0.5 1.357e+04 9.726e-10
 75.41541      1.7 1.378e+04 6.288e-10
 75.45266      2.0 1.325e+04 1.945e-09
 75.47373      2.5 1.358e+04 5.325e-09
 75.49402      3.5 1.348e+04 4.064e-09
 75.52360      3.5 1.377e+04 6.554e-09
 75.53983      3.0 1.395e+04 7.260e-09
 75.55008      4.5 1.367e+04 5.471e-09
 75.56419      3.3 1.384e+04 6.953e-09
 75.58438      3.2 1.369e+04 6.230e-09
 75.60468      3.0 1.337e+04 4.921e-09
 75.61736      3.1 1.332e+04 3.947e-09
 75.62751      3.7 1.336e+04 4.103e-09
 75.65551      3.6 1.327e+04 3.132e-09
 75.68494      4.2 1.303e+04 2.402e-09
 75.70524      5.5 1.317e+04 2.433e-09
 75.73679      6.1 1.299e+04 2.180e-09
 75.77738      6.4 1.287e+04 2.263e-09
 75.81797      6.3 1.265e+04 2.853e-09
 75.84000      6.2 1.228e+04 3.565e-09
 75.86030      6.9 1.228e+04 3.769e-09
 75.89916      6.5 1.218e+04 3.067e-09
 75.92950      6.2 1.240e+04 2.680e-09
 75.94970      3.7 1.295e+04 3.345e-09
 75.96999      1.6 1.246e+04 6.428e-09
 75.98472      1.3 1.240e+04 1.189e-08
 75.99487      1.5 1.223e+04 9.733e-09
 76.01058      1.8 1.236e+04 1.386e-08
 76.03088      0.8 1.230e+04 1.469e-08
 76.05117     -0.1 1.178e+04 1.282e-08
 76.06226     -0.1 1.181e+04 1.060e-08
 76.07240      0.2 1.190e+04 1.054e-08
 76.08727     -1.7 1.109e+04 6.324e-09
 76.09741     -1.3 1.123e+04 7.359e-09
 76.11206     -1.2 1.117e+04 6.310e-09
 76.12974     -2.4 1.051e+04 3.486e-09
 76.15013     -1.2 1.072e+04 4.084e-09
 76.18329     -1.7 1.023e+04 2.817e-09
 76.22388     -1.7 9.934e+03 2.118e-09
 76.26447     -1.1 9.679e+03 1.550e-09
 76.30506      0.3 9.523e+03 1.172e-09
 76.34565      0.9 9.397e+03 9.647e-10
 76.38624      1.6 9.385e+03 9.392e-10
 76.41967      1.9 9.341e+03 1.234e-09
 76.43996      2.1 9.338e+03 1.485e-09
 76.46742      2.8 9.377e+03 2.212e-09
 76.50801      3.7 9.425e+03 2.622e-09
 76.54860      3.8 9.344e+03 2.650e-09
 76.57473      3.7 9.307e+03 2.517e-09
 76.59502      3.5 9.425e+03 2.776e-09
 76.62979      3.2 9.329e+03 3.071e-09
 76.65216      3.1 9.303e+03 3.923e-09
 76.66221      3.1 9.297e+03 4.055e-09
 76.68033      2.9 9.310e+03 4.296e-09
 76.70062      3.1 9.438e+03 4.967e-09
 76.71115      2.9 9.435e+03 4.967e-09
 76.71982      2.8 9.616e+03 5.753e-09
 76.72960      2.6 9.490e+03 5.410e-09
 76.74121      2.4 9.332e+03 5.043e-09
 76.76151      2.4 9.303e+03 4.825e-09
 76.79205      2.1 9.081e+03 4.269e-09
 76.83274      2.7 8.811e+03 3.714e-09
 76.86456      3.8 8.591e+03 2.942e-09
 76.88485      4.6 8.241e+03 1.888e-09
 76.91392      5.5 8.096e+03 1.346e-09
 76.95451      6.4 8.071e+03 1.179e-09
 76.99510      7.6 8.035e+03 1.285e-09
 77.01962      9.2 8.071e+03 1.592e-09
 77.03992      9.8 7.868e+03 1.204e-09
 77.07628     11.6 7.944e+03 1.441e-09
 77.11687     13.3 8.041e+03 1.602e-09
 77.15439     14.8 8.174e+03 1.757e-09
 77.17468     15.5 7.960e+03 1.443e-09
 77.19805     16.8 8.103e+03 1.573e-09
 77.23864     17.9 8.255e+03 1.733e-09
 77.27923     19.1 8.330e+03 1.944e-09
 77.30945     20.7 8.364e+03 1.993e-09
 77.32485     21.6 8.208e+03 1.772e-09
 77.33522     20.8 8.185e+03 1.706e-09
 77.36041     22.4 8.208e+03 1.487e-09
 77.40101     23.9 8.234e+03 1.269e-09
 77.44160     25.6 8.302e+03 1.146e-09
 77.46452     27.3 8.428e+03 1.174e-09
 77.48481     27.8 8.411e+03 1.249e-09
 77.52278     29.4 8.562e+03 1.532e-09
 77.56337     31.0 8.968e+03 2.088e-09
 77.59371     32.1 9.202e+03 3.206e-09
 77.60924     32.1 9.681e+03 4.173e-09
 77.61938     31.9 9.741e+03 4.501e-09
 77.63175     32.0 1.008e+04 6.453e-09
 77.64189     31.2 1.017e+04 6.870e-09
 77.65450     31.8 1.062e+04 9.576e-09
 77.67480     32.5 1.121e+04 1.173e-08
 77.68677     32.5 1.132e+04 1.201e-08
 77.69691     32.2 1.135e+04 1.194e-08
 77.71539     31.2 1.178e+04 1.298e-08
 77.73568     30.5 1.196e+04 1.347e-08
 77.75425     30.5 1.232e+04 1.540e-08
 77.77464     29.6 1.217e+04 1.428e-08
 77.80691     28.6 1.215e+04 1.244e-08
 77.84750     27.2 1.154e+04 7.457e-09
 77.88809     25.9 1.096e+04 5.297e-09
 77.90941     26.1 1.058e+04 4.151e-09
 77.92968     25.4 1.055e+04 4.350e-09
 77.96925     25.7 1.003e+04 1.995e-09
 78.00986     26.3 1.019e+04 1.614e-09
 78.04418     26.6 1.022e+04 1.836e-09
 78.06447     26.4 9.961e+03 1.275e-09
 78.09104     26.7 1.003e+04 1.738e-09
 78.13163     27.9 9.746e+03 2.330e-09
 78.17223     29.5 9.723e+03 2.029e-09
 78.19924     30.6 9.791e+03 1.400e-09
 78.21953     31.4 9.649e+03 1.408e-09
 78.25341     32.9 9.821e+03 1.307e-09
 78.29400     33.9 1.018e+04 1.623e-09
 78.33401     34.3 1.076e+04 2.862e-09
 78.35420     34.4 1.071e+04 3.332e-09
 78.36483     34.4 1.101e+04 5.847e-09
 78.38513     35.1 1.132e+04 9.247e-09
 78.40543     36.1 1.172e+04 1.154e-08
 78.42149     36.5 1.186e+04 1.107e-08
 78.43164     36.6 1.192e+04 1.155e-08
 78.44602     37.1 1.199e+04 9.945e-09
 78.46631     37.1 1.207e+04 7.618e-09
 78.48661     36.7 1.219e+04 6.037e-09
 78.49902     36.7 1.217e+04 5.994e-09
 78.50917     36.8 1.222e+04 6.727e-09
 78.52720     36.9 1.230e+04 7.328e-09
 78.54749     37.5 1.241e+04 7.954e-09
 78.56249     38.1 1.259e+04 7.980e-09
 78.57126     37.7 1.252e+04 6.288e-09
 78.57655     38.1 1.256e+04 8.376e-09
 78.58808     38.7 1.263e+04 7.624e-09
 78.60838     40.0 1.270e+04 5.335e-09
 78.62867     39.8 1.294e+04 4.550e-09
 78.64403     41.1 1.259e+04 2.690e-09
 78.66443     42.1 1.293e+04 3.659e-09
 78.69990     43.7 1.301e+04 2.873e-09
 78.74049     45.9 1.312e+04 2.958e-09
 78.77890     47.8 1.330e+04 4.103e-09
 78.79910     48.9 1.358e+04 4.643e-09
 78.81133     49.7 1.348e+04 6.634e-09
 78.83163     50.2 1.342e+04 7.210e-09
 78.85192     51.1 1.333e+04 9.915e-09
 78.86638     51.4 1.329e+04 1.071e-08
 78.87367     52.2 1.338e+04 1.115e-08
 78.87951     51.8 1.343e+04 1.216e-08
 78.89251     52.2 1.341e+04 1.247e-08
 78.91281     52.3 1.335e+04 1.249e-08
 78.93387     53.2 1.309e+04 1.160e-08
 78.95416     53.9 1.325e+04 1.270e-08
 78.97369     54.7 1.285e+04 9.966e-09
 78.99399     54.8 1.265e+04 8.484e-09
 79.01130     55.5 1.218e+04 6.960e-09
 79.02145     56.1 1.250e+04 7.417e-09
 79.03458     56.6 1.212e+04 6.115e-09
 79.05487     57.3 1.193e+04 5.308e-09
 79.07517     58.1 1.178e+04 4.644e-09
 79.08883     59.1 1.163e+04 4.212e-09
 79.09898     59.4 1.164e+04 4.212e-09
 79.11576     60.6 1.154e+04 4.162e-09
 79.13605     61.7 1.150e+04 4.187e-09
 79.15621     63.0 1.148e+04 4.232e-09
 79.16636     63.4 1.155e+04 4.305e-09
 79.17622     64.6 1.161e+04 4.462e-09
 79.18637     65.1 1.152e+04 4.468e-09
 79.19694     66.3 1.155e+04 4.878e-09
 79.21724     67.4 1.169e+04 5.614e-09
 79.23375     68.4 1.185e+04 6.855e-09
 79.24389     68.9 1.193e+04 7.107e-09
 79.25783     69.9 1.210e+04 8.659e-09
 79.27812     70.9 1.231e+04 1.062e-08
 79.29842     71.9 1.245e+04 1.225e-08
 79.31128     72.9 1.252e+04 1.339e-08
 79.32142     73.3 1.239e+04 1.136e-08
 79.33901     74.3 1.232e+04 1.124e-08
 79.35930     75.2 1.232e+04 1.113e-08
 79.37866     75.6 1.240e+04 1.122e-08
 79.38881     76.1 1.212e+04 8.971e-09
 79.39989     76.2 1.217e+04 8.960e-09
 79.42019     75.9 1.233e+04 1.007e-08
 79.44048     75.2 1.258e+04 1.300e-08
 79.45619     74.7 1.287e+04 1.693e-08
 79.46634     76.1 1.236e+04 1.308e-08
 79.48107     76.0 1.244e+04 1.616e-08
 79.49324     76.2 1.243e+04 1.714e-08
 79.50339     76.6 1.322e+04 2.194e-08
 79.52166     76.8 1.333e+04 2.486e-08
 79.53372     77.3 1.322e+04 2.410e-08
 79.54387     79.0 1.279e+04 2.100e-08
 79.56226     79.4 1.265e+04 1.930e-08
 79.58255     79.9 1.227e+04 1.653e-08
 79.60111     80.5 1.180e+04 1.391e-08
 79.61126     82.0 1.179e+04 1.405e-08
 79.62314     82.5 1.144e+04 1.214e-08
 79.64344     83.3 1.115e+04 1.096e-08
 79.66373     84.4 1.099e+04 1.034e-08
 79.67864     85.5 1.092e+04 1.008e-08
 79.68879     86.4 1.102e+04 1.108e-08
 79.70432     87.4 1.099e+04 1.115e-08
 79.72462     88.5 1.097e+04 1.142e-08
 79.74491     89.7 1.098e+04 1.166e-08
 79.75617     90.8 1.097e+04 1.169e-08
 79.76632     91.3 1.109e+04 1.282e-08
 79.78550     92.5 1.109e+04 1.294e-08
 79.80010     93.6 1.118e+04 1.329e-08
 79.81025     94.4 1.133e+04 1.421e-08
 79.82355     95.5 1.148e+04 1.508e-08
 79.83370     95.5 1.157e+04 1.588e-08
 79.84639     96.3 1.177e+04 1.736e-08
 79.86668     97.3 1.204e+04 1.916e-08
 79.88698     98.1 1.234e+04 2.117e-08
 79.90109     99.0 1.263e+04 2.332e-08
 79.91123     98.4 1.287e+04 2.738e-08
 79.92757     99.2 1.309e+04 2.975e-08
 79.94787     99.9 1.307e+04 2.963e-08
 79.96816    100.7 1.306e+04 2.864e-08
 79.97862    101.4 1.297e+04 2.686e-08
 79.98876    100.9 1.233e+04 2.096e-08
 80.00875    101.6 1.195e+04 1.588e-08
 80.02905    102.2 1.161e+04 1.162e-08
 80.04600    102.5 1.127e+04 8.349e-09
 80.05615    101.0 9.795e+03 4.250e-09
 80.06964    100.7 9.195e+03 3.253e-09
 80.08993    100.7 9.067e+03 3.031e-09
 80.10697    101.2 9.024e+03 2.972e-09
 80.11712    103.0 9.300e+03 3.613e-09
 80.12353    103.5 9.137e+03 3.526e-09
 80.13368    103.0 9.037e+03 3.330e-09
 80.15082    103.6 9.083e+03 3.266e-09
 80.17111    104.1 9.113e+03 3.159e-09
 80.19092    104.7 9.126e+03 3.059e-09
 80.20106    104.3 9.124e+03 2.996e-09
 80.21170    104.7 9.111e+03 2.925e-09
 80.23200    105.3 9.098e+03 2.874e-09
 80.25229    105.8 9.098e+03 2.832e-09
 80.26845    106.4 9.054e+03 2.833e-09
 80.28884    106.6 9.081e+03 2.837e-09
 80.32352    107.4 9.161e+03 2.934e-09
 80.34608    108.4 9.191e+03 3.127e-09
 80.35613    108.2 9.168e+03 3.119e-09
 80.37407    108.9 9.217e+03 3.313e-09
 80.39436    109.7 9.350e+03 3.692e-09
 80.41336    110.4 9.486e+03 4.197e-09
 80.42269    110.5 9.476e+03 4.025e-09
 80.42398    111.1 9.594e+03 4.562e-09
 80.43495    111.6 9.719e+03 5.052e-09
 80.45525    112.2 9.798e+03 5.589e-09
 80.47554    112.6 9.924e+03 6.199e-09
 80.49089    112.6 1.005e+04 6.901e-09
 80.50104    112.6 1.016e+04 6.862e-09
 80.51613    112.3 1.048e+04 8.421e-09
 80.53643    111.0 1.142e+04 1.341e-08
 80.55672    109.1 1.299e+04 2.630e-08
 80.56843    107.3 1.433e+04 4.676e-08
 80.57857    107.7 1.421e+04 4.249e-08
 80.59731    105.8 1.485e+04 5.118e-08
 80.61761    103.6 1.484e+04 4.798e-08
 80.63581    101.1 1.453e+04 3.773e-08
 80.64596    102.1 1.445e+04 3.803e-08
 80.65820     99.6 1.397e+04 3.084e-08
 80.67849     97.2 1.328e+04 2.576e-08
 80.69879     95.7 1.256e+04 2.197e-08
 80.71334     94.9 1.193e+04 1.803e-08
 80.72349     96.5 1.224e+04 1.997e-08
 80.73085     95.9 1.157e+04 1.495e-08
 80.74100     96.4 1.226e+04 2.051e-08
 80.75968     95.6 1.159e+04 1.447e-08
 80.77997     94.5 1.108e+04 1.052e-08
 80.79087     93.3 1.084e+04 9.297e-09
 80.80102     94.8 1.083e+04 9.223e-09
 80.82056     93.8 1.077e+04 9.078e-09
 80.84086     92.8 1.094e+04 1.000e-08
 80.85826     92.0 1.131e+04 1.269e-08
 80.86840     93.3 1.107e+04 1.104e-08
 80.88145     92.6 1.152e+04 1.467e-08
 80.90174     92.1 1.187e+04 1.817e-08
 80.92204     91.8 1.200e+04 1.934e-08
 80.93579     91.3 1.195e+04 1.802e-08
 80.94594     92.4 1.205e+04 1.939e-08
 80.96263     91.5 1.194e+04 1.681e-08
 80.98292     89.8 1.195e+04 1.450e-08
 81.00317     87.1 1.211e+04 1.467e-08
 81.02347     85.4 1.231e+04 1.562e-08
 81.03772     81.7 1.306e+04 2.359e-08
 81.04787     80.8 1.309e+04 2.404e-08
 81.06410     78.4 1.372e+04 3.872e-08
 81.08070     77.0 1.360e+04 3.912e-08
 81.09085     77.7 1.360e+04 3.862e-08
 81.10470     77.2 1.315e+04 3.357e-08
 81.12499     76.9 1.232e+04 1.949e-08
 81.14529     75.6 1.157e+04 8.708e-09
 81.15823     73.4 1.073e+04 3.929e-09
 81.16838     74.4 1.100e+04 4.732e-09
 81.18588     71.8 1.028e+04 2.730e-09
 81.20617     71.0 9.779e+03 2.139e-09
 81.22562     70.6 9.765e+03 2.087e-09
 81.23577     71.1 9.815e+03 2.277e-09
 81.25701     71.1 9.842e+03 2.190e-09
 81.29320     71.2 9.900e+03 2.154e-09
 81.31349     71.8 1.004e+04 2.438e-09
 81.33829     71.5 1.012e+04 2.393e-09
 81.37888     70.9 1.019e+04 2.497e-09
 81.41947     70.4 1.033e+04 2.665e-09
 81.44826     70.2 1.038e+04 2.652e-09
 81.45831     70.2 1.041e+04 2.814e-09
 81.47001     70.1 1.044e+04 2.813e-09
 81.50055     70.4 1.056e+04 2.608e-09
 81.54124     70.4 1.061e+04 2.519e-09
 81.57158     70.2 1.076e+04 2.876e-09
 81.59178     70.0 1.089e+04 3.247e-09
 81.60313     69.8 1.106e+04 3.934e-09
 81.61328     69.7 1.116e+04 4.290e-09
 81.63237     69.6 1.130e+04 4.924e-09
 81.65145     69.2 1.156e+04 5.678e-09
 81.66160     67.8 1.173e+04 5.919e-09
 81.67051     65.9 1.238e+04 8.795e-09
 81.68066     66.3 1.238e+04 8.779e-09
 81.69326     63.9 1.307e+04 1.700e-08
 81.71355     62.7 1.360e+04 2.821e-08
 81.73385     61.4 1.374e+04 2.803e-08
 81.74804     60.3 1.368e+04 2.059e-08
 81.75819     60.6 1.379e+04 2.281e-08
 81.77444     58.4 1.371e+04 1.348e-08
 81.79473     55.8 1.332e+04 8.691e-09
 81.81503     54.4 1.284e+04 6.579e-09
 81.82557     54.1 1.256e+04 5.405e-09
 81.83572     54.5 1.255e+04 5.043e-09
 81.85562     54.4 1.282e+04 3.330e-09
 81.87592     53.9 1.233e+04 2.932e-09
 81.89296     53.8 1.209e+04 2.550e-09
 81.90311     54.4 1.200e+04 2.296e-09
 81.91651     54.3 1.213e+04 2.239e-09
 81.93680     54.1 1.207e+04 2.572e-09
 81.95710     54.4 1.180e+04 3.218e-09
 81.96846     55.1 1.172e+04 3.944e-09
 81.97171     54.2 1.186e+04 4.225e-09
 81.98064     54.7 1.178e+04 3.612e-09
 81.99769     54.7 1.194e+04 4.399e-09
 82.02782     56.4 1.170e+04 5.234e-09
 82.04822     57.0 1.181e+04 4.587e-09
 82.06892     58.8 1.134e+04 3.956e-09
 82.10951     59.8 1.133e+04 4.193e-09
 82.15010     61.2 1.123e+04 4.484e-09
 82.18298     62.8 1.105e+04 4.099e-09
 82.20328     63.2 1.094e+04 3.583e-09
 82.23128     64.9 1.079e+04 2.858e-09
 82.26538     66.2 1.062e+04 2.161e-09
 82.28567     64.0 1.042e+04 2.254e-09
 82.31246     65.6 1.033e+04 2.105e-09
 82.33805     67.4 1.036e+04 2.253e-09
 82.35834     68.3 1.023e+04 1.999e-09
 82.39364     70.2 1.022e+04 2.270e-09
 82.43423     72.5 1.013e+04 2.572e-09
 82.47281     74.9 1.007e+04 2.726e-09
 82.49311     75.7 1.001e+04 2.391e-09
 82.51541     78.2 9.996e+03 2.498e-09
 82.55600     80.7 9.983e+03 2.557e-09
 82.59659     83.3 9.971e+03 2.638e-09
 82.62788     85.8 9.945e+03 2.664e-09
 82.64817     86.5 1.001e+04 2.706e-09
 82.67777     88.9 9.971e+03 2.663e-09
 82.71836     91.4 9.887e+03 2.477e-09
 82.75895     93.7 9.805e+03 2.147e-09
 82.78294     95.9 9.731e+03 1.863e-09
 82.80324     96.5 9.610e+03 1.686e-09
 82.84014     98.7 9.555e+03 1.579e-09
 82.87911    101.0 9.568e+03 1.629e-09
 82.89941    100.8 9.307e+03 1.034e-09
 82.91771    103.1 9.369e+03 1.220e-09
 82.93800    103.9 9.281e+03 1.146e-09
 82.96191    106.3 9.363e+03 1.380e-09
 83.00250    108.8 9.424e+03 1.617e-09
 83.04309    111.2 9.439e+03 1.746e-09
 83.07277    113.7 9.393e+03 1.784e-09
 83.09307    114.4 9.422e+03 1.808e-09
 83.12427    116.9 9.376e+03 1.806e-09
 83.16486    119.3 9.336e+03 1.820e-09
 83.20545    121.7 9.276e+03 1.893e-09
 83.22783    123.9 9.214e+03 2.057e-09
 83.24813    124.5 9.410e+03 2.275e-09
 83.28663    126.6 9.393e+03 2.564e-09
 83.32722    128.7 9.366e+03 2.758e-09
 83.36260    130.6 9.337e+03 2.765e-09
 83.38290    130.7 9.694e+03 3.249e-09
 83.40840    132.7 9.535e+03 3.217e-09
 83.44899    134.3 9.485e+03 3.061e-09
 83.47934    135.4 9.433e+03 2.902e-09
 83.49954    136.1 9.386e+03 2.806e-09
 83.51294    136.8 9.344e+03 2.759e-09
 83.52083    137.8 9.114e+03 2.571e-09
 83.52771    137.1 9.168e+03 2.810e-09
 83.54013    137.6 9.151e+03 2.807e-09
 83.56042    138.3 9.216e+03 2.920e-09
 83.58072    138.9 9.404e+03 3.285e-09
 83.59500    139.5 9.582e+03 3.862e-09
 83.60515    139.3 9.763e+03 4.643e-09
 83.62131    140.1 9.951e+03 5.492e-09
 83.64160    140.9 1.007e+04 6.141e-09
 83.66190    141.8 1.010e+04 6.384e-09
 83.67253    142.7 1.005e+04 6.220e-09
 83.68268    142.6 1.043e+04 7.909e-09
 83.70249    143.5 1.036e+04 7.667e-09
 83.72278    144.3 1.025e+04 7.282e-09
 83.73992    145.2 1.013e+04 6.776e-09
 83.75006    145.1 1.062e+04 9.097e-09
 83.76337    146.0 1.048e+04 8.369e-09
 83.78367    147.0 1.033e+04 7.660e-09
 83.80397    147.9 1.024e+04 7.125e-09
 83.81745    148.8 1.027e+04 6.987e-09
 83.82314    148.4 1.064e+04 8.606e-09
 83.82996    149.2 1.084e+04 1.027e-08
 83.84456    149.8 1.087e+04 1.027e-08
 83.86485    150.5 1.098e+04 1.046e-08
 83.88483    150.7 1.121e+04 1.118e-08
 83.89498    149.7 1.144e+04 1.225e-08
 83.90544    149.4 1.163e+04 1.289e-08
 83.92574    148.6 1.177e+04 1.358e-08
 83.94603    147.3 1.221e+04 1.560e-08
 83.96236    145.4 1.283e+04 1.905e-08
 83.97251    143.9 1.200e+04 1.473e-08
 83.98662    141.0 1.227e+04 1.723e-08
 84.00692    137.7 1.262e+04 2.132e-08
 84.02721    134.4 1.301e+04 2.628e-08
 84.03989    131.3 1.338e+04 3.038e-08
 84.05004    128.3 1.394e+04 3.555e-08
 84.06780    124.5 1.479e+04 4.759e-08
 84.08810    121.3 1.544e+04 5.900e-08
 84.10728    118.5 1.577e+04 6.313e-08
 84.11742    115.4 1.585e+04 5.922e-08
 84.12668    112.9 1.573e+04 4.590e-08
 84.13682    110.6 1.489e+04 2.558e-08
 84.14898    107.7 1.394e+04 1.485e-08
 84.16928    104.4 1.226e+04 1.048e-08
 84.18481    101.4 1.163e+04 1.125e-08
 84.19496     98.7 9.988e+03 8.151e-09
 84.20987     97.2 1.135e+04 1.366e-08
 84.23017     95.6 1.390e+04 2.895e-08
 84.25046     94.1 1.628e+04 5.379e-08
 84.26229     93.0 1.671e+04 6.681e-08
 84.26732     91.8 1.771e+04 6.803e-08
 84.27573     90.4 1.873e+04 8.524e-08
 84.28508     87.2 2.056e+04 1.455e-07
 84.29016     81.6 2.076e+04 5.660e-07
 84.29593     77.3 1.855e+04 2.225e-06
 84.30101     75.6 1.821e+04 2.643e-06
 84.30618     73.9 1.705e+04 6.627e-06
 84.31632     73.1 1.701e+04 6.788e-06
 84.32647     71.9 1.757e+04 4.404e-06
 84.33470     67.7 1.916e+04 1.914e-06
 84.33977     70.0 1.806e+04 3.206e-06
 84.34677     64.5 2.055e+04 9.018e-07
 84.35691     56.9 2.207e+04 2.651e-07
 84.36706     51.9 2.031e+04 1.317e-07
 84.37347     48.3 1.895e+04 8.120e-08
 84.37854     49.1 1.983e+04 5.022e-08
 84.38736     46.8 1.875e+04 3.823e-08
 84.39750     42.1 1.743e+04 2.234e-08
 84.40721     37.4 1.616e+04 2.040e-08
 84.41740     35.4 1.296e+04 1.573e-08
 84.43312     30.7 1.105e+04 1.255e-08
 84.44369     28.8 1.064e+04 1.012e-08
 84.45384     29.0 1.098e+04 1.256e-08
 84.47371     27.7 1.096e+04 1.156e-08
 84.48479     24.5 1.189e+04 1.194e-08
 84.49493     25.9 1.201e+04 1.297e-08
 84.51430     18.0 1.505e+04 2.455e-08
 84.52947     14.3 1.562e+04 3.613e-08
 84.53957     12.6 1.591e+04 4.816e-08
 84.54972     11.3 1.585e+04 8.018e-08
 84.55715     11.1 1.606e+04 9.987e-08
 84.56222     11.2 1.614e+04 1.042e-07
 84.57001     12.1 1.640e+04 1.212e-07
 84.58016     12.2 1.633e+04 1.053e-07
 84.59543     11.8 1.609e+04 7.271e-08
 84.61578      7.3 1.476e+04 2.346e-08
 84.62970      1.9 1.153e+04 1.015e-08
 84.63985      0.9 1.099e+04 9.740e-09
 84.65637      0.2 1.024e+04 7.962e-09
 84.67666      0.9 1.013e+04 7.245e-09
 84.69696      1.2 1.003e+04 6.588e-09
 84.70723      1.6 9.980e+03 6.178e-09
 84.71738      1.6 9.842e+03 5.730e-09
 84.73755      2.1 9.834e+03 5.461e-09
 84.75056      2.6 9.827e+03 5.354e-09
 84.76070      1.5 9.716e+03 5.364e-09
 84.78838      3.0 9.829e+03 5.579e-09
 84.82907      3.6 1.048e+04 8.083e-09
 84.85225      4.2 1.091e+04 1.016e-08
 84.86230      4.6 1.084e+04 1.021e-08
 84.87961      4.4 1.163e+04 1.392e-08
 84.89991      3.8 1.280e+04 2.074e-08
 84.91953      1.8 1.437e+04 3.788e-08
 84.92968      2.2 1.428e+04 4.005e-08
 84.94050      1.1 1.577e+04 7.250e-08
 84.96079      0.3 1.676e+04 1.052e-07
 84.98109     -1.2 1.702e+04 1.144e-07
 84.99706     -3.0 1.652e+04 9.472e-08
 85.00721     -2.9 1.656e+04 9.261e-08
 85.02168     -4.5 1.528e+04 5.636e-08
 85.04198     -5.7 1.407e+04 3.345e-08
 85.05742     -6.6 1.321e+04 1.995e-08
 85.06757     -8.1 1.160e+04 9.737e-09
 85.07460     -9.7 1.056e+04 5.782e-09
 85.08474    -10.7 9.468e+03 5.131e-09
 85.10286    -10.9 9.100e+03 4.245e-09
 85.12316    -10.9 8.924e+03 3.712e-09
 85.14198    -10.8 8.927e+03 3.600e-09
 85.15213    -10.6 8.927e+03 3.619e-09
 85.16375    -12.0 1.004e+04 3.952e-09
 85.18404    -19.8 1.442e+04 9.993e-09
 85.20434    -23.8 1.562e+04 5.180e-08
 85.21951    -23.8 1.656e+04 1.663e-07
 85.22966    -23.7 1.643e+04 1.516e-07
 85.24493    -23.3 1.686e+04 2.038e-07
 85.26522    -23.8 1.666e+04 1.740e-07
 85.28552    -26.0 1.530e+04 5.949e-08
 85.29704    -30.9 1.273e+04 1.491e-08
 85.30719    -31.9 1.197e+04 1.232e-08
 85.32611    -34.5 1.062e+04 7.536e-09
 85.34640    -34.8 1.026e+04 6.405e-09
 85.36429    -34.7 1.018e+04 5.811e-09
 85.37216    -34.8 1.032e+04 6.770e-09
 85.37457    -34.5 1.031e+04 6.625e-09
 85.38700    -34.3 1.028e+04 6.117e-09
 85.40729    -34.1 1.027e+04 5.742e-09
 85.42759    -33.8 1.028e+04 5.496e-09
 85.44196    -33.7 1.027e+04 5.275e-09
 85.45210    -33.7 1.022e+04 4.953e-09
 85.46818    -33.7 1.023e+04 4.878e-09
 85.48847    -33.8 1.031e+04 5.008e-09
 85.50877    -34.0 1.044e+04 5.601e-09
 85.51949    -34.1 1.058e+04 6.497e-09
 85.52964    -34.3 1.060e+04 6.715e-09
 85.54936    -34.5 1.079e+04 7.808e-09
 85.56965    -34.8 1.093e+04 8.724e-09
 85.58687    -35.1 1.095e+04 9.051e-09
 85.59702    -35.5 1.094e+04 9.039e-09
 85.61024    -35.9 1.093e+04 9.064e-09
 85.63054    -36.1 1.085e+04 8.753e-09
 85.65083    -36.5 1.067e+04 7.868e-09
 85.68137    -36.8 1.039e+04 6.561e-09
 85.72184    -36.8 9.925e+03 4.338e-09
 85.74213    -38.2 9.528e+03 2.913e-09
 85.76265    -37.9 9.200e+03 1.774e-09
 85.80324    -37.4 9.020e+03 1.016e-09
 85.84383    -37.0 8.895e+03 5.956e-10
 85.87690    -36.9 8.730e+03 4.760e-10
 85.89719    -38.1 8.548e+03 4.569e-10
 85.92502    -37.3 8.552e+03 4.498e-10
 85.96561    -36.3 8.620e+03 4.482e-10
 85.98836    -35.3 8.837e+03 4.674e-10
 86.00866    -35.8 8.983e+03 5.457e-10
 86.03196    -35.2 9.115e+03 7.405e-10
 86.05226    -35.4 9.010e+03 8.242e-10
 86.08738    -34.9 9.268e+03 1.221e-09
 86.12797    -34.6 9.674e+03 2.071e-09
 86.16673    -34.3 1.027e+04 3.750e-09
 86.18702    -34.8 9.872e+03 2.249e-09
 86.20915    -34.8 1.023e+04 3.069e-09
 86.24974    -34.9 1.047e+04 3.427e-09
 86.29033    -35.6 1.052e+04 3.425e-09
 86.32179    -36.1 1.056e+04 3.207e-09
 86.34209    -36.6 1.004e+04 1.858e-09
 86.37151    -36.9 1.017e+04 2.027e-09
 86.41210    -37.2 1.041e+04 2.830e-09
 86.45269    -37.1 1.067e+04 4.065e-09
 86.47685    -37.0 1.094e+04 4.830e-09
 86.49715    -36.7 1.058e+04 2.811e-09
 86.53387    -36.9 1.069e+04 2.775e-09
 86.57446    -37.4 1.061e+04 2.660e-09
 86.60210    -38.1 1.082e+04 3.403e-09
 86.61896    -38.6 1.117e+04 3.185e-09
 86.63192    -37.9 1.110e+04 3.191e-09
 86.65564    -38.8 1.158e+04 5.294e-09
 86.69624    -39.6 1.197e+04 8.883e-09
 86.73683    -40.4 1.221e+04 1.229e-08
 86.76668    -41.2 1.221e+04 1.403e-08
 86.78698    -40.8 1.238e+04 1.440e-08
 86.81801    -41.5 1.240e+04 1.525e-08
 86.85860    -41.7 1.206e+04 1.417e-08
 86.89919    -41.7 1.163e+04 9.955e-09
 86.92165    -41.1 1.127e+04 7.200e-09
 86.93170    -40.9 1.135e+04 7.547e-09
 86.94973    -40.9 1.131e+04 6.048e-09
 86.97003    -40.9 1.125e+04 4.817e-09
 86.98894    -40.8 1.124e+04 4.366e-09
 86.99908    -40.8 1.144e+04 4.892e-09
 87.01062    -40.6 1.143e+04 4.864e-09
 87.03091    -40.4 1.134e+04 5.226e-09
 87.05121    -40.1 1.119e+04 5.925e-09
 87.06647    -39.7 1.108e+04 6.736e-09
 87.07662    -39.8 1.131e+04 8.987e-09
 87.09180    -39.2 1.136e+04 1.001e-08
 87.11209    -38.7 1.147e+04 1.078e-08
 87.13239    -38.3 1.161e+04 1.134e-08
 87.14400    -38.0 1.176e+04 1.170e-08
 87.15415    -38.2 1.209e+04 1.291e-08
 87.18322    -37.8 1.193e+04 1.233e-08
 87.21158    -37.3 1.200e+04 1.258e-08
 87.22379    -38.3 1.236e+04 1.282e-08
 87.23612    -39.1 1.246e+04 1.465e-08
 87.26450    -39.5 1.232e+04 1.218e-08
 87.30509    -40.4 1.232e+04 1.050e-08
 87.34568    -41.5 1.220e+04 8.692e-09
 87.36664    -41.9 1.207e+04 7.031e-09
 87.38694    -42.6 1.220e+04 7.291e-09
 87.42686    -42.7 1.194e+04 5.254e-09
 87.46746    -42.6 1.173e+04 3.618e-09
 87.50141    -42.4 1.159e+04 2.677e-09
 87.52170    -43.4 1.176e+04 2.829e-09
 87.54864    -43.2 1.178e+04 2.660e-09
 87.58923    -42.5 1.177e+04 2.847e-09
 87.62982    -41.9 1.170e+04 3.324e-09
 87.65647    -41.3 1.158e+04 3.665e-09
 87.67677    -42.6 1.151e+04 3.619e-09
 87.71100    -41.8 1.130e+04 2.974e-09
 87.75159    -40.5 1.112e+04 2.119e-09
 87.79124    -39.0 1.104e+04 1.419e-09
 87.81153    -39.6 1.093e+04 9.479e-10
 87.82956    -37.9 1.099e+04 6.456e-10
 87.84986    -37.3 1.101e+04 5.143e-10
 87.87336    -35.5 1.085e+04 4.189e-10
 87.91395    -33.5 1.080e+04 4.038e-10
 87.94630    -31.3 1.075e+04 4.312e-10
 87.96660    -31.1 1.054e+04 4.262e-10
 87.99513    -29.0 1.046e+04 5.552e-10
 88.03572    -26.6 1.039e+04 7.262e-10
 88.07631    -24.2 1.036e+04 8.739e-10
 88.10136    -21.9 1.033e+04 9.339e-10
 88.12166    -21.5 1.031e+04 9.393e-10
 88.15749    -19.3 1.027e+04 9.474e-10
 88.19808    -17.0 1.004e+04 8.662e-10
 88.23613    -14.7 9.889e+03 6.977e-10
 88.25643    -14.4 9.964e+03 7.732e-10
 88.27927    -12.3 9.836e+03 6.418e-10
 88.31986    -10.2 9.739e+03 5.498e-10
 88.36045     -8.2 9.585e+03 5.116e-10
 88.39120     -6.1 9.467e+03 5.057e-10
 88.41149     -5.5 9.551e+03 6.797e-10
 88.44163     -3.5 9.509e+03 6.954e-10
 88.46359     -2.0 9.547e+03 7.763e-10
 88.48388     -2.0 9.536e+03 7.953e-10
 88.52281     -1.1 9.363e+03 1.253e-09
 88.54626      0.1 9.320e+03 2.207e-09
 88.56655      0.3 9.496e+03 3.294e-09
 88.60399      1.5 9.566e+03 4.343e-09
 88.64458      2.2 9.502e+03 4.484e-09
 88.68103      2.7 9.274e+03 3.622e-09
 88.70132      2.4 9.071e+03 2.775e-09
 88.72576      2.4 8.723e+03 2.143e-09
 88.76635      2.9 8.578e+03 2.070e-09
 88.80694      3.6 8.438e+03 2.430e-09
 88.83609      4.7 8.389e+03 2.797e-09
 88.85638      4.7 8.363e+03 2.932e-09
 88.88812      5.9 8.309e+03 3.045e-09
 88.92871      7.2 7.996e+03 2.582e-09
 88.96930      8.2 7.725e+03 1.976e-09
 88.99115      8.9 7.628e+03 1.824e-09
 89.01145      8.8 7.759e+03 2.079e-09
 89.05049      9.5 7.757e+03 2.273e-09
 89.07732     10.1 7.979e+03 2.977e-09
 89.08737      9.9 8.433e+03 4.208e-09
 89.10103      9.8 8.435e+03 4.263e-09
 89.12132     10.0 8.706e+03 4.947e-09
 89.13587      9.3 8.848e+03 5.487e-09
 89.14602      9.4 8.872e+03 5.516e-09
 89.16191      9.0 9.036e+03 6.226e-09
 89.18221      8.5 9.100e+03 6.589e-09
 89.20250      8.0 9.022e+03 6.575e-09
 89.21340      8.0 8.794e+03 5.926e-09
 89.22355      8.0 8.841e+03 5.953e-09
 89.24310      7.8 8.446e+03 4.653e-09
 89.26339      7.7 8.132e+03 3.624e-09
 89.28079      7.0 7.830e+03 2.935e-09
 89.29093      7.1 7.903e+03 3.064e-09
 89.30398      6.9 7.877e+03 2.950e-09
 89.32428      6.4 7.834e+03 2.907e-09
 89.34457      6.0 8.111e+03 3.609e-09
 89.35832      5.7 8.428e+03 4.742e-09
 89.36847      5.5 8.687e+03 5.475e-09
 89.38399      5.4 9.158e+03 7.405e-09
 89.39414      5.2 9.632e+03 9.070e-09
 89.40546      5.7 1.001e+04 1.106e-08
 89.42570      6.1 1.026e+04 1.238e-08
 89.44600      5.7 1.055e+04 1.385e-08
 89.46634      5.8 1.034e+04 1.244e-08
 89.48664      5.8 1.013e+04 1.082e-08
 89.50323      5.8 9.938e+03 9.154e-09
 89.51338      4.8 9.740e+03 8.050e-09
 89.52723      4.4 9.376e+03 6.399e-09
 89.54752      4.3 9.263e+03 5.575e-09
 89.56782      3.9 9.113e+03 5.182e-09
 89.58076      4.1 9.171e+03 5.238e-09
 89.59101      2.5 8.546e+03 3.526e-09
 89.60851      2.8 9.026e+03 4.775e-09
 89.62871      2.7 9.222e+03 5.415e-09
 89.65925      2.1 9.228e+03 5.572e-09
 89.68969      2.1 9.447e+03 6.391e-09
 89.70101      1.6 9.623e+03 6.701e-09
 89.71115      1.2 1.010e+04 8.434e-09
 89.72568     -1.3 1.081e+04 1.052e-08
 89.73583     -1.8 1.059e+04 8.350e-09
 89.75048     -5.6 1.164e+04 1.564e-08
 89.77077     -7.5 1.242e+04 2.562e-08
 89.79107     -8.3 1.324e+04 3.260e-08
 89.80321     -9.2 1.372e+04 3.344e-08
 89.80824     -9.1 1.456e+04 4.680e-08
 89.81634    -10.0 1.486e+04 4.569e-08
 89.82649    -12.9 1.523e+04 3.857e-08
 89.83663    -15.9 1.590e+04 3.814e-08
 89.84188    -21.3 1.600e+04 3.799e-08
 89.84695    -24.0 1.668e+04 6.935e-08
 89.85434    -26.8 1.682e+04 9.895e-08
 89.85942    -27.6 1.689e+04 1.064e-07
 89.86708    -28.5 1.692e+04 1.528e-07
 89.87557    -28.6 1.743e+04 2.218e-07
 89.88065    -28.2 1.755e+04 2.644e-07
 89.88737    -28.8 1.787e+04 3.064e-07
 89.89752    -29.4 1.812e+04 3.427e-07
 89.90767    -30.6 1.843e+04 3.137e-07
 89.91434    -32.3 1.827e+04 2.330e-07
 89.91941    -32.6 1.786e+04 1.368e-07
 89.92796    -35.1 1.710e+04 8.565e-08
 89.93811    -37.6 1.611e+04 6.048e-08
 89.94808    -39.7 1.510e+04 4.629e-08
 89.95827    -41.6 1.335e+04 2.766e-08
 89.97372    -44.0 1.237e+04 1.978e-08
 89.99402    -45.7 1.210e+04 1.634e-08
 90.00787    -46.7 1.201e+04 1.564e-08
 90.01802    -45.2 9.982e+03 9.683e-09
 90.02566    -45.5 1.003e+04 9.695e-09
 90.03581    -46.0 1.009e+04 9.948e-09
 90.05491    -46.2 1.037e+04 1.062e-08
 90.07520    -46.2 1.071e+04 1.189e-08
 90.09304    -45.8 1.100e+04 1.367e-08
 90.10319    -46.4 1.094e+04 1.394e-08
 90.11579    -45.7 1.119e+04 1.584e-08
 90.13609    -44.7 1.134e+04 1.804e-08
 90.15638    -43.5 1.145e+04 2.005e-08
 90.17057    -42.3 1.170e+04 2.208e-08
 90.18072    -43.6 1.123e+04 1.652e-08
 90.19697    -43.0 1.164e+04 1.746e-08
 90.21727    -43.0 1.262e+04 1.995e-08
 90.23756    -43.1 1.400e+04 2.520e-08
 90.24810    -43.1 1.521e+04 3.520e-08
 90.25825    -45.1 1.417e+04 2.186e-08
 90.27815    -44.6 1.530e+04 3.135e-08
 90.29845    -43.9 1.612e+04 4.909e-08
 90.31474    -43.5 1.693e+04 8.180e-08
 90.32163    -43.9 1.730e+04 2.205e-08
 90.32564    -47.6 1.367e+04 1.441e-08
 90.33904    -50.6 1.697e+04 2.787e-08
 90.35933    -53.6 1.901e+04 5.965e-08
 90.37451    -55.9 1.884e+04 1.196e-07
 90.38461    -57.8 1.906e+04 1.595e-07
 90.39292    -60.2 1.933e+04 2.058e-07
 90.39800    -61.2 1.819e+04 1.693e-07
 90.40490    -63.4 1.827e+04 1.798e-07
 90.41505    -66.1 1.832e+04 1.799e-07
 90.42520    -68.7 1.849e+04 1.661e-07
 90.43169    -71.4 1.855e+04 1.620e-07
 90.43676    -70.6 1.774e+04 1.131e-07
 90.44549    -72.8 1.731e+04 9.110e-08
 90.46035    -75.3 1.644e+04 7.145e-08
 90.47055    -74.0 1.411e+04 2.748e-08
 90.48111    -75.8 1.287e+04 2.109e-08
 90.50140    -75.9 1.230e+04 1.863e-08
 90.52170    -75.5 1.181e+04 1.622e-08
 90.53794    -74.5 1.130e+04 1.381e-08
 90.54808    -74.3 1.015e+04 7.009e-09
 90.56229    -73.6 9.891e+03 6.434e-09
 90.58258    -72.8 9.724e+03 6.025e-09
 90.60288    -72.0 9.667e+03 5.893e-09
 90.61547    -71.3 9.796e+03 6.083e-09
 90.63586    -70.2 9.210e+03 4.319e-09
 90.67411    -68.7 9.421e+03 4.357e-09
 90.71470    -67.4 9.951e+03 5.076e-09
 90.75043    -66.3 1.042e+04 5.963e-09
 90.77072    -65.1 9.878e+03 4.773e-09
 90.79588    -63.8 1.038e+04 6.032e-09
 90.83647    -62.4 1.074e+04 6.862e-09
 90.87706    -61.0 1.085e+04 7.033e-09
 90.90549    -59.6 1.091e+04 6.710e-09
 90.92579    -58.6 1.076e+04 6.655e-09
 90.93882    -57.0 1.089e+04 6.150e-09
 90.95911    -57.8 1.079e+04 7.438e-09
 90.99883    -56.8 1.100e+04 8.348e-09
 91.03942    -56.1 1.148e+04 1.116e-08
 91.06046    -55.1 1.195e+04 1.474e-08
 91.07051    -54.5 1.197e+04 1.428e-08
 91.08996    -54.4 1.247e+04 1.969e-08
 91.11026    -54.3 1.317e+04 2.927e-08
 91.12774    -54.0 1.396e+04 4.277e-08
 91.13789    -53.4 1.394e+04 3.950e-08
 91.15085    -52.9 1.468e+04 4.994e-08
 91.17115    -52.5 1.498e+04 5.332e-08
 91.19144    -52.3 1.506e+04 5.098e-08
 91.20528    -52.2 1.495e+04 4.058e-08
 91.21542    -52.0 1.511e+04 4.493e-08
 91.23203    -52.2 1.481e+04 3.633e-08
 91.24549    -52.4 1.449e+04 3.161e-08
 91.25563    -53.7 1.266e+04 1.331e-08
 91.27262    -53.7 1.254e+04 1.222e-08
 91.29292    -53.2 1.264e+04 1.358e-08
 91.31321    -53.6 1.265e+04 1.281e-08
 91.33351    -55.7 1.303e+04 1.285e-08
 91.35019    -61.3 1.544e+04 1.754e-08
 91.36034    -63.5 1.635e+04 4.156e-08
 91.37410    -67.2 1.744e+04 1.036e-07
 91.38891    -68.8 1.791e+04 1.913e-07
 91.39393    -69.1 1.811e+04 2.341e-07
 91.39882    -69.6 1.829e+04 3.331e-07
 91.40390    -69.3 1.831e+04 2.357e-07
 91.40952    -70.0 1.846e+04 3.077e-07
 91.41966    -70.7 1.847e+04 3.349e-07
 91.42762    -71.5 1.831e+04 3.282e-07
 91.43270    -71.7 1.787e+04 2.069e-07
 91.43996    -72.3 1.716e+04 1.475e-07
 91.45011    -72.8 1.637e+04 1.029e-07
 91.46025    -73.1 1.562e+04 7.265e-08
 91.47553    -73.3 1.464e+04 4.577e-08
 91.49511    -73.5 1.283e+04 1.964e-08
 91.50525    -75.1 1.182e+04 8.077e-09
 91.51616    -74.5 1.128e+04 6.439e-09
 91.53646    -73.2 1.100e+04 5.253e-09
 91.55235    -71.8 1.087e+04 4.404e-09
 91.56250    -72.2 1.109e+04 5.876e-09
 91.57264    -70.9 1.091e+04 5.003e-09
 91.58278    -71.2 1.066e+04 4.798e-09
 91.59735    -69.7 1.049e+04 4.148e-09
 91.61764    -68.2 1.037e+04 3.540e-09
 91.63794    -66.7 1.031e+04 3.009e-09
 91.65017    -65.2 1.033e+04 2.713e-09
 91.66032    -65.2 1.031e+04 2.756e-09
 91.68877    -63.5 1.039e+04 2.741e-09
 91.72946    -61.4 1.031e+04 2.423e-09
 91.77005    -58.7 1.015e+04 2.025e-09
 91.79528    -56.2 1.012e+04 1.731e-09
 91.81557    -56.1 1.023e+04 1.988e-09
 91.85123    -53.6 1.030e+04 1.778e-09
 91.89182    -51.4 1.037e+04 1.720e-09
 91.93005    -49.3 1.063e+04 1.724e-09
 91.95034    -49.1 1.088e+04 1.818e-09
 91.97300    -47.1 1.114e+04 1.867e-09
 92.01359    -45.2 1.142e+04 1.941e-09
 92.05418    -43.5 1.166e+04 2.006e-09
 92.08511    -41.8 1.182e+04 2.115e-09
 92.10531    -42.0 1.209e+04 2.280e-09
 92.12502    -41.0 1.219e+04 2.387e-09
 92.14532    -40.4 1.227e+04 2.471e-09
 92.16245    -39.5 1.240e+04 2.642e-09
 92.17259    -40.4 1.239e+04 3.678e-09
 92.17623    -39.8 1.238e+04 4.437e-09
 92.18638    -39.6 1.220e+04 3.797e-09
 92.20620    -38.8 1.222e+04 4.225e-09
 92.22650    -37.9 1.217e+04 4.598e-09
 92.23998    -37.0 1.209e+04 5.002e-09
 92.25012    -37.5 1.187e+04 5.744e-09
 92.26709    -36.4 1.189e+04 5.208e-09
 92.28738    -35.5 1.186e+04 4.869e-09
 92.30736    -34.7 1.188e+04 4.495e-09
 92.31751    -35.2 1.175e+04 3.833e-09
 92.32798    -34.3 1.178e+04 3.619e-09
 92.34827    -33.4 1.183e+04 3.587e-09
 92.36857    -32.8 1.202e+04 3.687e-09
 92.38489    -32.3 1.199e+04 4.113e-09
 92.39504    -33.1 1.194e+04 3.718e-09
 92.40916    -32.8 1.193e+04 4.800e-09
 92.42945    -32.6 1.200e+04 6.645e-09
 92.44975    -32.5 1.217e+04 9.311e-09
 92.46242    -32.3 1.238e+04 1.263e-08
 92.47257    -33.9 1.261e+04 1.673e-08
 92.48310    -33.3 1.263e+04 1.863e-08
 92.49325    -32.7 1.290e+04 2.158e-08
 92.51063    -32.0 1.292e+04 2.337e-08
 92.52981    -31.2 1.262e+04 2.150e-08
 92.53996    -32.6 1.259e+04 1.773e-08
 92.55122    -32.7 1.259e+04 1.400e-08
 92.57152    -33.2 1.267e+04 1.206e-08
 92.59181    -33.8 1.263e+04 1.129e-08
 92.60734    -34.0 1.261e+04 1.116e-08
 92.61749    -35.7 1.250e+04 1.679e-08
 92.63240    -35.1 1.247e+04 1.749e-08
 92.65270    -34.4 1.250e+04 1.801e-08
 92.67299    -33.9 1.257e+04 1.906e-08
 92.68487    -33.5 1.275e+04 2.037e-08
 92.69502    -34.3 1.288e+04 2.003e-08
 92.71359    -33.7 1.303e+04 2.054e-08
 92.73388    -33.1 1.316e+04 2.073e-08
 92.75225    -32.3 1.317e+04 1.890e-08
 92.76240    -33.3 1.270e+04 1.378e-08
 92.77447    -32.9 1.242e+04 1.136e-08
 92.78997    -32.2 1.219e+04 9.528e-09
 92.80011    -32.2 1.198e+04 8.436e-09
 92.81974    -30.9 1.202e+04 6.772e-09
 92.84013    -31.7 1.122e+04 4.943e-09
 92.86599    -29.6 1.104e+04 3.365e-09
 92.90659    -27.2 1.103e+04 2.256e-09
 92.94718    -24.5 1.101e+04 1.740e-09
 92.97490    -21.8 1.094e+04 1.510e-09
 92.99519    -22.2 1.079e+04 1.740e-09
 93.02836    -19.3 1.090e+04 1.516e-09
 93.06895    -16.3 1.102e+04 1.418e-09
 93.10954    -13.3 1.103e+04 1.333e-09
 93.15013    -11.0 1.026e+04 2.134e-09
 93.19072     -8.1 1.016e+04 2.111e-09
 93.23131     -5.4 1.022e+04 2.294e-09
 93.26473     -3.4 1.030e+04 3.275e-09
 93.28502     -4.4 1.032e+04 4.060e-09
 93.31249     -1.2 1.051e+04 8.059e-09
 93.35308      1.5 1.057e+04 9.746e-09
 93.39367      4.3 1.060e+04 6.098e-09
 93.41979      6.2 1.043e+04 6.539e-09
 93.44008      5.6 9.910e+03 5.192e-09
 93.47485      7.4 9.612e+03 4.289e-09
 93.51544      9.4 9.288e+03 3.669e-09
 93.55456     11.6 8.971e+03 3.129e-09
 93.57485     11.6 8.844e+03 2.125e-09
 93.59662     13.7 8.750e+03 1.740e-09
 93.63721     15.7 8.454e+03 1.676e-09
 93.67781     17.7 8.349e+03 1.803e-09
 93.70962     19.8 8.271e+03 2.155e-09
 93.72992     19.8 8.396e+03 1.988e-09
 93.75899     21.9 8.426e+03 2.514e-09
 93.79958     23.8 8.609e+03 3.122e-09
 93.84017     25.3 9.010e+03 4.378e-09
 93.86468     26.4 9.633e+03 7.067e-09
 93.88498     25.8 9.234e+03 5.746e-09
 93.92135     27.2 9.598e+03 8.334e-09
 93.96194     28.4 9.590e+03 8.666e-09
 93.99945     30.0 9.333e+03 7.627e-09
 94.01975     29.8 8.442e+03 4.694e-09
 94.02777     30.5 8.053e+03 3.292e-09
 94.04807     31.7 7.781e+03 3.051e-09
 94.08371     32.1 7.422e+03 2.385e-09
 94.12430     32.8 7.386e+03 2.401e-09
 94.15451     33.8 7.371e+03 2.560e-09
 94.17481     33.9 7.030e+03 1.786e-09
 94.20548     35.0 7.015e+03 1.804e-09
 94.24607     36.0 6.974e+03 1.779e-09
 94.28666     36.9 7.006e+03 1.806e-09
 94.30958     37.6 7.212e+03 2.038e-09
 94.32987     37.6 7.085e+03 1.769e-09
 94.36784     38.3 7.591e+03 2.601e-09
 94.40843     38.4 7.978e+03 3.329e-09
 94.43878     38.4 8.261e+03 3.867e-09
 94.45430     38.2 8.556e+03 4.436e-09
 94.46444     38.4 8.452e+03 4.475e-09
 94.47927     38.1 8.819e+03 5.268e-09
 94.49957     36.4 9.826e+03 7.582e-09
 94.51986     32.2 1.172e+04 1.780e-08
 94.53183     29.9 1.409e+04 5.213e-08
 94.54198     30.1 1.388e+04 4.852e-08
 94.56045     29.5 1.497e+04 8.789e-08
 94.58075     29.5 1.484e+04 8.463e-08
 94.59921     29.5 1.402e+04 5.810e-08
 94.60936     29.1 1.360e+04 4.376e-08
 94.62134     25.7 1.264e+04 2.999e-08
 94.64131     22.6 1.184e+04 2.811e-08
 94.65146     22.1 1.182e+04 2.874e-08
 94.66193     20.9 1.170e+04 2.969e-08
 94.67674     21.0 1.168e+04 2.964e-08
 94.68689     21.7 1.179e+04 2.528e-08
 94.70252     22.1 1.151e+04 2.206e-08
 94.72282     21.8 1.109e+04 1.673e-08
 94.74311     20.8 1.082e+04 1.246e-08
 94.75427     19.9 1.050e+04 9.845e-09
 94.77467     19.5 9.916e+03 5.981e-09
 94.81434     20.2 9.652e+03 4.898e-09
 94.84469     21.6 8.643e+03 2.898e-09
 94.86488     21.6 9.642e+03 2.810e-09
 94.88518     22.3 1.113e+04 2.968e-09
 94.89919     21.6 1.895e+04 4.691e-09
 94.90943     21.5 8.904e+03 2.395e-09
 94.92587     19.9 1.347e+04 3.412e-09
 94.94606     14.5 2.362e+04 7.240e-09
 94.95828     10.1 2.858e+04 1.111e-08
 94.96330     10.4 2.930e+04 1.602e-08
 94.97134      7.6 2.907e+04 3.037e-08
 94.97662      6.8 2.783e+04 6.594e-08
 94.98682      8.9 2.493e+04 1.155e-08
 95.00695     -2.8 2.148e+04 5.105e-08
 95.02724     -8.8 1.908e+04 1.478e-07
 95.04410    -11.8 1.810e+04 1.478e-07
 95.05425     -7.5 1.681e+04 8.541e-08
 95.06784    -10.3 1.605e+04 6.813e-08
 95.08813    -12.0 1.443e+04 2.943e-08
 95.10843    -14.3 1.233e+04 1.280e-08
 95.12164    -14.9 1.132e+04 9.674e-09
 95.13178    -13.8 1.119e+04 8.788e-09
 95.14902    -13.7 1.089e+04 7.949e-09
 95.16931    -13.2 1.091e+04 7.970e-09
 95.18902    -13.2 1.100e+04 8.230e-09
 95.19927    -13.5 1.043e+04 5.275e-09
 95.21000    -14.2 1.066e+04 6.336e-09
 95.23020    -15.5 1.102e+04 8.644e-09
 95.25049    -16.6 1.136e+04 1.298e-08
 95.26519    -16.9 1.160e+04 1.700e-08
 95.27544    -15.6 1.075e+04 9.265e-09
 95.29118    -16.6 1.090e+04 1.270e-08
 95.31138    -17.1 1.104e+04 1.385e-08
 95.33167    -17.7 1.107e+04 1.363e-08
 95.34408    -18.3 1.103e+04 1.324e-08
 95.35433    -16.9 1.067e+04 1.111e-08
 95.38261    -18.3 1.069e+04 1.088e-08
 95.41156    -19.3 1.061e+04 1.044e-08
 95.42161    -18.7 1.070e+04 1.129e-08
 95.43315    -19.1 1.076e+04 1.099e-08
 95.45345    -19.9 1.032e+04 8.939e-09
 95.47374    -20.3 1.007e+04 7.583e-09
 95.48900    -21.5 9.683e+03 6.111e-09
 95.49915    -21.4 9.787e+03 6.490e-09
 95.51433    -22.8 9.585e+03 5.415e-09
 95.53463    -24.8 9.483e+03 4.942e-09
 95.55492    -27.4 9.579e+03 4.922e-09
 95.56653    -31.6 1.018e+04 6.021e-09
 95.57352    -32.4 1.002e+04 6.218e-09
 95.58220    -32.1 9.809e+03 5.401e-09
 95.59551    -34.8 1.030e+04 8.234e-09
 95.61581    -36.8 1.084e+04 1.247e-08
 95.63391    -37.8 1.132e+04 1.724e-08
 95.64406    -37.5 1.090e+04 1.341e-08
 95.65640    -38.0 1.114e+04 1.497e-08
 95.67669    -38.3 1.120e+04 1.528e-08
 95.69699    -38.4 1.112e+04 1.425e-08
 95.71144    -38.4 1.088e+04 1.204e-08
 95.72159    -38.4 1.042e+04 9.442e-09
 95.73758    -38.2 1.028e+04 8.718e-09
 95.75787    -37.5 1.013e+04 7.935e-09
 95.77817    -36.7 1.005e+04 7.158e-09
 95.78898    -35.7 1.002e+04 6.519e-09
 95.79912    -35.8 9.908e+03 5.975e-09
 95.81876    -34.9 9.951e+03 5.961e-09
 95.83906    -34.2 1.008e+04 6.161e-09
 95.85636    -33.7 1.029e+04 6.564e-09
 95.86651    -33.8 1.008e+04 6.230e-09
 95.87892    -33.5 1.029e+04 6.687e-09
 95.88907    -33.4 1.006e+04 5.759e-09
 95.89994    -33.4 1.034e+04 6.950e-09
 95.92024    -33.5 1.079e+04 9.090e-09
 95.93389    -34.0 1.180e+04 1.241e-08
 95.94404    -34.3 1.082e+04 8.589e-09
 95.96083    -35.3 1.161e+04 1.071e-08
 95.98112    -36.6 1.240e+04 1.490e-08
 96.00128    -37.5 1.293e+04 2.114e-08
 96.01142    -37.3 1.174e+04 1.234e-08
 96.02171    -37.8 1.206e+04 1.548e-08
 96.04201    -38.1 1.234e+04 1.758e-08
 96.06230    -38.4 1.244e+04 1.788e-08
 96.07881    -38.6 1.254e+04 1.707e-08
 96.08895    -38.0 1.191e+04 1.380e-08
 96.11314    -37.9 1.185e+04 1.260e-08
 96.15383    -37.5 1.189e+04 1.195e-08
 96.19442    -36.4 1.191e+04 1.162e-08
 96.22392    -35.1 1.208e+04 1.151e-08
 96.24421    -34.4 1.179e+04 1.017e-08
 96.27560    -33.2 1.199e+04 1.039e-08
 96.31619    -32.0 1.215e+04 9.874e-09
 96.35678    -30.5 1.224e+04 7.936e-09
 96.37898    -29.0 1.224e+04 6.089e-09
 96.39928    -28.8 1.195e+04 5.229e-09
 96.43796    -27.4 1.191e+04 4.381e-09
 96.47855    -26.0 1.180e+04 4.010e-09
 96.50300    -24.6 1.173e+04 3.847e-09
 96.51790    -24.9 1.180e+04 3.681e-09
 96.53404    -24.2 1.154e+04 2.816e-09
 96.55973    -22.7 1.150e+04 2.720e-09
 96.60032    -21.3 1.149e+04 2.549e-09
 96.64091    -20.0 1.150e+04 2.377e-09
 96.66881    -18.8 1.156e+04 2.141e-09
 96.68911    -17.8 1.143e+04 2.036e-09
 96.72209    -16.6 1.153e+04 1.965e-09
 96.76269    -15.6 1.165e+04 1.732e-09
 96.80328    -14.7 1.171e+04 1.620e-09
 96.82387    -13.9 1.185e+04 1.629e-09
 96.84417    -12.9 1.179e+04 1.933e-09
 96.88446    -12.1 1.183e+04 2.252e-09
 96.92505    -11.1 1.188e+04 2.321e-09
 96.95864    -10.2 1.199e+04 2.002e-09
 96.97894     -9.4 1.197e+04 2.130e-09
 97.00623     -8.5 1.201e+04 1.698e-09
 97.04682     -7.5 1.204e+04 1.618e-09
 97.08741     -6.3 1.215e+04 1.841e-09
 97.11370     -4.7 1.220e+04 2.255e-09
 97.12273     -3.9 1.220e+04 2.342e-09
 97.13703     -4.0 1.229e+04 2.317e-09
 97.16859     -2.2 1.235e+04 2.311e-09
 97.20918     -0.4 1.253e+04 2.076e-09
 97.24847      1.2 1.264e+04 1.981e-09
 97.26877      2.3 1.261e+04 1.734e-09
 97.29036      4.1 1.273e+04 1.742e-09
 97.33095      5.8 1.262e+04 2.099e-09
 97.37154      7.6 1.251e+04 2.547e-09
 97.40353      9.5 1.240e+04 2.720e-09
 97.42383     10.7 1.250e+04 3.137e-09
 97.45272     12.6 1.236e+04 3.362e-09
 97.49331     14.5 1.235e+04 2.575e-09
 97.53391     16.5 1.230e+04 1.792e-09
 97.55860     18.3 1.234e+04 1.357e-09
 97.57889     19.7 1.243e+04 1.550e-09
 97.61509     21.3 1.244e+04 1.227e-09
 97.65568     23.3 1.242e+04 1.041e-09
 97.69336     25.5 1.233e+04 9.466e-10
 97.71366     26.7 1.236e+04 9.410e-10
 97.73046     28.8 1.230e+04 1.003e-09
 97.75076     29.4 1.234e+04 8.203e-10
 97.77745     31.4 1.231e+04 9.752e-10
 97.81804     33.0 1.221e+04 1.644e-09
 97.84843     34.8 1.214e+04 3.522e-09
 97.86872     36.0 1.218e+04 3.625e-09
 97.89922     37.7 1.217e+04 6.349e-09
 97.93981     39.0 1.224e+04 5.144e-09
 97.98040     39.7 1.229e+04 3.384e-09
 98.00349     40.3 1.219e+04 2.531e-09
 98.02379     41.3 1.226e+04 2.461e-09
 98.06158     42.2 1.206e+04 2.224e-09
 98.10217     43.5 1.189e+04 1.989e-09
 98.13826     45.2 1.180e+04 1.478e-09
 98.15855     46.3 1.187e+04 1.906e-09
 98.18335     47.9 1.187e+04 1.244e-09
 98.22394     49.0 1.195e+04 8.125e-10
 98.26453     50.6 1.178e+04 7.607e-10
 98.29332     52.2 1.180e+04 8.233e-10
 98.31362     53.3 1.191e+04 1.189e-09
 98.34420     55.0 1.216e+04 1.546e-09
 98.36449     54.3 1.235e+04 2.147e-09
 98.37075     53.7 1.250e+04 3.022e-09
 98.38080     54.1 1.257e+04 2.963e-09
 98.39626     54.4 1.242e+04 4.146e-09
 98.41655     54.5 1.265e+04 6.753e-09
 98.43685     54.9 1.273e+04 8.035e-09
 98.44829     53.9 1.301e+04 8.561e-09
 98.46868     54.7 1.309e+04 8.877e-09
 98.50808     54.5 1.301e+04 7.196e-09
 98.54867     54.5 1.301e+04 3.802e-09
 98.58315     54.2 1.304e+04 2.608e-09
 98.60345     54.5 1.316e+04 2.571e-09
 98.62985     54.7 1.310e+04 2.804e-09
 98.67044     55.4 1.301e+04 3.926e-09
 98.71103     56.2 1.292e+04 4.500e-09
 98.73821     57.3 1.277e+04 4.079e-09
 98.75851     57.7 1.275e+04 3.842e-09
 98.79221     58.9 1.257e+04 2.987e-09
 98.83280     59.9 1.246e+04 2.145e-09
 98.87298     60.8 1.234e+04 1.702e-09
 98.89328     61.2 1.235e+04 1.635e-09
 98.91398     62.2 1.216e+04 1.415e-09
 98.95457     63.5 1.199e+04 1.262e-09
 98.97822     64.9 1.189e+04 1.039e-09
 98.99852     64.4 1.186e+04 1.090e-09
 99.02804     65.9 1.178e+04 8.210e-10
 99.04834     66.3 1.174e+04 7.813e-10
 99.07635     67.8 1.172e+04 5.689e-10
 99.11694     69.3 1.175e+04 4.512e-10
 99.15753     71.0 1.156e+04 4.315e-10
 99.18311     72.8 1.146e+04 4.322e-10
 99.20340     73.2 1.146e+04 4.358e-10
 99.23871     75.2 1.136e+04 4.379e-10
 99.27930     77.1 1.133e+04 4.425e-10
 99.31788     78.9 1.127e+04 4.608e-10
 99.33817     79.5 1.128e+04 4.669e-10
 99.36048     81.4 1.117e+04 5.294e-10
 99.40107     83.3 1.103e+04 6.683e-10
 99.44166     85.3 1.092e+04 8.582e-10
 99.47294     87.3 1.090e+04 1.021e-09
 99.49323     87.9 1.090e+04 1.026e-09
 99.52284     89.5 1.093e+04 1.051e-09
 99.56343     91.1 1.091e+04 1.024e-09
 99.59196     92.7 1.079e+04 9.784e-10
 99.61225     92.6 1.078e+04 8.163e-10
 99.62800     94.5 1.070e+04 8.107e-10
 99.64830     94.8 1.068e+04 8.185e-10
 99.68520     96.8 1.065e+04 8.675e-10
 99.72579     98.9 1.067e+04 1.100e-09
 99.76277    100.9 1.082e+04 1.473e-09
 99.78306    100.6 1.094e+04 1.761e-09
 99.79673    101.5 1.088e+04 1.939e-09
 99.81693    102.3 1.092e+04 2.304e-09
 99.83722    103.4 1.126e+04 3.256e-09
 99.85025    103.5 1.176e+04 5.552e-09
 99.86040    103.8 1.169e+04 5.176e-09
 99.87781    103.8 1.229e+04 9.219e-09
 99.89811    103.5 1.329e+04 2.033e-08
 99.90878    103.3 1.460e+04 4.762e-08
 99.91816    103.6 1.459e+04 4.575e-08
 99.92778    103.2 1.405e+04 3.026e-08
 99.93870    102.9 1.542e+04 6.764e-08
 99.95899    102.5 1.651e+04 1.193e-07
 99.97929    101.6 1.704e+04 1.481e-07
 99.99517    100.1 1.699e+04 1.308e-07
