# Columns:
#   distance along LOS (in CHIMPs)
#   peculiar velocity  (in km/s)
#   temperature (K)
#   HI number density
# pos=(153.592,128.173,28.8292), angles=(1.4127,6.18202)
  0.01275     33.2 1.000e+04 4.985e-10
  0.04538     33.4 1.004e+04 4.982e-10
  0.08514     33.3 1.009e+04 5.158e-10
  0.12490     33.3 1.015e+04 5.867e-10
  0.15736     33.3 1.015e+04 6.853e-10
  0.17724     33.7 1.009e+04 7.580e-10
  0.20442     33.9 1.009e+04 8.027e-10
  0.24417     34.3 1.004e+04 8.274e-10
  0.26748     34.9 1.003e+04 8.433e-10
  0.28736     34.5 9.914e+03 6.852e-10
  0.32369     35.3 9.919e+03 6.237e-10
  0.36345     36.3 9.961e+03 5.460e-10
  0.40069     37.3 1.000e+04 4.644e-10
  0.42057     37.6 9.980e+03 4.354e-10
  0.44297     38.6 9.926e+03 3.769e-10
  0.48273     39.7 9.888e+03 3.792e-10
  0.52249     40.8 9.867e+03 4.185e-10
  0.56225     42.1 9.839e+03 5.366e-10
  0.60201     43.5 9.856e+03 7.057e-10
  0.64177     44.7 9.960e+03 8.580e-10
  0.66212     45.6 1.009e+04 9.618e-10
  0.66438     45.1 1.011e+04 9.581e-10
  0.68379     45.5 1.008e+04 1.036e-09
  0.72128     45.8 1.025e+04 1.314e-09
  0.76104     45.7 1.035e+04 1.737e-09
  0.80080     45.5 1.046e+04 2.347e-09
  0.84056     44.9 1.075e+04 3.070e-09
  0.88032     42.5 1.138e+04 4.751e-09
  0.90724     38.6 1.217e+04 1.020e-08
  0.92712     37.6 1.219e+04 1.088e-08
  0.95984     33.8 1.247e+04 1.303e-08
  0.99960     31.9 1.198e+04 8.971e-09
  1.03687     31.9 1.141e+04 3.290e-09
  1.05675     31.6 1.129e+04 1.923e-09
  1.07912     30.3 1.152e+04 5.626e-10
  1.11887     30.2 1.095e+04 4.529e-10
  1.15058     31.6 1.079e+04 4.511e-10
  1.17046     32.2 1.082e+04 4.424e-10
  1.19839     34.1 1.076e+04 4.618e-10
  1.23815     36.0 1.068e+04 4.952e-10
  1.27791     37.8 1.060e+04 5.462e-10
  1.31767     39.6 1.048e+04 6.319e-10
  1.35743     41.4 1.035e+04 7.726e-10
  1.39391     43.2 1.022e+04 9.767e-10
  1.41379     43.4 1.026e+04 9.357e-10
  1.43151     45.2 1.015e+04 1.134e-09
  1.45138     45.0 1.014e+04 1.046e-09
  1.47671     46.5 1.012e+04 1.034e-09
  1.51647     48.0 1.003e+04 9.740e-10
  1.55622     49.5 9.935e+03 8.728e-10
  1.59598     51.0 9.833e+03 7.799e-10
  1.63574     52.7 9.721e+03 7.306e-10
  1.65712     54.5 9.642e+03 7.271e-10
  1.67700     54.7 9.714e+03 6.538e-10
  1.71526     56.6 9.690e+03 6.506e-10
  1.75502     58.4 9.691e+03 6.702e-10
  1.79478     60.2 9.662e+03 7.548e-10
  1.82614     61.8 9.581e+03 9.929e-10
  1.84602     61.5 9.592e+03 1.524e-09
  1.87430     63.5 9.701e+03 2.184e-09
  1.90046     65.4 9.874e+03 3.013e-09
  1.92034     65.8 9.753e+03 1.864e-09
  1.95381     67.5 9.851e+03 2.253e-09
  1.99357     69.0 9.899e+03 2.552e-09
  2.03333     70.2 9.900e+03 2.812e-09
  2.07309     71.3 9.886e+03 3.161e-09
  2.11285     72.6 9.890e+03 3.568e-09
  2.14379     73.9 9.959e+03 4.064e-09
  2.16367     74.5 9.886e+03 3.327e-09
  2.19237     75.7 1.004e+04 4.187e-09
  2.22077     76.7 1.019e+04 4.474e-09
  2.24065     76.3 1.031e+04 4.784e-09
  2.27189     77.0 1.032e+04 4.735e-09
  2.31165     77.5 1.028e+04 4.452e-09
  2.35141     78.1 1.017e+04 3.901e-09
  2.38713     78.7 1.004e+04 3.290e-09
  2.40701     79.1 1.002e+04 2.796e-09
  2.43092     79.8 9.998e+03 2.667e-09
  2.47068     80.3 1.001e+04 2.516e-09
  2.51044     80.7 1.001e+04 2.428e-09
  2.55020     81.0 1.003e+04 2.443e-09
  2.58996     81.1 1.007e+04 2.541e-09
  2.61541     81.1 1.009e+04 2.545e-09
  2.63529     80.3 1.020e+04 2.714e-09
  2.65034     80.3 1.020e+04 2.598e-09
  2.67022     81.0 1.019e+04 2.015e-09
  2.70924     80.9 1.018e+04 1.499e-09
  2.74900     80.7 1.018e+04 1.153e-09
  2.78876     80.7 1.016e+04 1.128e-09
  2.82851     81.3 1.021e+04 1.227e-09
  2.86827     81.6 1.048e+04 1.606e-09
  2.89358     81.3 1.072e+04 1.976e-09
  2.90342     82.3 1.077e+04 1.567e-09
  2.91778     81.3 1.109e+04 2.464e-09
  2.93766     80.3 1.150e+04 5.346e-09
  2.95754     80.0 1.219e+04 1.226e-08
  2.97742     80.1 1.292e+04 2.346e-08
  2.99730     79.9 1.345e+04 2.978e-08
  3.00985     78.9 1.347e+04 2.885e-08
  3.01776     78.4 1.326e+04 2.459e-08
  3.02509     79.0 1.377e+04 2.952e-08
  3.03705     78.2 1.336e+04 2.189e-08
  3.05693     77.2 1.272e+04 1.260e-08
  3.07681     75.5 1.200e+04 7.189e-09
  3.09669     74.1 1.163e+04 6.237e-09
  3.11657     73.6 1.166e+04 6.332e-09
  3.13645     72.6 1.194e+04 7.227e-09
  3.14675     70.6 1.276e+04 1.157e-08
  3.15669     71.3 1.278e+04 1.055e-08
  3.17621     68.9 1.405e+04 2.472e-08
  3.19609     67.1 1.517e+04 5.024e-08
  3.20716     65.1 1.559e+04 5.851e-08
  3.21710     65.5 1.565e+04 5.882e-08
  3.23585     63.4 1.543e+04 5.347e-08
  3.25573     61.5 1.468e+04 3.522e-08
  3.26842     59.1 1.367e+04 1.907e-08
  3.27836     60.2 1.435e+04 2.341e-08
  3.29549     56.7 1.275e+04 1.512e-08
  3.31537     54.5 1.239e+04 1.491e-08
  3.33525     52.8 1.253e+04 1.598e-08
  3.35513     50.4 1.319e+04 2.200e-08
  3.37501     47.8 1.416e+04 3.612e-08
  3.39009     45.1 1.493e+04 5.454e-08
  3.39968     43.4 1.548e+04 6.588e-08
  3.40448     43.2 1.573e+04 7.990e-08
  3.41477     41.6 1.542e+04 7.234e-08
  3.43465     40.4 1.448e+04 4.774e-08
  3.45452     38.0 1.318e+04 2.516e-08
  3.47440     34.4 1.150e+04 1.290e-08
  3.49428     31.5 1.002e+04 8.122e-09
  3.51176     30.2 9.341e+03 6.388e-09
  3.52170     28.9 9.056e+03 5.405e-09
  3.53404     28.8 9.025e+03 4.908e-09
  3.55392     28.7 8.950e+03 4.629e-09
  3.57380     28.7 8.936e+03 4.607e-09
  3.59186     28.8 8.973e+03 4.755e-09
  3.60180     28.5 9.194e+03 5.747e-09
  3.61356     28.4 9.344e+03 6.412e-09
  3.63342     28.3 9.613e+03 7.824e-09
  3.65330     28.0 9.541e+03 8.709e-09
  3.67320     28.7 9.810e+03 9.771e-09
  3.69308     29.0 1.004e+04 1.029e-08
  3.71296     28.7 1.011e+04 1.029e-08
  3.73284     28.1 1.008e+04 1.033e-08
  3.75272     27.6 9.948e+03 1.023e-08
  3.76503     27.5 9.752e+03 9.904e-09
  3.77497     27.1 9.145e+03 7.531e-09
  3.78917     27.5 8.921e+03 6.928e-09
  3.79911     27.1 8.715e+03 6.195e-09
  3.81236     27.5 8.368e+03 4.874e-09
  3.83224     27.5 8.006e+03 3.740e-09
  3.85212     27.4 7.684e+03 2.940e-09
  3.87200     27.2 7.505e+03 2.554e-09
  3.88679     27.4 7.386e+03 2.458e-09
  3.90677     28.0 6.980e+03 1.901e-09
  3.94177     29.3 6.716e+03 1.698e-09
  3.98153     30.9 6.552e+03 1.579e-09
  4.02129     32.9 6.539e+03 1.550e-09
  4.06105     35.3 6.593e+03 1.601e-09
  4.10081     38.6 6.972e+03 1.889e-09
  4.13013     40.4 7.039e+03 1.939e-09
  4.13997     41.4 6.942e+03 1.789e-09
  4.15031     42.6 6.960e+03 1.790e-09
  4.17019     45.1 7.009e+03 1.837e-09
  4.18381     48.1 7.239e+03 2.031e-09
  4.19375     45.8 7.319e+03 2.107e-09
  4.20995     46.1 9.560e+03 4.196e-09
  4.22481     47.5 1.033e+04 5.889e-09
  4.23470     46.6 1.221e+04 8.060e-09
  4.24464     38.3 1.948e+04 2.482e-08
  4.25458     24.9 2.209e+04 2.231e-07
  4.26154     12.3 2.216e+04 7.011e-07
  4.26400     15.7 2.133e+04 9.415e-07
  4.26695     13.9 2.062e+04 1.133e-06
  4.27443      1.6 1.932e+04 3.919e-06
  4.28237     -6.9 1.964e+04 2.807e-06
  4.28734     -2.3 2.016e+04 2.060e-06
  4.29434    -12.6 2.567e+04 4.665e-07
  4.30428    -28.6 2.335e+04 1.217e-07
  4.31422    -38.1 1.716e+04 7.681e-08
  4.32918    -38.8 1.621e+04 7.716e-08
  4.34910    -35.1 1.479e+04 5.167e-08
  4.36898    -33.7 1.341e+04 2.798e-08
  4.38112    -33.9 1.145e+04 1.379e-08
  4.38551    -34.2 1.107e+04 1.177e-08
  4.39324    -32.6 1.246e+04 1.663e-08
  4.40874    -33.8 1.053e+04 9.065e-09
  4.42862    -33.7 9.756e+03 6.993e-09
  4.44850    -32.0 9.537e+03 6.402e-09
  4.46838    -30.5 9.626e+03 6.384e-09
  4.48826    -29.3 9.669e+03 6.402e-09
  4.50497    -28.4 9.595e+03 6.326e-09
  4.51491    -28.0 9.507e+03 6.237e-09
  4.52802    -27.0 9.667e+03 6.887e-09
  4.54790    -26.5 9.718e+03 7.688e-09
  4.56778    -25.5 1.002e+04 9.200e-09
  4.57844    -25.0 1.001e+04 9.803e-09
  4.58838    -25.2 9.925e+03 9.004e-09
  4.60754    -23.9 1.011e+04 9.508e-09
  4.62664    -23.5 1.016e+04 9.498e-09
  4.63658    -22.4 1.028e+04 1.123e-08
  4.64730    -21.7 1.032e+04 1.076e-08
  4.66718    -21.4 1.038e+04 1.032e-08
  4.68706    -21.3 1.052e+04 1.047e-08
  4.70694    -21.3 1.055e+04 1.107e-08
  4.72682    -21.0 1.053e+04 1.230e-08
  4.74669    -20.5 1.051e+04 1.326e-08
  4.75825    -20.0 1.054e+04 1.369e-08
  4.76743    -19.3 1.057e+04 1.267e-08
  4.77576    -19.3 1.082e+04 1.508e-08
  4.78645    -19.6 1.115e+04 1.729e-08
  4.80633    -20.1 1.159e+04 1.930e-08
  4.82621    -20.4 1.209e+04 1.981e-08
  4.84609    -21.4 1.224e+04 1.748e-08
  4.86597    -23.7 1.213e+04 1.440e-08
  4.87991    -26.5 1.195e+04 1.325e-08
  4.88985    -26.3 1.391e+04 2.790e-08
  4.90573    -30.7 1.333e+04 2.648e-08
  4.92561    -32.8 1.335e+04 3.522e-08
  4.94549    -33.2 1.376e+04 4.477e-08
  4.96314    -33.4 1.399e+04 4.761e-08
  4.97308    -33.2 1.439e+04 6.019e-08
  4.98525    -33.0 1.446e+04 5.730e-08
  5.00158    -33.1 1.365e+04 3.354e-08
  5.01152    -34.8 1.277e+04 2.055e-08
  5.02501    -37.8 1.067e+04 8.913e-09
  5.04489    -40.1 9.564e+03 6.029e-09
  5.06477    -41.0 9.427e+03 5.700e-09
  5.08465    -43.0 1.176e+04 7.104e-09
  5.10453    -46.1 1.438e+04 1.713e-08
  5.12325    -48.1 1.511e+04 4.150e-08
  5.13319    -43.8 1.331e+04 1.290e-08
  5.14429    -46.3 1.460e+04 3.188e-08
  5.16045    -48.1 1.561e+04 6.504e-08
  5.17039    -50.6 1.598e+04 7.911e-08
  5.18404    -52.2 1.726e+04 1.187e-07
  5.20392    -55.6 1.807e+04 1.301e-07
  5.22380    -62.3 1.841e+04 9.202e-08
  5.24368    -72.2 1.687e+04 6.118e-08
  5.25485    -81.3 1.604e+04 5.735e-08
  5.26479    -76.2 1.760e+04 6.748e-08
  5.28344    -85.1 1.622e+04 6.557e-08
  5.30332    -89.8 1.547e+04 6.775e-08
  5.32320    -92.8 1.468e+04 5.175e-08
  5.34308    -95.7 1.324e+04 2.725e-08
  5.35777    -99.5 1.125e+04 1.236e-08
  5.36771    -98.8 1.157e+04 1.490e-08
  5.37652   -102.0 9.885e+03 8.007e-09
  5.38646   -101.2 1.038e+04 9.674e-09
  5.40272   -103.4 9.378e+03 6.307e-09
  5.42260   -103.8 8.996e+03 5.336e-09
  5.44248   -103.9 8.778e+03 4.535e-09
  5.46236   -103.8 8.521e+03 3.672e-09
  5.49228   -103.5 8.327e+03 3.041e-09
  5.53213   -103.1 8.270e+03 2.813e-09
  5.57189   -102.7 8.351e+03 2.818e-09
  5.60161   -102.9 8.630e+03 3.340e-09
  5.61986   -103.1 8.847e+03 3.988e-09
  5.62980   -103.7 8.941e+03 4.260e-09
  5.64127   -103.9 9.203e+03 5.141e-09
  5.66115   -104.3 9.459e+03 5.908e-09
  5.68103   -105.3 9.730e+03 6.820e-09
  5.70091   -106.7 1.002e+04 7.944e-09
  5.72079   -108.4 1.039e+04 9.484e-09
  5.74067   -110.3 1.082e+04 1.161e-08
  5.75146   -112.1 1.121e+04 1.396e-08
  5.75325   -113.4 1.122e+04 1.450e-08
  5.76234   -113.6 1.120e+04 1.430e-08
  5.78043   -115.5 1.128e+04 1.498e-08
  5.80031   -117.3 1.121e+04 1.492e-08
  5.82019   -118.9 1.088e+04 1.334e-08
  5.84007   -120.3 1.052e+04 1.140e-08
  5.85995   -121.6 1.023e+04 9.950e-09
  5.87313   -122.8 1.007e+04 9.197e-09
  5.88307   -123.3 1.003e+04 9.101e-09
  5.89971   -124.1 1.002e+04 9.023e-09
  5.91959   -125.0 1.007e+04 9.067e-09
  5.93947   -125.9 1.025e+04 9.576e-09
  5.94972   -126.8 1.047e+04 1.039e-08
  5.95966   -126.1 1.028e+04 9.294e-09
  5.97923   -126.8 1.051e+04 1.023e-08
  5.99480   -127.5 1.073e+04 1.109e-08
  6.00474   -127.9 1.067e+04 1.100e-08
  6.01899   -128.5 1.088e+04 1.172e-08
  6.03886   -129.2 1.107e+04 1.231e-08
  6.05874   -130.0 1.121e+04 1.264e-08
  6.07862   -130.8 1.125e+04 1.274e-08
  6.09850   -131.5 1.123e+04 1.238e-08
  6.11656   -131.8 1.106e+04 1.086e-08
  6.12650   -132.0 1.096e+04 1.095e-08
  6.13710   -132.3 1.087e+04 1.014e-08
  6.14704   -131.7 1.082e+04 9.884e-09
  6.15814   -131.9 1.074e+04 9.125e-09
  6.17802   -132.0 1.062e+04 8.330e-09
  6.20794   -132.1 1.040e+04 7.047e-09
  6.23776   -132.1 9.961e+03 4.664e-09
  6.24807   -132.2 9.831e+03 3.794e-09
  6.25801   -132.8 9.805e+03 4.296e-09
  6.27742   -133.0 9.715e+03 3.640e-09
  6.29730   -133.0 9.745e+03 3.319e-09
  6.31718   -133.0 9.764e+03 3.210e-09
  6.33441   -132.8 9.767e+03 3.181e-09
  6.34435   -132.6 9.822e+03 3.383e-09
  6.35990   -132.7 9.796e+03 3.235e-09
  6.37978   -133.6 1.004e+04 4.469e-09
  6.39670   -133.8 1.016e+04 4.839e-09
  6.41658   -134.0 1.034e+04 5.372e-09
  6.43646   -134.2 1.052e+04 5.964e-09
  6.45634   -134.5 1.069e+04 6.443e-09
  6.47621   -134.7 1.080e+04 6.779e-09
  6.49141   -134.8 1.087e+04 6.836e-09
  6.50134   -136.0 1.091e+04 7.593e-09
  6.51597   -136.1 1.087e+04 6.795e-09
  6.53173   -136.3 1.083e+04 5.960e-09
  6.54167   -136.4 1.075e+04 5.362e-09
  6.55573   -136.5 1.067e+04 4.307e-09
  6.57561   -136.5 1.064e+04 3.530e-09
  6.59549   -136.3 1.070e+04 3.102e-09
  6.61307   -136.2 1.076e+04 2.967e-09
  6.62311   -138.3 1.038e+04 2.370e-09
  6.64539   -138.0 1.043e+04 2.345e-09
  6.67511   -137.4 1.077e+04 2.988e-09
  6.69489   -137.3 1.084e+04 3.612e-09
  6.71477   -137.1 1.095e+04 4.271e-09
  6.72905   -136.8 1.109e+04 4.833e-09
  6.73899   -137.3 1.082e+04 3.615e-09
  6.75453   -137.1 1.105e+04 4.122e-09
  6.77441   -136.8 1.119e+04 4.504e-09
  6.80432   -136.5 1.129e+04 4.777e-09
  6.83414   -136.2 1.105e+04 3.541e-09
  6.85393   -136.0 1.106e+04 3.433e-09
  6.86635   -135.6 1.112e+04 3.245e-09
  6.87629   -136.1 1.082e+04 2.428e-09
  6.89369   -135.9 1.096e+04 2.411e-09
  6.91356   -135.6 1.108e+04 2.427e-09
  6.92636   -135.4 1.120e+04 2.473e-09
  6.93630   -135.0 1.099e+04 2.025e-09
  6.95332   -134.6 1.112e+04 2.092e-09
  6.97320   -134.3 1.121e+04 2.256e-09
  6.98801   -134.1 1.133e+04 2.512e-09
  6.99795   -134.8 1.143e+04 2.970e-09
  7.01296   -134.6 1.154e+04 3.630e-09
  7.03284   -134.2 1.169e+04 4.434e-09
  7.05272   -133.6 1.186e+04 5.246e-09
  7.07260   -133.0 1.202e+04 5.931e-09
  7.09248   -132.3 1.209e+04 6.329e-09
  7.10968   -131.6 1.211e+04 6.429e-09
  7.11962   -132.2 1.219e+04 6.233e-09
  7.12368   -131.4 1.216e+04 5.675e-09
  7.13362   -131.3 1.207e+04 5.667e-09
  7.15212   -130.6 1.206e+04 5.135e-09
  7.17200   -129.8 1.202e+04 4.626e-09
  7.19188   -129.1 1.196e+04 4.185e-09
  7.21176   -128.3 1.190e+04 3.808e-09
  7.23135   -127.5 1.181e+04 3.491e-09
  7.24129   -127.7 1.148e+04 3.143e-09
  7.25152   -126.9 1.145e+04 3.023e-09
  7.27140   -126.1 1.145e+04 2.978e-09
  7.29128   -125.4 1.144e+04 2.969e-09
  7.31106   -124.4 1.149e+04 2.975e-09
  7.33104   -124.3 1.145e+04 2.609e-09
  7.35101   -123.1 1.146e+04 2.834e-09
  7.36295   -122.5 1.151e+04 2.899e-09
  7.37289   -122.7 1.144e+04 3.354e-09
  7.40071   -121.9 1.157e+04 3.847e-09
  7.44057   -120.2 1.167e+04 5.096e-09
  7.48033   -118.7 1.176e+04 6.293e-09
  7.52009   -117.2 1.179e+04 7.278e-09
  7.55984   -115.8 1.180e+04 7.707e-09
  7.59654   -114.4 1.181e+04 7.778e-09
  7.61642   -114.6 1.232e+04 1.243e-08
  7.63936   -113.4 1.220e+04 1.217e-08
  7.67912   -112.0 1.191e+04 1.024e-08
  7.70589   -110.5 1.160e+04 7.677e-09
  7.72577   -111.4 1.139e+04 5.939e-09
  7.75864   -109.8 1.117e+04 4.372e-09
  7.79840   -108.5 1.111e+04 3.775e-09
  7.83816   -107.2 1.111e+04 3.686e-09
  7.85976   -106.3 1.130e+04 3.942e-09
  7.87964   -106.8 1.129e+04 5.203e-09
  7.91768   -106.3 1.140e+04 6.265e-09
  7.95744   -106.0 1.140e+04 6.812e-09
  7.99719   -105.8 1.129e+04 6.603e-09
  8.03695   -105.4 1.108e+04 5.763e-09
  8.07671   -105.0 1.089e+04 4.778e-09
  8.10052   -105.0 1.065e+04 3.676e-09
  8.10702   -105.8 1.033e+04 2.216e-09
  8.12297   -104.8 1.052e+04 2.298e-09
  8.15623   -104.5 1.050e+04 2.375e-09
  8.19599   -104.1 1.035e+04 2.345e-09
  8.23575   -103.4 1.015e+04 2.119e-09
  8.27551   -102.2 9.965e+03 1.809e-09
  8.31527   -100.5 9.799e+03 1.570e-09
  8.34643    -98.6 9.682e+03 1.415e-09
  8.36631    -98.4 9.703e+03 1.288e-09
  8.39479    -96.4 9.603e+03 1.192e-09
  8.43454    -94.2 9.523e+03 1.116e-09
  8.47430    -91.9 9.465e+03 1.061e-09
  8.49516    -89.7 9.441e+03 1.047e-09
  8.51504    -89.6 9.578e+03 1.013e-09
  8.55382    -87.7 9.666e+03 1.279e-09
  8.58976    -86.0 9.793e+03 1.833e-09
  8.60964    -85.9 9.725e+03 1.627e-09
  8.63334    -84.3 9.856e+03 2.074e-09
  8.67310    -82.9 9.959e+03 2.469e-09
  8.71286    -81.6 1.000e+04 2.636e-09
  8.75262    -80.3 9.993e+03 2.651e-09
  8.79238    -78.8 9.937e+03 2.471e-09
  8.83214    -77.2 9.906e+03 2.192e-09
  8.85297    -75.6 9.911e+03 2.024e-09
  8.87087    -75.2 9.907e+03 2.339e-09
  8.88979    -75.2 9.991e+03 2.669e-09
  8.91165    -73.9 1.013e+04 2.757e-09
  8.95141    -73.0 1.030e+04 3.261e-09
  8.99117    -72.1 1.044e+04 4.039e-09
  9.03093    -71.3 1.056e+04 4.627e-09
  9.07069    -70.4 1.057e+04 4.707e-09
  9.09631    -69.2 1.040e+04 3.710e-09
  9.11619    -69.7 1.034e+04 2.833e-09
  9.15021    -68.3 1.022e+04 1.661e-09
  9.18997    -67.0 1.019e+04 1.306e-09
  9.22973    -65.3 1.024e+04 1.303e-09
  9.26454    -63.8 1.057e+04 1.871e-09
  9.28442    -62.9 1.030e+04 1.232e-09
  9.30924    -61.3 1.054e+04 2.008e-09
  9.33964    -59.6 1.086e+04 3.198e-09
  9.35943    -60.0 1.095e+04 4.248e-09
  9.37863    -59.0 1.113e+04 5.473e-09
  9.39851    -58.4 1.125e+04 6.292e-09
  9.41839    -57.7 1.138e+04 6.981e-09
  9.43827    -57.2 1.150e+04 7.507e-09
  9.45815    -56.7 1.160e+04 8.142e-09
  9.47105    -56.2 1.163e+04 8.913e-09
  9.47458    -56.3 1.163e+04 9.110e-09
  9.48155    -56.0 1.145e+04 7.878e-09
  9.49790    -55.3 1.149e+04 9.126e-09
  9.51778    -55.0 1.149e+04 9.468e-09
  9.53766    -54.3 1.151e+04 1.029e-08
  9.55754    -54.2 1.151e+04 1.051e-08
  9.58288    -53.3 1.149e+04 1.112e-08
  9.60286    -53.7 1.181e+04 1.386e-08
  9.62732    -52.0 1.129e+04 1.200e-08
  9.65918    -50.0 1.076e+04 8.689e-09
  9.67906    -49.2 1.024e+04 6.186e-09
  9.70684    -47.0 9.890e+03 4.292e-09
  9.74659    -44.7 9.523e+03 2.978e-09
  9.78635    -42.1 9.235e+03 2.102e-09
  9.82611    -39.4 9.032e+03 1.567e-09
  9.84619    -36.8 8.867e+03 1.287e-09
  9.86607    -36.7 8.826e+03 9.753e-10
  9.90563    -34.1 8.696e+03 8.975e-10
  9.94539    -31.4 8.629e+03 8.831e-10
  9.98515    -28.6 8.511e+03 9.378e-10
 10.02491    -25.8 8.402e+03 1.010e-09
 10.05381    -23.0 8.315e+03 1.026e-09
 10.07369    -22.6 8.213e+03 8.558e-10
 10.08953    -19.8 8.140e+03 8.179e-10
 10.10941    -19.7 8.273e+03 6.039e-10
 10.14418    -17.3 8.240e+03 5.879e-10
 10.18394    -14.8 8.155e+03 6.064e-10
 10.22370    -12.3 8.076e+03 6.105e-10
 10.26346     -9.5 8.033e+03 5.845e-10
 10.30322     -7.0 8.146e+03 5.534e-10
 10.33286     -4.7 8.166e+03 6.028e-10
 10.35274     -4.6 8.229e+03 4.104e-10
 10.38274     -2.2 8.291e+03 4.629e-10
 10.42250      0.1 8.404e+03 5.628e-10
 10.44845      2.3 8.583e+03 7.295e-10
 10.46833      2.4 8.750e+03 8.085e-10
 10.50202      3.9 9.188e+03 1.488e-09
 10.54178      5.0 9.728e+03 3.122e-09
 10.57619      6.4 1.025e+04 6.508e-09
 10.59607      6.6 1.025e+04 6.615e-09
 10.62129      8.3 1.094e+04 1.003e-08
 10.64567      9.4 1.119e+04 1.161e-08
 10.65551      8.9 1.120e+04 1.161e-08
 10.67080      9.4 1.122e+04 1.096e-08
 10.69068     10.0 1.110e+04 9.436e-09
 10.70761     10.5 1.097e+04 7.828e-09
 10.71755     10.1 1.101e+04 7.969e-09
 10.73044     10.4 1.089e+04 7.070e-09
 10.75032     10.7 1.077e+04 6.438e-09
 10.77020     11.0 1.063e+04 6.271e-09
 10.79007     11.5 1.068e+04 6.461e-09
 10.80995     11.6 1.094e+04 7.495e-09
 10.82927     11.1 1.146e+04 1.019e-08
 10.83921     10.4 1.199e+04 1.283e-08
 10.84288      9.7 1.277e+04 2.163e-08
 10.85282      9.9 1.172e+04 1.283e-08
 10.86959      9.7 1.210e+04 1.593e-08
 10.88947      9.8 1.283e+04 2.254e-08
 10.90935     10.1 1.308e+04 2.206e-08
 10.92923      9.2 1.367e+04 2.074e-08
 10.94911      7.4 1.389e+04 1.916e-08
 10.96088      6.1 1.307e+04 1.591e-08
 10.97082      5.0 1.302e+04 1.662e-08
 10.98887      4.7 1.261e+04 2.038e-08
 11.00875      5.3 1.234e+04 2.156e-08
 11.02863      5.9 1.220e+04 2.052e-08
 11.04020      6.5 1.199e+04 1.605e-08
 11.05014      7.2 1.124e+04 1.063e-08
 11.06839      7.1 1.131e+04 1.016e-08
 11.08264      6.6 1.154e+04 1.026e-08
 11.09258      7.1 1.187e+04 1.443e-08
 11.10815      7.1 1.188e+04 1.378e-08
 11.13806      6.5 1.184e+04 1.291e-08
 11.16788      7.0 1.166e+04 1.125e-08
 11.18767      7.0 1.169e+04 1.118e-08
 11.20421      6.8 1.159e+04 9.935e-09
 11.21415      6.4 1.157e+04 9.946e-09
 11.22742      6.3 1.155e+04 9.743e-09
 11.23752      6.4 1.138e+04 8.525e-09
 11.25750      7.1 1.142e+04 8.599e-09
 11.29720      7.5 1.125e+04 7.267e-09
 11.32608      8.2 1.109e+04 6.416e-09
 11.34596      7.4 1.101e+04 4.940e-09
 11.37672      8.3 1.100e+04 4.035e-09
 11.41648      9.4 1.109e+04 4.174e-09
 11.44620     10.4 1.111e+04 4.442e-09
 11.45749     10.8 1.112e+04 4.517e-09
 11.46743     10.6 1.101e+04 4.000e-09
 11.48586     11.9 1.088e+04 3.711e-09
 11.50574     12.0 1.091e+04 3.569e-09
 11.53566     13.5 1.079e+04 2.719e-09
 11.56941     15.4 1.061e+04 1.573e-09
 11.58929     15.3 1.057e+04 1.508e-09
 11.61247     16.7 1.067e+04 1.039e-09
 11.63235     17.4 1.059e+04 1.033e-09
 11.65503     19.0 1.056e+04 9.829e-10
 11.69479     20.7 1.065e+04 1.067e-09
 11.73455     21.8 1.096e+04 1.358e-09
 11.76427     21.4 1.136e+04 2.622e-09
 11.78405     21.8 1.133e+04 3.389e-09
 11.81265     23.2 1.153e+04 5.047e-09
 11.83262     23.0 1.151e+04 5.902e-09
 11.85383     23.9 1.203e+04 9.971e-09
 11.89358     24.7 1.237e+04 1.102e-08
 11.93334     25.5 1.224e+04 9.445e-09
 11.97310     26.5 1.194e+04 6.315e-09
 12.00710     27.2 1.160e+04 3.691e-09
 12.02698     29.6 1.184e+04 6.504e-09
 12.05262     30.5 1.147e+04 3.946e-09
 12.07596     31.6 1.124e+04 2.103e-09
 12.09584     31.6 1.109e+04 1.792e-09
 12.13214     32.9 1.096e+04 1.121e-09
 12.17190     34.2 1.068e+04 8.627e-10
 12.21166     35.9 1.042e+04 8.381e-10
 12.25142     37.9 1.031e+04 8.695e-10
 12.29118     40.1 1.027e+04 9.253e-10
 12.31929     42.2 1.030e+04 9.246e-10
 12.33917     42.5 1.040e+04 6.165e-10
 12.37069     44.5 1.036e+04 5.868e-10
 12.40174     46.6 1.033e+04 5.926e-10
 12.42162     47.8 1.049e+04 5.942e-10
 12.45021     49.8 1.042e+04 6.222e-10
 12.48997     51.9 1.028e+04 7.256e-10
 12.52973     54.2 1.025e+04 8.383e-10
 12.56263     56.5 1.030e+04 8.501e-10
 12.58251     56.8 1.033e+04 8.203e-10
 12.60925     59.0 1.036e+04 8.035e-10
 12.64901     61.1 1.044e+04 7.193e-10
 12.68877     63.0 1.053e+04 6.100e-10
 12.72852     65.0 1.058e+04 5.646e-10
 12.76828     67.0 1.059e+04 5.702e-10
 12.79637     68.8 1.064e+04 6.102e-10
 12.81417     69.7 1.074e+04 5.542e-10
 12.82584     69.9 1.076e+04 4.893e-10
 12.84780     71.6 1.071e+04 6.707e-10
 12.88756     73.4 1.072e+04 9.802e-10
 12.92732     75.2 1.087e+04 1.333e-09
 12.96708     76.7 1.109e+04 1.618e-09
 13.00684     77.9 1.127e+04 1.676e-09
 13.04660     78.8 1.133e+04 1.708e-09
 13.06918     79.8 1.133e+04 1.788e-09
 13.08905     80.1 1.145e+04 1.418e-09
 13.12612     81.3 1.140e+04 1.808e-09
 13.16587     82.5 1.135e+04 2.849e-09
 13.19100     83.7 1.156e+04 5.289e-09
 13.21088     84.5 1.148e+04 2.324e-09
 13.24539     85.5 1.162e+04 3.819e-09
 13.28515     86.0 1.191e+04 6.130e-09
 13.31251     86.3 1.212e+04 8.050e-09
 13.33239     86.2 1.229e+04 8.245e-09
 13.36467     86.2 1.226e+04 7.961e-09
 13.40443     86.0 1.207e+04 6.664e-09
 13.44419     85.6 1.182e+04 5.471e-09
 13.48395     84.9 1.164e+04 5.338e-09
 13.52371     83.6 1.163e+04 5.549e-09
 13.55584     82.0 1.158e+04 5.493e-09
 13.57572     81.4 1.198e+04 8.041e-09
 13.58564     80.1 1.177e+04 7.038e-09
 13.60552     81.3 1.169e+04 6.397e-09
 13.64298     80.5 1.131e+04 4.412e-09
 13.68274     80.1 1.104e+04 3.382e-09
 13.72250     80.1 1.081e+04 2.848e-09
 13.76226     80.3 1.060e+04 2.349e-09
 13.79918     80.6 1.044e+04 1.832e-09
 13.81906     80.5 1.042e+04 1.708e-09
 13.84178     80.7 1.023e+04 1.335e-09
 13.88154     81.3 1.000e+04 1.277e-09
 13.92130     82.2 9.973e+03 1.291e-09
 13.96039     83.3 9.893e+03 1.389e-09
 13.98027     83.5 9.985e+03 1.300e-09
 14.00082     84.7 9.922e+03 1.443e-09
 14.04057     86.0 1.004e+04 1.835e-09
 14.06239     86.8 1.028e+04 2.543e-09
 14.08227     87.3 1.013e+04 2.357e-09
 14.11006     87.3 1.028e+04 3.144e-09
 14.12984     87.3 1.046e+04 4.525e-09
 14.14972     87.4 1.071e+04 6.482e-09
 14.16745     87.4 1.107e+04 9.127e-09
 14.17739     87.7 1.096e+04 7.636e-09
 14.18386     87.5 1.137e+04 1.085e-08
 14.19380     87.9 1.108e+04 8.695e-09
 14.20936     87.5 1.143e+04 1.202e-08
 14.22923     87.0 1.174e+04 1.549e-08
 14.24911     86.4 1.192e+04 1.733e-08
 14.26899     85.7 1.191e+04 1.726e-08
 14.28887     84.8 1.180e+04 1.658e-08
 14.30563     83.9 1.120e+04 1.277e-08
 14.31557     84.6 1.157e+04 1.534e-08
 14.32863     84.0 1.122e+04 1.340e-08
 14.34851     83.6 1.087e+04 1.175e-08
 14.36477     83.5 1.062e+04 1.060e-08
 14.37471     83.5 1.101e+04 1.308e-08
 14.38827     83.4 1.078e+04 1.179e-08
 14.40815     83.4 1.061e+04 1.080e-08
 14.42720     83.6 1.044e+04 9.816e-09
 14.43714     83.6 1.025e+04 9.199e-09
 14.44791     83.8 1.005e+04 8.209e-09
 14.46779     84.2 9.816e+03 7.091e-09
 14.48767     84.7 9.569e+03 5.927e-09
 14.50755     85.2 9.326e+03 4.852e-09
 14.52743     85.6 9.124e+03 3.977e-09
 14.54731     86.1 8.917e+03 3.306e-09
 14.55880     86.4 8.753e+03 2.963e-09
 14.56364     86.1 8.702e+03 3.093e-09
 14.57203     86.4 8.877e+03 3.592e-09
 14.58707     87.0 8.764e+03 3.574e-09
 14.60695     87.7 8.758e+03 3.603e-09
 14.62683     88.4 8.749e+03 3.766e-09
 14.64671     89.1 8.782e+03 4.140e-09
 14.66658     89.8 8.879e+03 4.753e-09
 14.68047     90.4 9.037e+03 5.596e-09
 14.69041     90.2 9.177e+03 6.565e-09
 14.70634     90.9 9.390e+03 7.721e-09
 14.72622     91.5 9.622e+03 8.951e-09
 14.74610     92.2 9.826e+03 9.857e-09
 14.75940     92.6 9.893e+03 9.949e-09
 14.76934     92.7 1.054e+04 1.416e-08
 14.78586     93.0 1.052e+04 1.397e-08
 14.80214     93.5 1.037e+04 1.293e-08
 14.81208     93.1 1.028e+04 1.223e-08
 14.82562     93.5 1.001e+04 1.034e-08
 14.84550     93.9 9.689e+03 8.458e-09
 14.86538     94.4 9.346e+03 6.888e-09
 14.88526     94.9 9.126e+03 6.138e-09
 14.90514     95.7 9.131e+03 6.153e-09
 14.92381     96.6 9.324e+03 6.525e-09
 14.93375     95.7 9.946e+03 8.108e-09
 14.94490     96.7 1.120e+04 1.258e-08
 14.95672     97.7 1.311e+04 2.288e-08
 14.96666     97.4 1.149e+04 1.377e-08
 14.98466     97.4 1.428e+04 2.881e-08
 14.99952     96.7 1.648e+04 5.043e-08
 15.00941     96.1 1.831e+04 8.785e-08
 15.01935     95.5 1.931e+04 1.738e-07
 15.02929     95.0 1.922e+04 4.070e-07
 15.03923     94.8 1.841e+04 1.129e-06
 15.04917     94.3 1.757e+04 2.926e-06
 15.05528     92.5 1.736e+04 4.876e-06
 15.06025     86.2 1.845e+04 1.367e-06
 15.06905     82.0 1.885e+04 9.878e-07
 15.07899     77.3 1.998e+04 4.513e-07
 15.08893     71.8 2.216e+04 1.552e-07
 15.09887     66.7 2.371e+04 6.229e-08
 15.10881     62.5 2.382e+04 3.090e-08
 15.12377     61.5 2.236e+04 4.812e-08
 15.14369     57.0 2.301e+04 1.432e-08
 15.15404     51.8 1.526e+04 8.084e-09
 15.16398     50.7 1.005e+04 6.544e-09
 15.17708     49.9 1.025e+04 7.711e-09
 15.18702     50.5 1.006e+04 6.960e-09
 15.20333     50.1 1.036e+04 7.775e-09
 15.22321     49.3 1.086e+04 9.364e-09
 15.24309     48.3 1.155e+04 1.207e-08
 15.26297     47.1 1.222e+04 1.559e-08
 15.28285     45.6 1.259e+04 1.791e-08
 15.29875     43.6 1.261e+04 1.785e-08
 15.30869     44.6 1.310e+04 1.879e-08
 15.32261     41.9 1.305e+04 1.846e-08
 15.34142     38.6 1.285e+04 1.801e-08
 15.35136     38.4 1.325e+04 1.960e-08
 15.36237     35.5 1.281e+04 1.761e-08
 15.38225     33.4 1.220e+04 1.456e-08
 15.40213     32.0 1.165e+04 1.136e-08
 15.42041     31.0 1.116e+04 8.764e-09
 15.43035     31.0 1.107e+04 7.826e-09
 15.44189     30.2 1.103e+04 7.010e-09
 15.46177     29.0 1.149e+04 7.830e-09
 15.48165     25.1 1.380e+04 1.265e-08
 15.50153     19.5 1.673e+04 4.774e-08
 15.52140     17.8 1.784e+04 1.740e-07
 15.53873     18.2 1.745e+04 2.066e-07
 15.54862     17.6 1.742e+04 4.581e-07
 15.55197     19.4 1.634e+04 1.908e-07
 15.56196     19.9 1.622e+04 1.760e-07
 15.58104     19.7 1.376e+04 3.492e-08
 15.60092     16.3 1.267e+04 1.033e-08
 15.63084     17.9 1.089e+04 3.070e-09
 15.67070     18.7 1.074e+04 7.395e-10
 15.71046     20.2 1.025e+04 4.996e-10
 15.75021     22.8 1.008e+04 4.900e-10
 15.78561     25.2 1.006e+04 5.190e-10
 15.80549     25.9 1.015e+04 4.611e-10
 15.82973     28.1 1.019e+04 4.976e-10
 15.86949     30.0 1.025e+04 5.577e-10
 15.90925     31.4 1.027e+04 6.691e-10
 15.93356     32.5 1.027e+04 9.400e-10
 15.95344     32.1 1.030e+04 7.717e-10
 15.98877     33.2 1.039e+04 1.006e-09
 16.02853     33.9 1.054e+04 1.192e-09
 16.04882     34.1 1.069e+04 1.371e-09
 16.06870     34.2 1.068e+04 1.279e-09
 16.10805     34.0 1.100e+04 1.693e-09
 16.14781     33.9 1.136e+04 2.256e-09
 16.17039     33.4 1.171e+04 2.785e-09
 16.18024     33.4 1.167e+04 2.748e-09
 16.19731     33.0 1.181e+04 3.313e-09
 16.21719     32.9 1.179e+04 3.852e-09
 16.23707     32.7 1.173e+04 4.256e-09
 16.25695     32.5 1.165e+04 4.513e-09
 16.27683     32.3 1.157e+04 4.672e-09
 16.29196     32.1 1.155e+04 4.860e-09
 16.30190     32.1 1.152e+04 4.916e-09
 16.31659     31.9 1.161e+04 5.083e-09
 16.32800     31.6 1.169e+04 5.337e-09
 16.33794     30.9 1.146e+04 3.274e-09
 16.35635     30.6 1.144e+04 3.087e-09
 16.37623     30.1 1.130e+04 3.136e-09
 16.39610     29.5 1.118e+04 3.239e-09
 16.42602     28.9 1.098e+04 3.196e-09
 16.46588     28.9 1.067e+04 3.341e-09
 16.50564     28.7 1.059e+04 3.730e-09
 16.53549     28.7 1.069e+04 5.153e-09
 16.55537     29.6 1.089e+04 5.347e-09
 16.57512     29.4 1.121e+04 6.973e-09
 16.59490     29.3 1.155e+04 9.443e-09
 16.61478     29.2 1.197e+04 1.325e-08
 16.63466     28.9 1.258e+04 1.848e-08
 16.65454     27.3 1.358e+04 3.043e-08
 16.66691     25.3 1.512e+04 6.745e-08
 16.67684     26.6 1.543e+04 7.980e-08
 16.69430     25.2 1.698e+04 1.780e-07
 16.71269     23.3 1.716e+04 1.866e-07
 16.72259     23.5 1.757e+04 2.416e-07
 16.73401     24.5 1.676e+04 1.310e-07
 16.75394     23.6 1.540e+04 3.595e-08
 16.77382     20.1 1.345e+04 1.013e-08
 16.78857     17.7 1.205e+04 4.747e-09
 16.79851     18.6 1.201e+04 4.905e-09
 16.82361     18.8 1.130e+04 3.510e-09
 16.86347     19.9 1.104e+04 3.521e-09
 16.90323     20.4 1.112e+04 4.739e-09
 16.94299     21.1 1.124e+04 7.884e-09
 16.98275     21.7 1.139e+04 1.047e-08
 17.02216     22.1 1.140e+04 1.201e-08
 17.04204     24.2 1.142e+04 1.246e-08
 17.06226     24.2 1.120e+04 1.128e-08
 17.09758     24.7 1.091e+04 9.952e-09
 17.11746     24.6 1.105e+04 1.162e-08
 17.14178     26.6 1.035e+04 7.569e-09
 17.16361     28.1 9.824e+03 5.117e-09
 17.17345     28.2 9.904e+03 5.319e-09
 17.19129     29.2 9.702e+03 3.852e-09
 17.21117     30.2 9.587e+03 2.782e-09
 17.23105     31.0 9.546e+03 2.170e-09
 17.25092     31.8 9.433e+03 1.822e-09
 17.27080     32.8 9.253e+03 1.719e-09
 17.28518     34.1 9.251e+03 1.732e-09
 17.29512     34.8 9.165e+03 1.752e-09
 17.30464     36.1 9.198e+03 1.789e-09
 17.31458     35.6 9.284e+03 2.090e-09
 17.33044     36.7 9.250e+03 2.206e-09
 17.35032     38.0 9.303e+03 2.419e-09
 17.37020     39.4 9.450e+03 2.825e-09
 17.39008     40.8 9.664e+03 3.412e-09
 17.40685     42.0 1.005e+04 4.175e-09
 17.41679     42.7 1.031e+04 4.470e-09
 17.42984     44.0 1.146e+04 6.045e-09
 17.44972     44.5 1.272e+04 9.318e-09
 17.46960     44.2 1.386e+04 1.750e-08
 17.48948     44.1 1.477e+04 3.840e-08
 17.50196     44.7 1.572e+04 8.415e-08
 17.51190     44.6 1.410e+04 1.533e-08
 17.52851     44.5 1.508e+04 2.665e-08
 17.53845     44.8 1.566e+04 4.364e-08
 17.54912     44.8 1.582e+04 5.978e-08
 17.56900     44.4 1.571e+04 6.325e-08
 17.58888     43.9 1.545e+04 6.226e-08
 17.60876     43.2 1.498e+04 5.548e-08
 17.62864     42.7 1.445e+04 4.601e-08
 17.64852     42.6 1.390e+04 3.662e-08
 17.66012     43.0 1.339e+04 2.844e-08
 17.67006     43.1 1.295e+04 2.303e-08
 17.68827     43.4 1.229e+04 1.571e-08
 17.69928     43.2 1.176e+04 1.066e-08
 17.70922     42.4 1.079e+04 6.306e-09
 17.72803     41.9 1.055e+04 5.088e-09
 17.74791     41.4 1.077e+04 5.462e-09
 17.76779     39.1 1.210e+04 9.073e-09
 17.78174     36.2 1.355e+04 1.454e-08
 17.78666     34.9 1.376e+04 1.255e-08
 17.79254     31.1 1.542e+04 2.510e-08
 17.79784     26.1 1.764e+04 6.511e-08
 17.80281     26.4 1.728e+04 5.867e-08
 17.81242     22.5 1.794e+04 1.585e-07
 17.82236     23.1 1.782e+04 3.164e-07
 17.83230     22.9 1.793e+04 3.707e-07
 17.84224     23.2 1.763e+04 3.035e-07
 17.84749     21.9 1.825e+04 2.086e-07
 17.85246     20.7 1.912e+04 2.228e-07
 17.86714     12.8 2.247e+04 9.571e-08
 17.88666      2.1 1.816e+04 3.718e-08
 17.89660     10.0 1.894e+04 2.841e-08
 17.90346      1.9 1.397e+04 1.679e-08
 17.91340     -0.5 1.431e+04 2.255e-08
 17.92683     -0.8 1.346e+04 2.304e-08
 17.94671     -0.4 1.311e+04 2.399e-08
 17.96659      0.4 1.264e+04 2.524e-08
 17.98647      1.5 1.236e+04 2.611e-08
 18.00635      2.6 1.235e+04 2.942e-08
 18.02512      3.8 1.256e+04 3.309e-08
 18.03506      2.5 1.377e+04 4.780e-08
 18.04611      3.2 1.432e+04 5.761e-08
 18.06599      4.1 1.506e+04 8.101e-08
 18.08397      4.8 1.595e+04 1.316e-07
 18.09391      5.3 1.566e+04 8.320e-08
 18.10574      5.1 1.667e+04 1.335e-07
 18.12061      3.3 1.689e+04 4.792e-07
 18.13050      5.1 1.676e+04 1.057e-06
 18.14044      5.5 1.707e+04 1.085e-06
 18.15038      7.1 1.714e+04 7.336e-07
 18.15663      7.4 1.761e+04 3.902e-07
 18.16160      7.5 1.744e+04 3.945e-07
 18.17026      6.9 1.724e+04 2.557e-07
 18.18521      6.5 1.632e+04 1.361e-07
 18.20514      7.1 1.525e+04 9.154e-08
 18.22502      8.6 1.444e+04 6.269e-08
 18.24490     10.7 1.370e+04 3.797e-08
 18.26478     12.3 1.338e+04 2.074e-08
 18.27840     13.1 1.294e+04 1.037e-08
 18.28497     14.6 1.338e+04 2.185e-08
 18.29123     14.4 1.278e+04 1.524e-08
 18.30454     15.1 1.221e+04 8.111e-09
 18.32442     15.0 1.137e+04 5.060e-09
 18.34430     14.9 1.068e+04 3.653e-09
 18.37422     17.2 1.047e+04 3.798e-09
 18.41407     18.7 1.035e+04 3.879e-09
 18.45383     20.0 1.043e+04 4.645e-09
 18.49359     21.4 1.059e+04 5.686e-09
 18.52193     22.7 1.061e+04 5.856e-09
 18.54181     21.8 1.106e+04 7.659e-09
 18.57311     23.0 1.091e+04 5.418e-09
 18.61287     23.4 1.110e+04 3.545e-09
 18.65263     23.2 1.154e+04 2.751e-09
 18.67612     23.5 1.126e+04 4.180e-09
 18.69600     25.9 1.033e+04 1.377e-09
 18.73215     26.2 1.017e+04 1.837e-09
 18.76526     27.3 1.011e+04 2.892e-09
 18.78514     27.2 1.085e+04 7.284e-09
 18.81166     29.0 1.096e+04 7.874e-09
 18.85142     30.6 1.101e+04 7.782e-09
 18.89118     32.1 1.108e+04 7.188e-09
 18.93094     33.3 1.096e+04 5.999e-09
 18.97070     34.4 1.069e+04 4.962e-09
 19.00860     35.7 1.036e+04 4.249e-09
 19.02847     36.1 1.076e+04 4.997e-09
 19.05022     37.3 1.039e+04 4.030e-09
 19.07075     38.7 1.035e+04 4.245e-09
 19.09063     38.6 1.023e+04 4.694e-09
 19.12974     40.2 1.040e+04 5.846e-09
 19.16950     41.7 1.057e+04 6.356e-09
 19.20925     42.8 1.064e+04 6.336e-09
 19.24901     43.5 1.065e+04 5.910e-09
 19.27181     44.0 1.069e+04 5.501e-09
 19.29169     43.9 1.070e+04 5.722e-09
 19.32853     44.3 1.088e+04 6.616e-09
 19.36829     45.0 1.109e+04 8.001e-09
 19.40805     45.8 1.128e+04 8.108e-09
 19.44551     46.8 1.120e+04 7.572e-09
 19.46539     48.4 1.111e+04 7.381e-09
 19.48757     49.5 1.101e+04 6.500e-09
 19.51514     50.7 1.090e+04 5.348e-09
 19.53502     50.9 1.074e+04 3.544e-09
 19.56709     52.3 1.063e+04 3.203e-09
 19.60685     54.0 1.054e+04 3.189e-09
 19.64660     55.9 1.043e+04 3.091e-09
 19.68636     57.9 1.031e+04 2.715e-09
 19.72612     60.0 1.018e+04 2.207e-09
 19.75848     62.0 1.005e+04 1.809e-09
 19.77836     62.5 1.000e+04 1.988e-09
 19.80564     64.6 9.906e+03 1.839e-09
 19.84014     66.8 9.909e+03 1.861e-09
 19.86002     67.2 9.952e+03 1.701e-09
 19.88516     69.2 9.968e+03 1.739e-09
 19.92492     71.2 1.003e+04 1.962e-09
 19.96468     73.0 1.018e+04 2.449e-09
 20.00181     74.6 1.032e+04 3.112e-09
 20.02169     74.7 1.039e+04 3.186e-09
 20.03416     75.7 1.055e+04 4.300e-09
 20.04720     76.5 1.077e+04 5.254e-09
 20.05714     76.5 1.075e+04 5.014e-09
 20.07382     77.3 1.100e+04 6.171e-09
 20.09370     78.0 1.127e+04 7.440e-09
 20.11358     78.6 1.150e+04 8.741e-09
 20.13322     79.0 1.169e+04 9.801e-09
 20.14316     79.0 1.186e+04 1.158e-08
 20.15334     79.3 1.197e+04 1.199e-08
 20.17322     79.6 1.195e+04 1.187e-08
 20.19310     80.1 1.185e+04 1.119e-08
 20.21298     80.8 1.167e+04 9.726e-09
 20.23286     81.6 1.147e+04 7.959e-09
 20.24452     82.4 1.132e+04 6.333e-09
 20.25446     82.1 1.130e+04 5.843e-09
 20.26483     82.7 1.122e+04 4.654e-09
 20.27477     82.6 1.120e+04 4.833e-09
 20.29249     83.2 1.117e+04 3.925e-09
 20.31237     83.8 1.114e+04 3.490e-09
 20.33225     84.5 1.108e+04 3.431e-09
 20.35213     85.4 1.109e+04 3.437e-09
 20.37201     86.2 1.115e+04 3.501e-09
 20.38650     86.7 1.127e+04 3.750e-09
 20.39644     86.2 1.126e+04 3.789e-09
 20.41177     86.6 1.132e+04 4.327e-09
 20.43165     86.9 1.151e+04 5.284e-09
 20.44184     87.3 1.169e+04 6.342e-09
 20.45178     86.3 1.193e+04 7.138e-09
 20.47141     86.5 1.229e+04 8.957e-09
 20.49129     86.6 1.255e+04 1.029e-08
 20.50816     86.4 1.276e+04 1.100e-08
 20.52814     87.1 1.229e+04 8.581e-09
 20.56106     87.4 1.248e+04 8.724e-09
 20.60082     87.9 1.255e+04 8.500e-09
 20.62941     88.5 1.263e+04 8.575e-09
 20.64929     86.4 1.216e+04 5.489e-09
 20.68034     87.9 1.205e+04 6.263e-09
 20.72010     89.5 1.210e+04 8.537e-09
 20.75169     91.2 1.230e+04 1.101e-08
 20.77157     91.7 1.218e+04 1.074e-08
 20.79962     93.7 1.233e+04 1.114e-08
 20.82663     94.5 1.245e+04 1.137e-08
 20.83647     94.6 1.232e+04 1.118e-08
 20.84912     95.3 1.229e+04 1.099e-08
 20.86900     96.2 1.222e+04 1.040e-08
 20.88311     97.1 1.209e+04 9.459e-09
 20.89305     97.2 1.202e+04 8.827e-09
 20.90876     98.3 1.191e+04 7.827e-09
 20.92864     99.4 1.180e+04 6.834e-09
 20.94852    100.5 1.169e+04 5.901e-09
 20.96840    101.6 1.158e+04 5.116e-09
 20.98828    102.8 1.150e+04 4.433e-09
 21.00477    103.9 1.145e+04 3.968e-09
 21.01481    103.6 1.148e+04 3.354e-09
 21.02404    105.8 1.143e+04 2.800e-09
 21.04392    105.5 1.129e+04 2.731e-09
 21.07793    107.3 1.119e+04 2.268e-09
 21.11769    109.3 1.111e+04 2.059e-09
 21.15745    111.3 1.106e+04 2.049e-09
 21.19721    113.3 1.101e+04 2.099e-09
 21.23697    115.1 1.091e+04 2.298e-09
 21.25814    115.9 1.083e+04 2.490e-09
 21.26799    116.0 1.079e+04 2.566e-09
 21.28647    116.9 1.075e+04 2.926e-09
 21.30635    117.7 1.076e+04 3.322e-09
 21.32623    118.4 1.077e+04 3.723e-09
 21.34611    119.0 1.077e+04 4.112e-09
 21.36599    119.5 1.076e+04 4.444e-09
 21.37971    120.0 1.074e+04 4.557e-09
 21.38965    119.6 1.077e+04 4.567e-09
 21.40575    120.0 1.072e+04 4.463e-09
 21.41848    120.3 1.063e+04 4.198e-09
 21.42842    120.4 1.061e+04 4.255e-09
 21.44551    120.8 1.042e+04 3.818e-09
 21.46539    121.2 1.028e+04 3.647e-09
 21.48527    121.7 1.032e+04 3.710e-09
 21.50138    121.6 1.048e+04 4.074e-09
 21.51132    120.1 1.115e+04 6.134e-09
 21.52503    119.5 1.157e+04 9.233e-09
 21.54491    119.3 1.197e+04 1.477e-08
 21.56478    119.3 1.237e+04 2.254e-08
 21.58466    119.5 1.270e+04 3.041e-08
 21.60454    119.5 1.307e+04 3.419e-08
 21.61580    119.2 1.312e+04 3.329e-08
 21.62436    119.3 1.371e+04 4.400e-08
 21.63299    118.7 1.347e+04 3.617e-08
 21.64430    117.1 1.361e+04 3.600e-08
 21.66418    114.9 1.378e+04 3.688e-08
 21.68406    112.5 1.400e+04 4.117e-08
 21.70394    110.5 1.412e+04 4.577e-08
 21.72382    108.7 1.407e+04 4.521e-08
 21.74370    107.3 1.372e+04 3.947e-08
 21.75465    106.1 1.313e+04 2.975e-08
 21.76459    107.1 1.353e+04 3.881e-08
 21.78346    105.5 1.305e+04 3.005e-08
 21.80318    103.5 1.250e+04 2.397e-08
 21.81312    103.7 1.190e+04 1.645e-08
 21.82322    102.0 1.164e+04 1.621e-08
 21.84310    100.8 1.152e+04 1.634e-08
 21.86298    100.0 1.134e+04 1.659e-08
 21.87632     99.4 1.118e+04 1.651e-08
 21.88626     99.9 1.151e+04 1.974e-08
 21.90274     99.0 1.147e+04 1.831e-08
 21.92262     97.6 1.171e+04 1.849e-08
 21.94250     94.6 1.293e+04 2.218e-08
 21.96238     90.7 1.481e+04 3.736e-08
 21.98225     87.6 1.616e+04 7.536e-08
 21.99799     86.2 1.656e+04 1.263e-07
 22.00624     85.7 1.712e+04 2.521e-07
 22.01033     86.1 1.710e+04 2.609e-07
 22.01695     86.1 1.698e+04 2.522e-07
 22.02689     86.1 1.671e+04 2.205e-07
 22.04184     86.2 1.614e+04 1.489e-07
 22.06177     85.8 1.469e+04 5.786e-08
 22.08165     83.9 1.287e+04 2.114e-08
 22.10153     81.1 1.126e+04 1.187e-08
 22.11966     80.3 1.032e+04 9.867e-09
 22.12960     80.3 1.083e+04 1.110e-08
 22.14129     80.6 1.050e+04 1.017e-08
 22.16117     81.2 1.034e+04 9.131e-09
 22.18797     82.0 1.023e+04 7.989e-09
 22.20785     82.0 9.757e+03 6.701e-09
 22.22081     82.4 9.631e+03 5.751e-09
 22.24069     82.9 9.429e+03 4.704e-09
 22.25126     83.4 9.186e+03 3.659e-09
 22.26120     83.6 9.340e+03 3.985e-09
 22.28045     84.0 9.046e+03 3.012e-09
 22.30033     84.5 8.803e+03 2.337e-09
 22.32021     85.1 8.624e+03 2.027e-09
 22.34009     85.9 8.582e+03 1.999e-09
 22.35997     86.9 8.580e+03 2.005e-09
 22.37293     88.1 8.599e+03 2.067e-09
 22.38287     88.4 8.756e+03 2.535e-09
 22.39513     89.7 8.911e+03 2.863e-09
 22.40507     89.7 8.959e+03 3.006e-09
 22.41960     90.8 9.155e+03 3.587e-09
 22.43948     91.8 9.410e+03 4.526e-09
 22.45936     92.8 9.714e+03 5.918e-09
 22.47924     93.8 1.009e+04 7.847e-09
 22.49460     94.7 1.052e+04 1.024e-08
 22.50454     95.3 1.163e+04 1.588e-08
 22.51900     96.2 1.223e+04 2.041e-08
 22.53888     96.9 1.270e+04 2.221e-08
 22.55876     97.1 1.276e+04 2.196e-08
 22.57864     97.1 1.281e+04 2.085e-08
 22.59244     97.0 1.293e+04 2.022e-08
 22.60238     96.7 1.220e+04 1.486e-08
 22.61626     96.2 1.275e+04 1.666e-08
 22.62620     97.0 1.311e+04 1.597e-08
 22.63828     96.2 1.346e+04 1.855e-08
 22.65816     95.1 1.440e+04 2.746e-08
 22.67804     93.3 1.691e+04 6.178e-08
 22.69105     91.9 1.902e+04 1.110e-07
 22.69597     92.2 1.861e+04 9.580e-08
 22.70279     91.0 2.027e+04 1.574e-07
 22.71273     89.8 2.113e+04 2.783e-07
 22.72267     88.1 2.095e+04 3.788e-07
 22.73261     86.2 2.074e+04 3.708e-07
 22.74255     85.1 2.038e+04 3.115e-07
 22.74777     85.5 2.021e+04 1.797e-07
 22.75274     85.4 1.883e+04 5.684e-07
 22.76243     85.5 2.006e+04 1.877e-07
 22.77237     84.6 2.051e+04 1.000e-07
 22.78231     83.0 2.050e+04 4.841e-08
 22.78971     79.9 1.776e+04 5.840e-08
 22.79970     81.3 1.776e+04 3.340e-08
 22.81720     79.5 1.526e+04 2.724e-08
 22.83708     79.3 1.397e+04 2.563e-08
 22.85695     79.5 1.326e+04 2.542e-08
 22.86954     80.2 1.286e+04 2.623e-08
 22.87948     79.5 1.320e+04 3.022e-08
 22.89671     80.3 1.261e+04 2.409e-08
 22.91659     81.0 1.211e+04 1.812e-08
 22.93647     81.2 1.175e+04 1.317e-08
 22.95635     81.0 1.124e+04 9.558e-09
 22.97724     82.0 1.093e+04 8.308e-09
 22.99221     82.4 1.072e+04 8.291e-09
 23.00115     80.9 1.022e+04 7.319e-09
 23.01599     81.6 1.022e+04 7.349e-09
 23.03587     82.2 1.031e+04 7.672e-09
 23.05575     82.5 1.063e+04 8.876e-09
 23.07563     82.5 1.112e+04 1.116e-08
 23.09551     82.5 1.161e+04 1.449e-08
 23.11287     82.6 1.202e+04 1.849e-08
 23.12281     82.0 1.246e+04 2.565e-08
 23.13527     82.1 1.261e+04 2.699e-08
 23.15515     82.1 1.257e+04 2.633e-08
 23.17445     82.1 1.228e+04 2.257e-08
 23.18439     82.8 1.238e+04 2.324e-08
 23.19491     82.7 1.189e+04 1.798e-08
 23.21479     82.3 1.141e+04 1.392e-08
 23.23454     82.0 1.106e+04 1.143e-08
 23.24448     81.3 1.096e+04 1.125e-08
 23.25455     80.9 1.066e+04 9.500e-09
 23.27443     80.9 1.041e+04 8.259e-09
 23.29430     80.9 1.022e+04 7.528e-09
 23.31418     81.0 1.012e+04 7.273e-09
 23.33406     81.3 1.012e+04 7.261e-09
 23.35394     81.6 1.015e+04 7.356e-09
 23.36615     81.9 1.021e+04 7.324e-09
 23.37404     81.5 1.012e+04 6.613e-09
 23.38171     81.8 1.006e+04 6.494e-09
 23.39370     82.1 9.999e+03 5.955e-09
 23.41358     82.2 9.932e+03 5.383e-09
 23.43346     82.3 9.877e+03 4.876e-09
 23.45334     82.4 9.831e+03 4.527e-09
 23.47322     82.5 9.812e+03 4.364e-09
 23.48781     82.8 9.800e+03 4.329e-09
 23.49775     82.4 9.658e+03 3.751e-09
 23.51298     82.8 9.668e+03 3.742e-09
 23.53286     83.3 9.700e+03 3.729e-09
 23.55274     83.8 9.757e+03 3.717e-09
 23.56909     84.3 9.842e+03 3.737e-09
 23.57903     84.4 1.001e+04 4.499e-09
 23.59250     84.8 1.024e+04 4.823e-09
 23.60948     85.0 1.054e+04 5.319e-09
 23.61942     84.3 1.055e+04 5.241e-09
 23.63226     84.1 1.092e+04 6.268e-09
 23.65214     83.9 1.126e+04 7.809e-09
 23.67202     83.7 1.161e+04 9.991e-09
 23.69190     83.5 1.202e+04 1.294e-08
 23.71177     83.2 1.243e+04 1.630e-08
 23.73115     82.6 1.286e+04 1.963e-08
 23.74109     83.0 1.287e+04 2.199e-08
 23.75153     82.1 1.333e+04 2.432e-08
 23.76641     81.0 1.370e+04 2.640e-08
 23.77635     80.0 1.506e+04 5.192e-08
 23.79129     78.8 1.500e+04 4.936e-08
 23.81117     77.9 1.456e+04 3.910e-08
 23.83105     77.1 1.384e+04 2.691e-08
 23.85093     76.3 1.311e+04 1.726e-08
 23.86276     75.2 1.246e+04 1.139e-08
 23.87269     75.3 1.305e+04 1.627e-08
 23.89069     74.5 1.253e+04 1.192e-08
 23.91057     73.9 1.208e+04 9.572e-09
 23.93045     73.7 1.175e+04 8.819e-09
 23.95033     73.9 1.160e+04 8.821e-09
 23.97458     74.3 1.140e+04 9.091e-09
 23.99456     75.1 1.154e+04 1.199e-08
 24.02010     76.6 1.092e+04 8.596e-09
 24.05986     78.3 1.035e+04 5.526e-09
 24.09962     80.3 9.898e+03 3.193e-09
 24.13938     82.2 9.577e+03 1.792e-09
 24.16123     84.0 9.206e+03 1.191e-09
 24.18111     84.1 9.430e+03 2.370e-09
 24.21801     86.5 9.072e+03 1.834e-09
 24.23789     86.9 9.223e+03 2.654e-09
 24.25866     89.3 9.140e+03 2.544e-09
 24.29842     91.9 9.152e+03 2.548e-09
 24.33818     94.3 9.236e+03 2.623e-09
 24.37793     96.5 9.381e+03 2.826e-09
 24.41769     98.4 9.503e+03 3.089e-09
 24.45745     99.8 9.524e+03 3.277e-09
 24.48113    100.9 9.523e+03 3.732e-09
 24.49097    100.8 9.511e+03 3.999e-09
 24.50696    101.5 9.550e+03 4.089e-09
 24.52684    102.4 9.594e+03 4.168e-09
 24.54573    103.2 9.649e+03 4.247e-09
 24.55567    103.6 9.716e+03 4.543e-09
 24.56660    104.4 9.788e+03 4.656e-09
 24.58647    105.1 9.901e+03 4.831e-09
 24.60270    105.7 1.010e+04 5.171e-09
 24.61264    104.5 1.007e+04 5.200e-09
 24.62623    104.4 1.036e+04 5.967e-09
 24.64611    104.0 1.081e+04 7.697e-09
 24.66599    103.2 1.151e+04 1.139e-08
 24.68587    102.2 1.245e+04 1.868e-08
 24.70575    101.0 1.342e+04 2.986e-08
 24.72436     99.8 1.416e+04 4.050e-08
 24.73430     98.3 1.446e+04 4.545e-08
 24.74305     96.3 1.451e+04 4.441e-08
 24.75299     96.6 1.483e+04 5.276e-08
 24.76539     94.6 1.441e+04 3.896e-08
 24.78527     91.6 1.362e+04 2.346e-08
 24.80515     87.5 1.260e+04 1.621e-08
 24.82503     84.0 1.232e+04 1.604e-08
 24.84491     81.5 1.240e+04 1.728e-08
 24.85597     79.5 1.290e+04 2.213e-08
 24.86591     78.7 1.267e+04 1.951e-08
 24.88467     76.4 1.371e+04 3.105e-08
 24.90455     74.3 1.486e+04 5.534e-08
 24.92443     72.9 1.585e+04 8.707e-08
 24.94037     72.0 1.629e+04 9.524e-08
 24.95031     73.2 1.596e+04 9.430e-08
 24.96419     72.4 1.646e+04 1.013e-07
 24.97764     71.6 1.637e+04 8.879e-08
 24.98758     72.1 1.626e+04 8.227e-08
 25.00394     70.9 1.578e+04 4.546e-08
 25.02382     67.9 1.457e+04 2.171e-08
 25.04370     64.3 1.295e+04 1.262e-08
 25.06358     61.8 1.174e+04 1.020e-08
 25.08346     61.0 1.143e+04 9.315e-09
 25.09931     60.7 1.135e+04 8.746e-09
 25.10925     61.8 1.149e+04 8.945e-09
 25.13326     60.4 1.103e+04 7.163e-09
 25.17312     59.0 1.047e+04 5.571e-09
 25.21123     58.1 1.006e+04 4.378e-09
 25.23111     58.9 1.015e+04 4.313e-09
 25.25263     57.7 9.813e+03 3.606e-09
 25.29239     57.1 9.861e+03 3.693e-09
 25.32526     56.6 1.004e+04 4.316e-09
 25.34514     57.7 1.036e+04 5.119e-09
 25.37191     57.5 1.050e+04 5.840e-09
 25.41167     57.5 1.055e+04 5.951e-09
 25.45143     57.8 1.045e+04 5.668e-09
 25.47444     58.6 1.027e+04 4.732e-09
 25.49432     57.3 1.016e+04 3.589e-09
 25.53095     58.6 9.910e+03 2.473e-09
 25.57071     60.1 9.715e+03 1.831e-09
 25.61047     61.9 9.496e+03 1.534e-09
 25.65023     63.9 9.335e+03 1.452e-09
 25.68998     66.2 9.246e+03 1.410e-09
 25.71778     68.5 9.168e+03 1.377e-09
 25.72780     69.0 9.088e+03 9.453e-10
 25.73977     69.9 9.129e+03 1.012e-09
 25.76950     72.3 9.126e+03 1.010e-09
 25.80926     74.6 9.144e+03 1.028e-09
 25.84902     76.7 9.245e+03 1.135e-09
 25.88878     78.4 9.482e+03 1.419e-09
 25.92854     79.4 9.581e+03 1.669e-09
 25.95826     81.0 9.616e+03 1.915e-09
 25.97086     81.2 9.893e+03 2.430e-09
 25.98080     81.4 9.797e+03 2.048e-09
 25.99792     80.3 1.086e+04 3.982e-09
 26.01780     77.9 1.294e+04 1.387e-08
 26.03164     76.6 1.397e+04 2.476e-08
 26.03656     76.6 1.385e+04 2.357e-08
 26.04255     75.4 1.482e+04 3.836e-08
 26.05249     73.1 1.673e+04 7.332e-08
 26.06243     69.4 1.900e+04 1.799e-07
 26.07237     64.3 1.991e+04 5.302e-07
 26.08231     56.6 1.979e+04 1.438e-06
 26.09225     44.6 1.872e+04 3.862e-06
 26.09739     30.9 1.787e+04 6.916e-06
 26.10236     30.1 1.816e+04 4.290e-06
 26.11213     22.0 1.825e+04 2.676e-06
 26.11920     17.9 1.844e+04 1.225e-06
 26.12417     19.8 1.849e+04 1.182e-06
 26.13201     17.9 1.840e+04 6.865e-07
 26.14195     16.6 1.848e+04 4.229e-07
 26.15189     15.2 1.856e+04 2.670e-07
 26.15823     13.5 1.830e+04 1.889e-07
 26.16320     12.7 1.752e+04 1.323e-07
 26.17177     10.8 1.737e+04 1.189e-07
 26.18171     10.5 1.713e+04 1.144e-07
 26.19667      9.6 1.733e+04 1.260e-07
 26.21419      8.3 1.652e+04 9.466e-08
 26.22413      7.6 1.508e+04 4.955e-08
 26.23648      6.3 1.379e+04 2.794e-08
 26.25636      3.5 1.223e+04 1.438e-08
 26.27624     -0.2 1.085e+04 8.458e-09
 26.29611     -2.5 1.016e+04 7.209e-09
 26.31165     -3.2 1.007e+04 7.879e-09
 26.32159     -2.9 1.016e+04 8.653e-09
 26.33586     -2.9 1.028e+04 8.865e-09
 26.35574     -3.6 1.015e+04 6.990e-09
 26.37563     -4.3 1.022e+04 6.249e-09
 26.39551     -6.3 1.035e+04 5.849e-09
 26.41539     -8.6 1.034e+04 6.478e-09
 26.43527    -10.1 1.049e+04 7.993e-09
 26.45515    -11.1 1.090e+04 9.822e-09
 26.46746    -11.8 1.138e+04 1.135e-08
 26.47740    -12.3 1.087e+04 7.530e-09
 26.49491    -13.7 1.087e+04 7.507e-09
 26.50896    -14.9 1.081e+04 6.851e-09
 26.51890    -15.9 1.064e+04 6.423e-09
 26.53467    -16.9 1.041e+04 6.179e-09
 26.55455    -17.7 1.026e+04 5.775e-09
 26.57443    -18.7 1.017e+04 5.468e-09
 26.58913    -19.6 9.997e+03 5.225e-09
 26.59907    -19.3 9.970e+03 4.989e-09
 26.61419    -19.7 9.822e+03 4.856e-09
 26.63407    -19.9 9.671e+03 4.637e-09
 26.65395    -20.0 9.580e+03 4.231e-09
 26.67383    -20.4 9.576e+03 3.818e-09
 26.69371    -21.3 9.540e+03 3.516e-09
 26.70628    -22.2 9.434e+03 3.410e-09
 26.71343    -23.9 9.420e+03 3.489e-09
 26.72074    -23.4 9.422e+03 3.373e-09
 26.73346    -23.8 9.407e+03 3.539e-09
 26.75334    -24.1 9.374e+03 3.618e-09
 26.77322    -24.2 9.417e+03 3.688e-09
 26.79310    -25.0 9.372e+03 3.699e-09
 26.81298    -26.3 9.821e+03 4.273e-09
 26.83247    -29.6 1.045e+04 5.719e-09
 26.84240    -30.6 1.100e+04 6.772e-09
 26.85274    -33.4 1.187e+04 1.221e-08
 26.87262    -34.7 1.204e+04 1.820e-08
 26.89250    -34.9 1.206e+04 2.131e-08
 26.90360    -35.2 1.164e+04 1.845e-08
 26.91354    -37.6 1.113e+04 1.448e-08
 26.93226    -38.8 1.043e+04 9.027e-09
 26.95214    -40.6 9.543e+03 5.517e-09
 26.96407    -42.3 8.874e+03 4.252e-09
 26.97401    -43.2 8.585e+03 3.786e-09
 26.99190    -43.9 8.559e+03 3.887e-09
 27.01178    -44.6 8.891e+03 4.559e-09
 27.03166    -45.6 9.786e+03 6.361e-09
 27.05154    -47.0 1.086e+04 1.014e-08
 27.07142    -47.9 1.152e+04 1.580e-08
 27.08574    -47.6 1.194e+04 2.221e-08
 27.09536    -47.5 1.122e+04 1.515e-08
 27.10091    -48.5 1.149e+04 1.837e-08
 27.11118    -47.8 1.169e+04 1.977e-08
 27.13106    -47.6 1.184e+04 1.979e-08
 27.15094    -47.7 1.188e+04 1.785e-08
 27.17081    -48.3 1.168e+04 1.616e-08
 27.19069    -48.7 1.165e+04 1.603e-08
 27.20741    -48.9 1.175e+04 1.720e-08
 27.21735    -48.8 1.199e+04 1.884e-08
 27.23045    -49.0 1.234e+04 2.247e-08
 27.25033    -49.0 1.273e+04 2.710e-08
 27.27021    -48.8 1.309e+04 3.151e-08
 27.28829    -48.8 1.331e+04 3.388e-08
 27.29823    -49.4 1.237e+04 2.177e-08
 27.30997    -49.3 1.231e+04 2.076e-08
 27.32907    -49.2 1.207e+04 1.772e-08
 27.33901    -49.1 1.272e+04 2.580e-08
 27.34973    -48.7 1.216e+04 2.043e-08
 27.36961    -48.5 1.175e+04 1.600e-08
 27.39953    -49.3 1.054e+04 8.413e-09
 27.43938    -48.2 9.404e+03 4.111e-09
 27.46088    -47.1 8.780e+03 2.227e-09
 27.48076    -46.4 9.259e+03 3.135e-09
 27.51890    -45.7 8.999e+03 2.379e-09
 27.55866    -44.7 8.991e+03 2.301e-09
 27.59842    -44.3 9.231e+03 2.734e-09
 27.63818    -43.9 9.309e+03 3.305e-09
 27.67318    -43.7 9.388e+03 3.485e-09
 27.69306    -44.9 9.307e+03 3.071e-09
 27.70421    -45.1 9.417e+03 3.010e-09
 27.72409    -44.4 9.415e+03 2.568e-09
 27.75746    -44.9 9.567e+03 2.459e-09
 27.78718    -45.3 9.884e+03 2.487e-09
 27.80696    -45.5 1.008e+04 2.561e-09
 27.82568    -46.2 1.024e+04 2.963e-09
 27.83562    -45.7 1.025e+04 2.961e-09
 27.84672    -45.9 1.041e+04 3.669e-09
 27.86660    -46.0 1.052e+04 4.262e-09
 27.88024    -45.9 1.063e+04 4.672e-09
 27.89018    -46.8 1.064e+04 4.957e-09
 27.90636    -46.7 1.063e+04 4.800e-09
 27.92624    -46.7 1.062e+04 4.490e-09
 27.94612    -46.7 1.058e+04 4.112e-09
 27.95729    -46.6 1.056e+04 3.850e-09
 27.96723    -46.1 1.056e+04 3.898e-09
 27.98588    -46.1 1.039e+04 3.613e-09
 28.00576    -45.8 1.044e+04 3.662e-09
 28.03567    -45.4 1.042e+04 3.705e-09
 28.06781    -44.4 1.046e+04 4.352e-09
 28.08769    -46.7 1.085e+04 7.124e-09
 28.11529    -45.3 1.121e+04 1.005e-08
 28.15505    -43.8 1.160e+04 1.242e-08
 28.19088    -42.6 1.174e+04 1.296e-08
 28.21076    -41.9 1.166e+04 1.195e-08
 28.23457    -40.8 1.184e+04 1.212e-08
 28.26429    -39.6 1.188e+04 1.099e-08
 28.27488    -39.3 1.191e+04 1.005e-08
 28.28482    -41.3 1.181e+04 9.768e-09
 28.30395    -41.7 1.194e+04 8.786e-09
 28.32229    -42.8 1.212e+04 8.482e-09
 28.33223    -43.5 1.316e+04 1.085e-08
 28.34371    -46.1 1.359e+04 1.293e-08
 28.36359    -46.9 1.385e+04 1.941e-08
 28.38347    -46.9 1.353e+04 1.984e-08
 28.40335    -47.4 1.278e+04 1.416e-08
 28.42323    -47.9 1.223e+04 1.118e-08
 28.44311    -47.5 1.213e+04 1.009e-08
 28.45399    -45.8 1.226e+04 9.336e-09
 28.46320    -48.3 1.209e+04 7.430e-09
 28.48223    -49.5 1.178e+04 5.745e-09
 28.50284    -47.2 1.167e+04 4.844e-09
 28.52262    -46.3 1.160e+04 4.292e-09
 28.54250    -45.0 1.153e+04 3.861e-09
 28.56238    -44.0 1.146e+04 3.687e-09
 28.57556    -42.9 1.173e+04 3.844e-09
 28.58550    -43.6 1.190e+04 4.144e-09
 28.60214    -42.9 1.194e+04 4.759e-09
 28.62202    -42.0 1.196e+04 5.571e-09
 28.64190    -41.0 1.205e+04 6.712e-09
 28.65957    -39.7 1.229e+04 8.021e-09
 28.66951    -40.5 1.228e+04 8.167e-09
 28.68166    -40.0 1.221e+04 8.378e-09
 28.69733    -37.9 1.237e+04 9.143e-09
 28.71731    -39.7 1.250e+04 9.172e-09
 28.75143    -37.8 1.227e+04 7.879e-09
 28.79119    -36.6 1.227e+04 7.074e-09
 28.83095    -36.1 1.256e+04 8.516e-09
 28.85698    -36.9 1.266e+04 1.261e-08
 28.87686    -37.3 1.227e+04 1.166e-08
 28.90043    -36.6 1.215e+04 1.350e-08
 28.92021    -35.7 1.198e+04 1.244e-08
 28.94009    -35.0 1.155e+04 1.002e-08
 28.95051    -34.2 1.122e+04 7.941e-09
 28.96044    -34.8 1.065e+04 5.063e-09
 28.97985    -34.1 1.035e+04 3.816e-09
 28.99973    -33.4 1.011e+04 2.908e-09
 29.02965    -32.3 1.001e+04 2.297e-09
 29.06951    -30.0 9.865e+03 2.053e-09
 29.10926    -27.8 9.850e+03 1.853e-09
 29.14902    -25.5 9.667e+03 2.651e-09
 29.18409    -23.3 9.816e+03 3.010e-09
 29.20397    -23.7 9.811e+03 2.959e-09
 29.22854    -22.1 9.903e+03 3.915e-09
 29.25172    -20.8 1.018e+04 5.164e-09
 29.27160    -21.7 9.711e+03 4.356e-09
 29.30806    -20.8 9.986e+03 5.946e-09
 29.33778    -19.8 1.001e+04 6.344e-09
 29.35756    -19.2 9.903e+03 6.432e-09
 29.37744    -18.8 9.844e+03 6.362e-09
 29.39732    -18.4 9.762e+03 6.273e-09
 29.41720    -18.0 9.695e+03 6.166e-09
 29.43708    -17.6 9.631e+03 5.986e-09
 29.44884    -17.7 9.587e+03 5.735e-09
 29.45878    -18.6 9.454e+03 5.670e-09
 29.47684    -18.5 9.456e+03 5.472e-09
 29.49672    -18.4 9.457e+03 5.434e-09
 29.51660    -18.2 9.446e+03 5.596e-09
 29.53648    -17.9 9.471e+03 5.886e-09
 29.55636    -18.2 9.706e+03 6.446e-09
 29.56878    -18.8 1.004e+04 7.368e-09
 29.57872    -20.6 1.036e+04 8.660e-09
 29.59612    -21.6 1.095e+04 1.117e-08
 29.61600    -23.3 1.165e+04 1.531e-08
 29.63588    -25.1 1.207e+04 1.936e-08
 29.64615    -26.4 1.217e+04 2.184e-08
 29.65609    -27.1 1.157e+04 1.795e-08
 29.67564    -27.2 1.129e+04 1.701e-08
 29.69045    -27.5 1.103e+04 1.210e-08
 29.70039    -28.5 1.072e+04 8.945e-09
 29.71540    -30.1 1.015e+04 6.236e-09
 29.73528    -31.6 9.873e+03 4.684e-09
 29.75515    -33.3 9.656e+03 4.071e-09
 29.77503    -34.4 9.709e+03 4.099e-09
 29.79491    -36.3 1.011e+04 5.166e-09
 29.81211    -37.8 1.066e+04 7.796e-09
 29.82205    -37.9 1.047e+04 7.132e-09
 29.83353    -38.5 1.091e+04 1.096e-08
 29.84347    -39.0 1.091e+04 1.120e-08
 29.85455    -38.7 1.139e+04 1.468e-08
 29.87443    -38.4 1.162e+04 1.577e-08
 29.89431    -38.5 1.151e+04 1.407e-08
 29.91419    -39.0 1.125e+04 1.168e-08
 29.93378    -39.8 1.098e+04 9.772e-09
 29.94372    -39.8 1.078e+04 8.618e-09
 29.95395    -40.6 1.066e+04 8.058e-09
 29.97383    -41.1 1.074e+04 8.210e-09
 29.99371    -41.9 1.095e+04 9.230e-09
 30.01359    -42.4 1.112e+04 1.062e-08
 30.03085    -42.5 1.120e+04 1.189e-08
 30.04079    -43.2 1.103e+04 1.051e-08
 30.05335    -43.2 1.098e+04 1.031e-08
 30.06539    -42.9 1.075e+04 8.706e-09
 30.07533    -42.5 1.075e+04 8.658e-09
 30.09311    -42.1 1.039e+04 6.534e-09
 30.11299    -41.7 1.003e+04 4.576e-09
 30.13287    -41.4 9.795e+03 3.076e-09
 30.15275    -41.3 9.662e+03 2.278e-09
 30.17721    -41.5 9.650e+03 1.952e-09
 30.19719    -40.5 9.727e+03 1.923e-09
 30.22252    -39.3 9.799e+03 1.898e-09
 30.26228    -38.1 9.986e+03 2.421e-09
 30.29200    -37.5 1.010e+04 3.211e-09
 30.30872    -36.9 1.050e+04 3.668e-09
 30.31866    -36.4 1.032e+04 3.358e-09
 30.33166    -35.7 1.050e+04 4.222e-09
 30.35154    -35.5 1.081e+04 4.960e-09
 30.37142    -35.1 1.072e+04 6.751e-09
 30.39130    -34.9 1.114e+04 8.086e-09
 30.41118    -35.0 1.143e+04 1.055e-08
 30.42548    -35.9 1.228e+04 1.381e-08
 30.43475    -37.6 1.223e+04 1.228e-08
 30.44033    -37.1 1.244e+04 1.411e-08
 30.45094    -38.9 1.310e+04 2.298e-08
 30.47082    -39.8 1.372e+04 3.332e-08
 30.49070    -40.8 1.416e+04 3.910e-08
 30.51058    -42.7 1.425e+04 3.599e-08
 30.53046    -44.9 1.379e+04 3.004e-08
 30.55034    -46.8 1.326e+04 2.446e-08
 30.56200    -48.6 1.291e+04 1.982e-08
 30.57194    -48.0 1.309e+04 2.170e-08
 30.59010    -50.1 1.286e+04 1.905e-08
 30.60997    -52.0 1.271e+04 1.819e-08
 30.62280    -53.4 1.265e+04 1.796e-08
 30.63274    -54.5 1.260e+04 1.803e-08
 30.64973    -55.6 1.245e+04 1.702e-08
 30.66961    -56.5 1.221e+04 1.554e-08
 30.68366    -57.3 1.202e+04 1.409e-08
 30.69360    -57.2 1.164e+04 1.132e-08
 30.70937    -57.8 1.153e+04 1.043e-08
 30.72925    -58.4 1.154e+04 1.024e-08
 30.74913    -59.4 1.176e+04 1.042e-08
 30.76901    -61.3 1.239e+04 1.264e-08
 30.78889    -63.7 1.308e+04 1.965e-08
 30.80533    -65.5 1.377e+04 3.170e-08
 30.81527    -66.1 1.418e+04 3.580e-08
 30.82012    -67.1 1.521e+04 6.087e-08
 30.83006    -67.7 1.481e+04 5.173e-08
 30.84853    -68.6 1.507e+04 5.353e-08
 30.86841    -70.3 1.481e+04 4.222e-08
 30.88829    -72.1 1.398e+04 2.901e-08
 30.90817    -73.4 1.301e+04 2.093e-08
 30.92700    -74.0 1.243e+04 1.728e-08
 30.93694    -73.6 1.294e+04 2.316e-08
 30.94793    -73.7 1.275e+04 2.134e-08
 30.96781    -73.8 1.273e+04 2.104e-08
 30.98769    -73.9 1.305e+04 2.293e-08
 31.00749    -74.4 1.365e+04 2.957e-08
 31.02737    -74.8 1.367e+04 3.094e-08
 31.04732    -74.9 1.426e+04 3.996e-08
 31.05861    -75.3 1.446e+04 4.303e-08
 31.06855    -74.5 1.468e+04 4.703e-08
 31.08708    -74.9 1.467e+04 4.652e-08
 31.10696    -75.3 1.421e+04 3.497e-08
 31.12684    -76.0 1.358e+04 2.268e-08
 31.14672    -77.0 1.289e+04 1.490e-08
 31.16660    -77.9 1.231e+04 1.134e-08
 31.18027    -78.5 1.205e+04 1.035e-08
 31.19021    -77.5 1.233e+04 1.199e-08
 31.20481    -78.0 1.205e+04 1.108e-08
 31.21475    -77.5 1.209e+04 1.108e-08
 31.22624    -77.7 1.207e+04 1.193e-08
 31.24612    -77.6 1.217e+04 1.326e-08
 31.26600    -77.5 1.225e+04 1.405e-08
 31.28588    -77.5 1.224e+04 1.416e-08
 31.30194    -77.5 1.210e+04 1.383e-08
 31.31188    -76.8 1.189e+04 1.180e-08
 31.32564    -76.9 1.175e+04 1.143e-08
 31.34552    -76.9 1.166e+04 1.133e-08
 31.36540    -77.0 1.160e+04 1.155e-08
 31.38528    -76.9 1.158e+04 1.174e-08
 31.40213    -76.7 1.155e+04 1.157e-08
 31.41207    -75.9 1.165e+04 1.166e-08
 31.42361    -75.6 1.153e+04 1.103e-08
 31.43355    -75.1 1.158e+04 1.142e-08
 31.44492    -74.6 1.153e+04 1.081e-08
 31.46479    -74.1 1.144e+04 9.832e-09
 31.48467    -73.7 1.134e+04 8.815e-09
 31.50455    -73.4 1.125e+04 7.960e-09
 31.53447    -73.5 1.108e+04 7.125e-09
 31.57433    -72.7 1.132e+04 8.281e-09
 31.59964    -72.2 1.164e+04 9.907e-09
 31.60948    -70.9 1.203e+04 1.278e-08
 31.62383    -70.8 1.235e+04 1.542e-08
 31.64371    -70.6 1.268e+04 1.884e-08
 31.66359    -70.6 1.277e+04 1.917e-08
 31.67688    -70.6 1.271e+04 1.796e-08
 31.68682    -70.3 1.275e+04 1.870e-08
 31.70335    -71.2 1.253e+04 1.662e-08
 31.72323    -72.5 1.207e+04 1.376e-08
 31.74311    -74.0 1.183e+04 1.242e-08
 31.76299    -75.2 1.162e+04 1.153e-08
 31.78287    -75.7 1.156e+04 1.199e-08
 31.79676    -75.8 1.143e+04 1.158e-08
 31.80250    -76.3 1.190e+04 1.433e-08
 31.80849    -76.3 1.203e+04 1.531e-08
 31.82263    -76.3 1.154e+04 1.224e-08
 31.85254    -75.9 1.112e+04 9.960e-09
 31.89240    -74.9 1.082e+04 8.402e-09
 31.92041    -74.1 1.085e+04 8.154e-09
 31.94029    -73.9 1.068e+04 7.184e-09
 31.97192    -73.6 1.113e+04 8.770e-09
 31.99418    -73.8 1.180e+04 1.349e-08
 32.00402    -74.2 1.188e+04 1.395e-08
 32.02142    -74.8 1.252e+04 1.944e-08
 32.04130    -75.2 1.311e+04 2.595e-08
 32.05182    -75.6 1.354e+04 3.214e-08
 32.06176    -75.4 1.341e+04 2.995e-08
 32.08106    -75.9 1.351e+04 3.154e-08
 32.10094    -76.3 1.331e+04 3.016e-08
 32.12082    -76.6 1.276e+04 2.308e-08
 32.14070    -77.2 1.217e+04 1.584e-08
 32.16058    -78.3 1.173e+04 1.106e-08
 32.17349    -79.9 1.152e+04 9.136e-09
 32.18343    -80.2 1.072e+04 7.040e-09
 32.19140    -81.7 1.064e+04 6.826e-09
 32.20134    -82.8 1.231e+04 1.113e-08
 32.22022    -84.4 1.263e+04 1.287e-08
 32.24010    -85.9 1.281e+04 1.568e-08
 32.25998    -87.0 1.282e+04 1.890e-08
 32.27986    -87.7 1.290e+04 2.225e-08
 32.29516    -88.1 1.311e+04 2.506e-08
 32.30510    -88.0 1.256e+04 2.094e-08
 32.31962    -88.4 1.282e+04 2.331e-08
 32.33949    -88.9 1.290e+04 2.416e-08
 32.35937    -89.2 1.285e+04 2.371e-08
 32.37877    -89.5 1.261e+04 2.115e-08
 32.38871    -89.5 1.261e+04 2.069e-08
 32.39913    -89.6 1.232e+04 1.791e-08
 32.41682    -89.6 1.192e+04 1.432e-08
 32.42676    -88.9 1.187e+04 1.420e-08
 32.43889    -89.0 1.147e+04 1.125e-08
 32.45877    -89.1 1.120e+04 9.243e-09
 32.47865    -89.2 1.104e+04 8.282e-09
 32.49853    -89.1 1.100e+04 8.086e-09
 32.51841    -88.7 1.107e+04 8.527e-09
 32.53829    -88.1 1.122e+04 9.572e-09
 32.54843    -87.3 1.135e+04 1.087e-08
 32.55837    -86.3 1.098e+04 8.653e-09
 32.57609    -85.6 1.111e+04 9.794e-09
 32.58603    -85.3 1.102e+04 8.134e-09
 32.59793    -84.6 1.113e+04 9.230e-09
 32.61781    -83.8 1.123e+04 1.041e-08
 32.63769    -83.0 1.133e+04 1.149e-08
 32.65757    -82.1 1.136e+04 1.211e-08
 32.67010    -81.2 1.134e+04 1.227e-08
 32.68004    -80.1 1.109e+04 1.042e-08
 32.69733    -79.0 1.101e+04 1.019e-08
 32.71721    -77.9 1.082e+04 8.918e-09
 32.73709    -76.8 1.057e+04 7.370e-09
 32.75697    -75.7 1.033e+04 6.083e-09
 32.77341    -74.6 1.011e+04 5.150e-09
 32.78335    -74.2 1.012e+04 5.143e-09
 32.79176    -72.9 9.936e+03 4.354e-09
 32.80170    -71.9 9.898e+03 4.176e-09
 32.81660    -70.4 9.784e+03 3.526e-09
 32.84652    -68.6 9.902e+03 3.096e-09
 32.88638    -66.4 9.963e+03 3.019e-09
 32.91363    -63.9 9.932e+03 2.995e-09
 32.93351    -62.1 9.804e+03 2.686e-09
 32.96590    -58.9 9.801e+03 2.632e-09
 33.00565    -56.2 9.774e+03 2.599e-09
 33.04541    -53.3 9.742e+03 2.657e-09
 33.08517    -50.3 9.562e+03 2.530e-09
 33.12493    -47.6 9.496e+03 2.463e-09
 33.15465    -44.7 9.534e+03 2.416e-09
 33.16671    -44.6 9.568e+03 2.629e-09
 33.17035    -43.8 9.488e+03 2.160e-09
 33.17818    -42.7 9.433e+03 2.114e-09
 33.19441    -41.2 9.652e+03 2.665e-09
 33.21419    -41.0 9.634e+03 3.141e-09
 33.23407    -39.9 9.680e+03 4.209e-09
 33.25395    -39.0 9.908e+03 5.338e-09
 33.27383    -38.1 1.028e+04 6.927e-09
 33.28837    -37.6 1.063e+04 8.817e-09
 33.29831    -36.8 1.052e+04 7.866e-09
 33.31359    -36.4 1.092e+04 1.041e-08
 33.33347    -36.1 1.124e+04 1.362e-08
 33.35335    -35.7 1.148e+04 1.699e-08
 33.36536    -34.9 1.165e+04 1.909e-08
 33.37530    -34.4 1.188e+04 2.086e-08
 33.39311    -33.7 1.210e+04 2.280e-08
 33.41004    -33.4 1.211e+04 2.213e-08
 33.41998    -32.6 1.214e+04 2.202e-08
 33.43287    -32.3 1.198e+04 1.864e-08
 33.45275    -32.9 1.171e+04 1.510e-08
 33.47263    -33.6 1.137e+04 1.286e-08
 33.49251    -34.1 1.115e+04 1.181e-08
 33.51239    -34.2 1.111e+04 1.161e-08
 33.53171    -34.2 1.120e+04 1.192e-08
 33.54165    -33.1 1.117e+04 1.214e-08
 33.55215    -32.7 1.137e+04 1.256e-08
 33.56267    -32.4 1.149e+04 1.293e-08
 33.57261    -32.6 1.145e+04 1.245e-08
 33.59191    -32.3 1.126e+04 1.227e-08
 33.61179    -31.9 1.109e+04 1.244e-08
 33.63166    -31.5 1.110e+04 1.329e-08
 33.65154    -31.1 1.129e+04 1.467e-08
 33.66331    -30.4 1.159e+04 1.661e-08
 33.67325    -29.1 1.153e+04 1.641e-08
 33.69130    -28.3 1.179e+04 1.842e-08
 33.71118    -27.4 1.189e+04 1.993e-08
 33.73106    -26.1 1.190e+04 2.073e-08
 33.75005    -24.7 1.188e+04 2.037e-08
 33.75999    -24.0 1.155e+04 1.719e-08
 33.77082    -22.8 1.156e+04 1.667e-08
 33.78498    -21.5 1.150e+04 1.661e-08
 33.79492    -20.5 1.160e+04 1.809e-08
 33.81058    -19.2 1.185e+04 1.877e-08
 33.83046    -18.2 1.213e+04 1.965e-08
 33.85034    -17.6 1.241e+04 2.029e-08
 33.87022    -17.2 1.281e+04 2.185e-08
 33.89010    -16.7 1.368e+04 2.353e-08
 33.90496    -15.2 1.398e+04 2.630e-08
 33.91152    -15.0 1.399e+04 2.648e-08
 33.91649    -12.8 1.404e+04 3.570e-08
 33.92479    -12.6 1.466e+04 3.925e-08
 33.93473    -13.2 1.547e+04 4.429e-08
 33.94467    -14.7 1.738e+04 5.835e-08
 33.95224    -17.6 2.010e+04 9.790e-08
 33.95721    -12.9 1.666e+04 5.493e-08
 33.96455    -15.5 1.900e+04 8.297e-08
 33.97235    -18.7 2.046e+04 1.638e-07
 33.97732    -19.4 2.031e+04 2.588e-07
 33.98443    -21.7 1.959e+04 4.764e-07
 33.99437    -23.2 1.898e+04 6.478e-07
 34.00431    -24.7 1.902e+04 6.341e-07
 34.01425    -27.1 1.961e+04 5.332e-07
 34.02419    -30.6 2.094e+04 4.216e-07
 34.03319    -36.0 2.216e+04 2.909e-07
 34.03816    -36.9 2.023e+04 1.366e-07
 34.04407    -41.8 1.868e+04 1.181e-07
 34.05090    -44.9 1.839e+04 1.163e-07
 34.05587    -45.1 1.866e+04 1.229e-07
 34.06395    -47.2 1.859e+04 1.287e-07
 34.07389    -48.1 1.886e+04 1.423e-07
 34.08383    -48.9 1.903e+04 1.644e-07
 34.09377    -49.0 1.898e+04 1.766e-07
 34.09899    -48.8 1.873e+04 1.785e-07
 34.10396    -48.4 1.843e+04 1.502e-07
 34.11365    -48.6 1.844e+04 1.649e-07
 34.12359    -49.0 1.822e+04 1.774e-07
 34.13353    -49.3 1.818e+04 1.795e-07
 34.14347    -49.4 1.790e+04 1.683e-07
 34.14956    -49.2 1.818e+04 1.544e-07
 34.15453    -49.0 1.728e+04 1.102e-07
 34.15982    -49.3 1.698e+04 8.437e-08
 34.16981    -48.2 1.625e+04 6.588e-08
 34.18829    -50.5 1.532e+04 3.823e-08
 34.20817    -53.8 1.421e+04 2.710e-08
 34.22805    -56.0 1.397e+04 2.657e-08
 34.24793    -57.4 1.392e+04 2.851e-08
 34.26781    -58.5 1.386e+04 3.015e-08
 34.28159    -59.2 1.365e+04 3.009e-08
 34.29153    -60.0 1.274e+04 2.256e-08
 34.30757    -60.5 1.223e+04 2.091e-08
 34.32745    -60.7 1.162e+04 1.804e-08
 34.34200    -60.6 1.108e+04 1.509e-08
 34.35194    -60.1 1.066e+04 1.254e-08
 34.36721    -60.0 1.033e+04 1.063e-08
 34.38709    -59.6 1.003e+04 8.944e-09
 34.40326    -59.3 9.975e+03 8.119e-09
 34.41320    -60.0 1.066e+04 9.423e-09
 34.42685    -60.3 1.122e+04 9.890e-09
 34.44673    -61.2 1.266e+04 1.362e-08
 34.46661    -61.6 1.445e+04 2.508e-08
 34.48648    -61.4 1.585e+04 4.618e-08
 34.50636    -60.1 1.696e+04 7.863e-08
 34.52123    -58.6 1.626e+04 6.883e-08
 34.52980    -58.4 1.698e+04 8.564e-08
 34.53477    -58.5 1.676e+04 9.858e-08
 34.53922    -57.9 1.738e+04 1.295e-07
 34.54419    -56.8 1.514e+04 6.921e-08
 34.55100    -55.9 1.564e+04 7.838e-08
 34.56094    -55.2 1.660e+04 9.756e-08
 34.57088    -55.0 1.763e+04 1.312e-07
 34.58082    -54.9 1.832e+04 1.883e-07
 34.59063    -54.8 1.859e+04 2.815e-07
 34.59560    -54.9 1.853e+04 2.822e-07
 34.60069    -54.5 1.869e+04 4.411e-07
 34.61063    -54.3 1.863e+04 6.626e-07
 34.62057    -54.1 1.840e+04 9.132e-07
 34.63051    -53.7 1.819e+04 1.128e-06
 34.63788    -53.2 1.802e+04 1.228e-06
 34.64285    -51.7 1.880e+04 3.624e-07
 34.65039    -51.1 1.871e+04 4.716e-07
 34.65643    -50.6 1.865e+04 5.634e-07
 34.66140    -50.6 1.891e+04 3.255e-07
 34.67027    -49.9 1.862e+04 3.149e-07
 34.68021    -49.1 1.820e+04 2.841e-07
 34.69015    -48.0 1.781e+04 2.492e-07
 34.70009    -46.7 1.756e+04 2.114e-07
 34.71003    -45.8 1.737e+04 1.738e-07
 34.72499    -45.1 1.706e+04 1.403e-07
 34.73664    -43.5 1.731e+04 1.103e-07
 34.74658    -42.1 1.636e+04 9.981e-08
 34.76480    -39.6 1.602e+04 9.337e-08
 34.77820    -37.7 1.614e+04 9.437e-08
 34.78814    -37.7 1.532e+04 6.676e-08
 34.80456    -36.6 1.687e+04 8.480e-08
 34.82444    -35.9 1.857e+04 1.134e-07
 34.84432    -35.5 1.982e+04 1.392e-07
 34.86420    -35.4 2.036e+04 1.485e-07
 34.88408    -36.3 1.993e+04 1.485e-07
 34.89986    -38.1 1.957e+04 1.008e-07
 34.90980    -37.7 2.007e+04 1.226e-07
 34.92383    -41.9 1.911e+04 5.815e-08
 34.93395    -47.5 1.488e+04 2.716e-08
 34.93887    -39.7 2.082e+04 1.012e-07
 34.94859    -42.4 1.937e+04 6.721e-08
 34.96354    -45.3 1.803e+04 4.530e-08
 34.98347    -50.6 1.266e+04 2.065e-08
 35.00335    -52.4 1.131e+04 1.482e-08
 35.02153    -53.5 1.074e+04 1.082e-08
 35.03147    -56.1 1.003e+04 8.101e-09
 35.04311    -56.6 9.340e+03 6.359e-09
 35.06299    -56.6 8.846e+03 5.230e-09
 35.08287    -55.9 8.495e+03 4.472e-09
 35.10275    -55.2 8.260e+03 3.961e-09
 35.12133    -54.7 8.105e+03 3.598e-09
 35.13127    -54.4 8.080e+03 3.721e-09
 35.14251    -53.9 7.985e+03 3.471e-09
 35.15314    -53.5 7.971e+03 3.373e-09
 35.16308    -53.6 7.677e+03 2.837e-09
 35.18227    -53.2 7.666e+03 2.769e-09
 35.20215    -52.8 7.662e+03 2.758e-09
 35.22203    -52.5 7.794e+03 2.883e-09
 35.24191    -52.4 7.985e+03 3.256e-09
 35.26179    -52.0 8.318e+03 3.998e-09
 35.27481    -51.8 8.871e+03 5.151e-09
 35.28475    -51.9 8.584e+03 4.271e-09
 35.30155    -51.9 9.246e+03 5.916e-09
 35.31865    -53.0 1.045e+04 9.397e-09
 35.32859    -52.5 1.040e+04 1.024e-08
 35.34131    -53.5 1.193e+04 1.747e-08
 35.36118    -54.6 1.370e+04 3.475e-08
 35.38106    -55.2 1.535e+04 7.719e-08
 35.39647    -55.4 1.667e+04 1.675e-07
 35.40641    -55.2 1.597e+04 8.921e-08
 35.42082    -56.1 1.718e+04 1.735e-07
 35.43568    -56.9 1.768e+04 2.919e-07
 35.44557    -57.5 1.764e+04 3.342e-07
 35.45551    -57.9 1.755e+04 3.489e-07
 35.46218    -58.3 1.751e+04 3.454e-07
 35.46715    -58.4 1.784e+04 2.953e-07
 35.47539    -59.0 1.782e+04 2.988e-07
 35.48533    -59.5 1.769e+04 2.578e-07
 35.49527    -60.3 1.722e+04 1.919e-07
 35.50521    -60.7 1.652e+04 1.379e-07
 35.51515    -60.8 1.580e+04 9.773e-08
 35.52084    -61.0 1.516e+04 7.180e-08
 35.52377    -61.1 1.586e+04 9.524e-08
 35.52808    -61.0 1.623e+04 1.172e-07
 35.54010    -61.2 1.479e+04 5.881e-08
 35.55998    -61.9 1.334e+04 3.242e-08
 35.57986    -62.5 1.226e+04 2.159e-08
 35.59974    -62.9 1.150e+04 1.710e-08
 35.61962    -63.0 1.112e+04 1.568e-08
 35.63950    -62.4 1.101e+04 1.544e-08
 35.64975    -61.8 1.110e+04 1.584e-08
 35.65969    -62.1 1.140e+04 1.415e-08
 35.67926    -61.6 1.141e+04 1.420e-08
 35.69914    -61.1 1.149e+04 1.455e-08
 35.71328    -61.1 1.186e+04 1.543e-08
 35.72322    -64.0 1.428e+04 2.245e-08
 35.73890    -67.9 1.788e+04 3.907e-08
 35.75376    -70.7 1.886e+04 6.304e-08
 35.76365    -72.2 1.916e+04 9.702e-08
 35.77132    -73.7 1.892e+04 1.548e-07
 35.77629    -75.0 1.856e+04 3.015e-07
 35.78353    -75.6 1.850e+04 4.385e-07
 35.79347    -76.1 1.840e+04 4.993e-07
 35.80341    -76.2 1.821e+04 4.917e-07
 35.81184    -75.8 1.807e+04 3.961e-07
 35.81681    -76.9 1.812e+04 3.585e-07
 35.82329    -77.1 1.808e+04 2.413e-07
 35.83215    -78.1 1.783e+04 1.622e-07
 35.83712    -80.1 1.720e+04 1.333e-07
 35.84317    -80.7 1.655e+04 9.285e-08
 35.85311    -81.0 1.594e+04 6.769e-08
 35.86305    -81.1 1.546e+04 5.273e-08
 35.87299    -81.0 1.514e+04 4.386e-08
 35.88292    -80.9 1.486e+04 3.767e-08
 35.89286    -80.6 1.467e+04 3.280e-08
 35.89795    -80.2 1.457e+04 2.926e-08
 35.90297    -80.3 1.424e+04 2.898e-08
 35.91060    -78.8 1.365e+04 1.882e-08
 35.92054    -80.2 1.519e+04 2.968e-08
 35.93769    -78.3 1.509e+04 2.506e-08
 35.95757    -76.9 1.443e+04 1.895e-08
 35.97745    -75.6 1.394e+04 1.564e-08
 35.99733    -74.5 1.379e+04 1.433e-08
 36.01475    -73.5 1.369e+04 1.362e-08
 36.02469    -74.0 1.333e+04 8.073e-09
 36.03709    -73.0 1.325e+04 7.996e-09
 36.05697    -72.1 1.325e+04 8.119e-09
 36.07685    -71.3 1.326e+04 8.395e-09
 36.09673    -70.6 1.349e+04 8.767e-09
 36.10792    -70.5 1.438e+04 9.742e-09
 36.11785    -74.0 1.673e+04 2.937e-08
 36.13642    -73.9 1.626e+04 4.686e-08
 36.15630    -72.7 1.561e+04 3.327e-08
 36.17625    -72.1 1.530e+04 4.388e-08
 36.19613    -71.3 1.528e+04 5.035e-08
 36.21600    -70.3 1.516e+04 5.043e-08
 36.23588    -69.1 1.484e+04 4.184e-08
 36.25576    -67.7 1.457e+04 3.186e-08
 36.26802    -66.4 1.434e+04 2.188e-08
 36.27796    -65.9 1.431e+04 2.243e-08
 36.29529    -64.6 1.412e+04 1.573e-08
 36.30523    -64.9 1.381e+04 1.001e-08
 36.31540    -63.9 1.373e+04 6.388e-09
 36.33528    -62.9 1.370e+04 4.406e-09
 36.35516    -61.9 1.369e+04 3.260e-09
 36.37504    -60.8 1.378e+04 2.495e-09
 36.38969    -59.7 1.390e+04 1.992e-09
 36.39963    -59.5 1.417e+04 2.411e-09
 36.41480    -58.6 1.415e+04 2.001e-09
 36.43468    -57.6 1.401e+04 1.769e-09
 36.45456    -56.5 1.388e+04 1.670e-09
 36.47444    -55.5 1.379e+04 1.631e-09
 36.49261    -54.5 1.376e+04 1.617e-09
 36.50255    -54.5 1.366e+04 1.448e-09
 36.51136    -53.4 1.361e+04 1.439e-09
 36.52130    -53.5 1.365e+04 1.768e-09
 36.53408    -52.6 1.366e+04 1.743e-09
 36.55396    -51.7 1.365e+04 1.798e-09
 36.57384    -50.8 1.371e+04 2.078e-09
 36.59372    -50.1 1.378e+04 2.423e-09
 36.61360    -49.0 1.374e+04 3.020e-09
 36.63302    -47.9 1.361e+04 3.756e-09
 36.64296    -48.2 1.396e+04 4.518e-09
 36.66339    -46.9 1.399e+04 6.696e-09
 36.69002    -44.3 1.401e+04 8.534e-09
 36.69987    -44.4 1.387e+04 6.791e-09
 36.71299    -43.0 1.412e+04 1.027e-08
 36.73287    -41.7 1.439e+04 1.353e-08
 36.75275    -40.6 1.464e+04 2.013e-08
 36.76463    -39.5 1.482e+04 2.906e-08
 36.77457    -39.9 1.527e+04 4.071e-08
 36.79251    -38.9 1.575e+04 5.774e-08
 36.81239    -38.3 1.626e+04 7.783e-08
 36.83227    -38.2 1.671e+04 1.016e-07
 36.85215    -38.7 1.699e+04 1.309e-07
 36.87203    -39.2 1.725e+04 1.637e-07
 36.88630    -39.7 1.750e+04 1.795e-07
 36.89157    -41.0 1.738e+04 2.551e-07
 36.89713    -40.8 1.777e+04 5.652e-07
 36.90672    -40.8 1.770e+04 4.449e-07
 36.91666    -41.7 1.754e+04 3.088e-07
 36.92660    -42.6 1.726e+04 2.206e-07
 36.93654    -43.5 1.702e+04 1.652e-07
 36.95150    -44.8 1.658e+04 1.147e-07
 36.97143    -45.4 1.588e+04 6.725e-08
 36.99131    -45.7 1.516e+04 3.971e-08
 37.00796    -45.8 1.450e+04 2.614e-08
 37.01790    -46.1 1.449e+04 2.630e-08
 37.03107    -45.8 1.399e+04 1.956e-08
 37.05095    -45.4 1.373e+04 1.593e-08
 37.07082    -45.0 1.369e+04 1.431e-08
 37.08456    -44.7 1.370e+04 1.392e-08
 37.09450    -45.3 1.387e+04 1.988e-08
 37.11058    -45.2 1.405e+04 2.355e-08
 37.12963    -45.2 1.427e+04 2.973e-08
 37.13957    -45.5 1.465e+04 4.548e-08
 37.15034    -45.1 1.483e+04 5.283e-08
 37.17022    -44.5 1.491e+04 5.380e-08
 37.19010    -44.2 1.485e+04 4.534e-08
 37.20998    -44.0 1.454e+04 3.457e-08
 37.22986    -44.1 1.411e+04 2.743e-08
 37.24974    -44.2 1.360e+04 2.409e-08
 37.26124    -43.9 1.316e+04 2.275e-08
 37.27118    -43.7 1.274e+04 1.669e-08
 37.28188    -43.0 1.242e+04 1.686e-08
 37.29182    -42.8 1.264e+04 1.672e-08
 37.30938    -42.1 1.235e+04 1.615e-08
 37.32926    -41.4 1.211e+04 1.559e-08
 37.34914    -40.6 1.192e+04 1.522e-08
 37.36902    -39.9 1.183e+04 1.529e-08
 37.38291    -39.4 1.186e+04 1.594e-08
 37.39285    -38.9 1.206e+04 1.728e-08
 37.40878    -38.5 1.214e+04 1.888e-08
 37.42866    -38.2 1.224e+04 2.068e-08
 37.44854    -37.9 1.234e+04 2.221e-08
 37.46842    -37.6 1.237e+04 2.272e-08
 37.47919    -37.2 1.231e+04 2.254e-08
 37.48913    -37.3 1.228e+04 2.179e-08
 37.50457    -37.0 1.212e+04 1.964e-08
 37.51451    -36.9 1.259e+04 2.474e-08
 37.52805    -37.1 1.256e+04 2.322e-08
 37.54793    -37.7 1.270e+04 2.349e-08
 37.56781    -38.3 1.318e+04 2.806e-08
 37.58769    -38.5 1.372e+04 3.573e-08
 37.60757    -38.3 1.419e+04 4.428e-08
 37.62624    -38.0 1.444e+04 5.092e-08
 37.63618    -38.2 1.579e+04 1.005e-07
 37.64733    -37.6 1.561e+04 9.547e-08
 37.66657    -36.9 1.539e+04 7.906e-08
 37.67651    -38.4 1.543e+04 6.275e-08
 37.68709    -38.5 1.505e+04 4.675e-08
 37.70697    -38.9 1.485e+04 4.036e-08
 37.72685    -39.2 1.486e+04 3.885e-08
 37.74673    -39.5 1.501e+04 4.023e-08
 37.75785    -40.3 1.533e+04 4.784e-08
 37.76779    -42.0 1.512e+04 4.699e-08
 37.78649    -42.5 1.562e+04 5.935e-08
 37.80637    -42.9 1.603e+04 7.088e-08
 37.82625    -43.5 1.606e+04 7.394e-08
 37.84613    -43.9 1.554e+04 6.330e-08
 37.86389    -44.1 1.464e+04 4.466e-08
 37.87383    -44.6 1.478e+04 5.100e-08
 37.87951    -44.7 1.375e+04 3.265e-08
 37.88945    -44.8 1.337e+04 2.723e-08
 37.90577    -44.4 1.242e+04 1.771e-08
 37.92565    -43.9 1.178e+04 1.224e-08
 37.94552    -43.2 1.133e+04 9.036e-09
 37.96540    -42.4 1.097e+04 6.961e-09
 37.98528    -41.5 1.077e+04 5.626e-09
 38.00118    -40.6 1.063e+04 4.699e-09
 38.01112    -40.1 1.038e+04 3.847e-09
 38.02504    -39.2 1.017e+04 3.303e-09
 38.04492    -38.4 9.914e+03 2.983e-09
 38.06120    -37.5 9.755e+03 2.918e-09
 38.07114    -37.5 9.756e+03 2.639e-09
 38.08468    -36.5 9.700e+03 2.711e-09
 38.10456    -35.6 9.615e+03 2.925e-09
 38.12285    -34.7 9.591e+03 3.291e-09
 38.13279    -33.9 9.366e+03 2.703e-09
 38.14432    -33.2 9.368e+03 3.113e-09
 38.16420    -32.0 9.433e+03 3.736e-09
 38.18408    -30.8 9.531e+03 4.207e-09
 38.20396    -29.7 9.650e+03 4.771e-09
 38.22384    -28.9 9.564e+03 5.195e-09
 38.24372    -27.3 9.766e+03 5.926e-09
 38.25446    -26.8 9.709e+03 6.120e-09
 38.25932    -26.3 9.616e+03 5.570e-09
 38.26846    -26.3 9.548e+03 4.768e-09
 38.28348    -24.5 9.548e+03 5.337e-09
 38.30336    -24.2 9.543e+03 5.470e-09
 38.32324    -22.3 9.802e+03 6.955e-09
 38.34312    -22.1 9.827e+03 7.161e-09
 38.36299    -20.3 1.009e+04 9.136e-09
 38.37612    -19.5 1.044e+04 1.051e-08
 38.38606    -19.0 1.009e+04 8.849e-09
 38.40275    -17.7 1.053e+04 1.181e-08
 38.42263    -16.8 1.106e+04 1.438e-08
 38.44251    -16.0 1.160e+04 1.922e-08
 38.45584    -15.1 1.250e+04 2.745e-08
 38.46578    -14.8 1.171e+04 1.732e-08
 38.48227    -14.5 1.294e+04 2.489e-08
 38.49779    -14.3 1.388e+04 4.226e-08
 38.50773    -13.1 1.324e+04 2.675e-08
 38.52203    -13.0 1.469e+04 5.263e-08
 38.54191    -12.5 1.663e+04 1.221e-07
 38.55445    -13.5 1.739e+04 2.183e-07
 38.55937    -13.8 1.738e+04 2.021e-07
 38.56350    -15.6 1.786e+04 3.598e-07
 38.56847    -15.1 1.813e+04 4.008e-07
 38.57660    -16.5 1.777e+04 1.134e-06
 38.58654    -16.2 1.716e+04 3.603e-06
 38.59648    -16.0 1.677e+04 7.026e-06
 38.60642    -17.3 1.705e+04 4.725e-06
 38.61636    -17.1 1.745e+04 2.245e-06
 38.62433    -17.6 1.753e+04 1.416e-06
 38.62930    -18.7 1.751e+04 1.670e-06
 38.63624    -18.4 1.747e+04 1.441e-06
 38.64618    -18.3 1.746e+04 1.302e-06
 38.65306    -18.9 1.758e+04 1.120e-06
 38.65803    -20.3 1.752e+04 1.364e-06
 38.66606    -21.7 1.774e+04 1.265e-06
 38.67600    -24.0 1.797e+04 1.089e-06
 38.68516    -25.8 1.778e+04 8.940e-07
 38.69013    -26.6 1.722e+04 2.402e-06
 38.69588    -26.6 1.754e+04 1.677e-06
 38.70582    -26.3 1.815e+04 8.544e-07
 38.71576    -26.7 1.886e+04 3.874e-07
 38.72570    -27.7 1.862e+04 2.054e-07
 38.74066    -27.9 1.774e+04 1.226e-07
 38.75106    -26.8 1.547e+04 5.341e-08
 38.76100    -26.9 1.647e+04 7.829e-08
 38.78047    -26.0 1.463e+04 4.043e-08
 38.80034    -25.3 1.311e+04 2.595e-08
 38.82022    -24.0 1.186e+04 1.793e-08
 38.84010    -22.8 1.124e+04 1.392e-08
 38.85047    -21.5 1.102e+04 1.258e-08
 38.86041    -21.8 1.106e+04 1.219e-08
 38.87283    -19.3 1.122e+04 1.242e-08
 38.88277    -19.8 1.111e+04 1.080e-08
 38.89974    -18.8 1.092e+04 9.961e-09
 38.91962    -16.5 1.059e+04 8.095e-09
 38.93950    -15.8 1.054e+04 7.978e-09
 38.95938    -13.3 1.040e+04 7.522e-09
 38.97926    -12.6 1.040e+04 7.442e-09
 38.99440    -10.4 1.031e+04 6.303e-09
 39.00434    -10.4 1.018e+04 5.681e-09
 39.01902     -9.2 1.009e+04 5.519e-09
 39.03785     -7.4 1.016e+04 4.468e-09
 39.04779     -7.1 1.016e+04 4.158e-09
 39.05878     -6.1 1.017e+04 3.883e-09
 39.07866     -4.3 1.007e+04 3.576e-09
 39.09854     -3.1 1.022e+04 3.719e-09
 39.11607     -1.5 1.018e+04 3.459e-09
 39.12600     -1.6 1.030e+04 3.453e-09
 39.13830     -0.6 1.040e+04 3.472e-09
 39.15818      0.1 1.062e+04 3.950e-09
 39.17806      0.6 1.082e+04 5.227e-09
 39.19794      1.3 1.105e+04 7.135e-09
 39.21782      2.4 1.142e+04 9.787e-09
 39.23517      3.7 1.190e+04 1.166e-08
 39.24511      4.1 1.140e+04 7.112e-09
 39.25757      5.0 1.144e+04 5.482e-09
 39.27745      5.1 1.190e+04 4.311e-09
 39.29733      5.1 1.235e+04 3.748e-09
 39.31721      4.9 1.257e+04 3.906e-09
 39.33709      4.9 1.281e+04 4.630e-09
 39.35697      4.9 1.300e+04 6.353e-09
 39.36934      4.7 1.321e+04 9.685e-09
 39.37928      5.4 1.287e+04 6.830e-09
 39.39673      5.5 1.308e+04 9.712e-09
 39.41661      6.1 1.316e+04 1.282e-08
 39.43248      6.4 1.325e+04 1.343e-08
 39.44242      6.3 1.272e+04 8.740e-09
 39.45637      6.8 1.262e+04 8.071e-09
 39.47625      6.8 1.268e+04 6.768e-09
 39.49101      6.6 1.267e+04 6.384e-09
 39.50095      7.2 1.241e+04 4.971e-09
 39.51601      7.4 1.249e+04 5.325e-09
 39.53589      7.4 1.282e+04 6.463e-09
 39.55577      6.1 1.402e+04 1.141e-08
 39.57565      4.4 1.547e+04 3.663e-08
 39.59553      5.0 1.681e+04 1.200e-07
 39.61267      5.2 1.790e+04 2.328e-07
 39.62256      5.4 1.783e+04 2.522e-07
 39.62970      5.3 1.843e+04 3.872e-07
 39.63467      5.3 1.843e+04 3.358e-07
 39.64016      5.1 1.849e+04 5.293e-07
 39.65010      5.0 1.855e+04 7.301e-07
 39.66004      4.2 1.884e+04 8.816e-07
 39.66998      2.8 1.902e+04 7.722e-07
 39.67838      1.7 1.911e+04 5.385e-07
 39.68335      2.3 1.908e+04 7.957e-07
 39.68986      1.4 1.890e+04 5.252e-07
 39.69980      0.7 1.878e+04 3.483e-07
 39.70974     -0.7 1.969e+04 2.290e-07
 39.71968     -2.5 2.054e+04 1.482e-07
 39.72836     -3.9 1.987e+04 9.694e-08
 39.73333     -3.4 2.059e+04 1.546e-07
 39.73921     -5.2 2.096e+04 1.031e-07
 39.74418     -4.8 2.127e+04 2.112e-07
 39.74950     -7.6 2.339e+04 1.437e-07
 39.75943    -10.0 2.573e+04 9.454e-08
 39.76937    -10.3 2.478e+04 5.762e-08
 39.77931    -11.8 2.422e+04 3.531e-08
 39.79427    -18.4 1.982e+04 1.129e-08
 39.81420    -21.6 1.414e+04 4.887e-09
 39.82712    -20.8 1.241e+04 4.007e-09
 39.83706    -21.4 1.404e+04 6.182e-09
 39.85396    -20.5 1.283e+04 4.379e-09
 39.86605    -18.9 1.220e+04 3.925e-09
 39.87598    -19.3 1.262e+04 7.077e-09
 39.89372    -18.2 1.208e+04 6.186e-09
 39.92364    -16.7 1.190e+04 6.810e-09
 39.96349    -14.0 1.138e+04 5.292e-09
 40.00325    -11.7 1.132e+04 5.530e-09
 40.04301     -9.2 1.130e+04 7.324e-09
 40.08277     -6.1 1.122e+04 7.999e-09
 40.10948     -3.1 1.124e+04 5.847e-09
 40.11932     -3.4 1.107e+04 2.363e-09
 40.13227     -3.4 1.075e+04 1.973e-09
 40.15215     -2.7 1.064e+04 1.452e-09
 40.17203     -2.7 1.052e+04 1.317e-09
 40.19191     -2.0 1.027e+04 1.411e-09
 40.21179     -1.4 1.016e+04 1.567e-09
 40.23095     -2.3 1.041e+04 1.712e-09
 40.24089     -1.7 1.006e+04 1.370e-09
 40.25155     -1.7 1.028e+04 1.679e-09
 40.27143     -2.5 1.089e+04 2.854e-09
 40.29131     -3.6 1.164e+04 5.165e-09
 40.31119     -3.2 1.154e+04 1.050e-08
 40.33107     -1.7 1.146e+04 1.475e-08
 40.35095     -0.5 1.178e+04 1.402e-08
 40.36256     -0.4 1.180e+04 1.110e-08
 40.37250      0.2 1.163e+04 1.148e-08
 40.39071      0.1 1.174e+04 9.369e-09
 40.40913     -0.7 1.172e+04 7.960e-09
 40.41907     -1.0 1.152e+04 7.840e-09
 40.43047     -1.3 1.144e+04 8.382e-09
 40.45035     -1.3 1.149e+04 9.052e-09
 40.48026     -0.5 1.151e+04 1.035e-08
 40.52012      1.1 1.130e+04 7.318e-09
 40.55988      1.8 1.114e+04 3.831e-09
 40.59615      2.0 1.086e+04 2.356e-09
 40.61309      3.1 1.094e+04 2.989e-09
 40.61658      2.5 1.087e+04 2.834e-09
 40.63940      3.1 1.074e+04 2.429e-09
 40.67916      3.6 1.089e+04 2.524e-09
 40.71892      2.8 1.124e+04 3.443e-09
 40.75867      0.9 1.212e+04 5.901e-09
 40.79843     -1.1 1.251e+04 1.074e-08
 40.83819     -2.9 1.259e+04 1.236e-08
 40.85936     -3.9 1.222e+04 8.232e-09
 40.87924     -4.0 1.224e+04 8.856e-09
 40.91771     -4.6 1.201e+04 3.459e-09
 40.95747     -5.8 1.164e+04 1.864e-09
 40.99134     -5.5 1.129e+04 1.670e-09
 41.01121     -7.7 1.169e+04 2.243e-09
 41.03699     -6.9 1.150e+04 3.253e-09
 41.07675     -5.3 1.155e+04 4.472e-09
 41.10269     -4.0 1.172e+04 5.401e-09
 41.12257     -4.1 1.160e+04 4.553e-09
 41.15627     -2.9 1.166e+04 4.267e-09
 41.19602     -1.8 1.169e+04 4.141e-09
 41.23578     -1.2 1.176e+04 4.467e-09
 41.27554     -0.5 1.175e+04 5.662e-09
 41.31530      0.6 1.179e+04 6.276e-09
 41.34603      2.2 1.195e+04 4.046e-09
 41.36591      1.8 1.175e+04 5.273e-09
 41.38597      2.8 1.202e+04 3.261e-09
 41.40585      1.2 1.215e+04 1.895e-09
 41.43458      1.7 1.203e+04 1.668e-09
 41.47434      2.4 1.194e+04 1.842e-09
 41.51410      2.7 1.204e+04 2.214e-09
 41.55386      2.5 1.214e+04 2.621e-09
 41.58936      1.9 1.238e+04 2.841e-09
 41.60924      2.7 1.232e+04 3.099e-09
 41.62334      1.8 1.259e+04 3.910e-09
 41.64312     -0.5 1.296e+04 5.481e-09
 41.66300     -5.4 1.398e+04 1.104e-08
 41.68288     -7.9 1.403e+04 3.324e-08
 41.70276     -8.2 1.423e+04 5.378e-08
 41.72077     -8.7 1.440e+04 3.005e-08
 41.73071     -8.3 1.410e+04 2.794e-08
 41.74252    -10.9 1.340e+04 1.498e-08
 41.76240    -13.6 1.271e+04 1.006e-08
 41.78051    -14.8 1.198e+04 7.430e-09
 41.80048    -16.5 1.209e+04 7.012e-09
 41.83217    -16.2 1.196e+04 4.953e-09
 41.85258    -15.4 1.193e+04 4.891e-09
 41.87246    -14.6 1.174e+04 3.461e-09
 41.91169    -13.8 1.174e+04 4.149e-09
 41.95145    -13.0 1.188e+04 4.728e-09
 41.99121    -12.5 1.200e+04 4.984e-09
 42.03097    -11.9 1.186e+04 5.292e-09
 42.07072    -11.4 1.208e+04 4.156e-09
 42.09591    -12.0 1.244e+04 3.366e-09
 42.11579    -11.9 1.251e+04 4.522e-09
 42.15024    -13.9 1.271e+04 6.463e-09
 42.17524    -14.9 1.255e+04 9.707e-09
 42.19512    -15.3 1.232e+04 1.086e-08
 42.22976    -15.8 1.214e+04 7.098e-09
 42.26952    -17.3 1.220e+04 2.985e-09
 42.30928    -19.4 1.206e+04 2.307e-09
 42.33924    -20.5 1.195e+04 3.279e-09
 42.35912    -20.8 1.177e+04 2.927e-09
 42.38880    -20.4 1.190e+04 4.089e-09
 42.42856    -20.7 1.193e+04 3.656e-09
 42.46832    -21.0 1.221e+04 2.167e-09
 42.50807    -22.3 1.228e+04 1.683e-09
 42.54783    -22.8 1.226e+04 1.652e-09
 42.56987    -23.2 1.220e+04 1.684e-09
 42.58474    -24.6 1.220e+04 1.674e-09
 42.60246    -24.3 1.205e+04 1.789e-09
 42.62735    -25.0 1.216e+04 1.536e-09
 42.66711    -25.6 1.221e+04 1.520e-09
 42.70687    -25.9 1.212e+04 1.867e-09
 42.74663    -25.9 1.199e+04 1.949e-09
 42.78639    -25.8 1.196e+04 1.473e-09
 42.82591    -26.1 1.186e+04 1.103e-09
 42.84579    -25.3 1.205e+04 8.074e-10
 42.86591    -25.2 1.185e+04 7.532e-10
 42.90566    -24.4 1.162e+04 7.192e-10
 42.94463    -23.6 1.161e+04 6.121e-10
 42.96450    -24.1 1.167e+04 5.440e-10
 42.98518    -23.9 1.171e+04 4.870e-10
 43.02494    -23.7 1.179e+04 5.207e-10
 43.06470    -23.5 1.155e+04 7.640e-10
 43.08913    -22.3 1.154e+04 9.580e-10
 43.10901    -22.2 1.154e+04 1.214e-09
 43.14422    -21.4 1.164e+04 1.024e-09
 43.18398    -20.9 1.188e+04 7.091e-10
 43.22374    -20.6 1.188e+04 6.309e-10
 43.26350    -20.0 1.222e+04 6.727e-10
 43.30326    -20.9 1.235e+04 1.249e-09
 43.33236    -20.7 1.201e+04 4.160e-09
 43.34221    -20.2 1.210e+04 5.316e-09
 43.34900    -20.4 1.215e+04 5.614e-09
 43.35904    -20.3 1.212e+04 5.554e-09
 43.38277    -19.5 1.263e+04 1.071e-08
 43.42253    -19.8 1.302e+04 1.169e-08
 43.46229    -21.6 1.326e+04 7.805e-09
 43.50205    -22.9 1.328e+04 7.782e-09
 43.54181    -23.6 1.323e+04 8.248e-09
 43.57580    -24.0 1.329e+04 5.992e-09
 43.59558    -25.0 1.350e+04 8.720e-09
 43.61119    -25.5 1.345e+04 7.676e-09
 43.63107    -25.8 1.353e+04 7.495e-09
 43.65095    -26.3 1.352e+04 8.099e-09
 43.67083    -26.5 1.362e+04 9.728e-09
 43.69071    -26.7 1.375e+04 1.308e-08
 43.70721    -26.9 1.389e+04 1.793e-08
 43.71715    -27.2 1.401e+04 2.032e-08
 43.73047    -27.2 1.413e+04 2.213e-08
 43.74364    -27.5 1.431e+04 2.125e-08
 43.75358    -27.6 1.379e+04 1.908e-08
 43.77023    -27.9 1.382e+04 1.903e-08
 43.79011    -28.6 1.356e+04 1.617e-08
 43.80999    -29.3 1.331e+04 1.348e-08
 43.82887    -30.2 1.299e+04 1.186e-08
 43.83881    -30.2 1.305e+04 1.033e-08
 43.84975    -30.8 1.296e+04 1.024e-08
 43.86963    -31.3 1.294e+04 1.074e-08
 43.88951    -31.8 1.287e+04 1.173e-08
 43.90939    -32.3 1.277e+04 1.191e-08
 43.92927    -32.3 1.245e+04 1.093e-08
 43.94095    -32.3 1.223e+04 8.010e-09
 43.95089    -32.4 1.204e+04 6.525e-09
 43.96048    -32.8 1.180e+04 4.335e-09
 43.97042    -32.5 1.190e+04 4.530e-09
 43.98890    -32.8 1.162e+04 3.314e-09
 44.01882    -32.9 1.115e+04 2.635e-09
 44.05868    -31.6 1.105e+04 2.014e-09
 44.08225    -30.5 1.116e+04 1.993e-09
 44.10213    -30.2 1.100e+04 1.896e-09
 44.12853    -29.4 1.099e+04 2.410e-09
 44.14841    -29.4 1.093e+04 1.874e-09
 44.17796    -28.7 1.085e+04 2.778e-09
 44.20391    -27.8 1.113e+04 4.300e-09
 44.21375    -27.5 1.105e+04 3.750e-09
 44.22746    -27.6 1.103e+04 3.867e-09
 44.24734    -26.7 1.121e+04 4.289e-09
 44.26722    -26.3 1.122e+04 4.237e-09
 44.28710    -25.8 1.119e+04 4.049e-09
 44.30698    -25.7 1.107e+04 3.754e-09
 44.32548    -25.3 1.096e+04 3.554e-09
 44.34546    -24.0 1.052e+04 2.511e-09
 44.37675    -22.8 1.051e+04 2.241e-09
 44.41651    -21.7 1.043e+04 1.821e-09
 44.45627    -20.7 1.042e+04 1.740e-09
 44.49603    -20.0 1.062e+04 2.322e-09
 44.52306    -19.1 1.096e+04 3.451e-09
 44.53291    -19.3 1.101e+04 3.857e-09
 44.54553    -19.3 1.107e+04 5.148e-09
 44.56541    -18.3 1.124e+04 7.226e-09
 44.57876    -17.7 1.146e+04 8.585e-09
 44.58870    -17.0 1.119e+04 7.496e-09
 44.60517    -16.0 1.123e+04 9.157e-09
 44.62505    -15.4 1.124e+04 9.232e-09
 44.65497    -14.5 1.115e+04 7.942e-09
 44.69482    -13.2 1.104e+04 6.089e-09
 44.73458    -12.1 1.108e+04 5.455e-09
 44.77434    -10.8 1.116e+04 6.677e-09
 44.81235     -8.9 1.129e+04 7.918e-09
 44.83223     -7.9 1.104e+04 6.635e-09
 44.85386     -6.0 1.104e+04 6.006e-09
 44.89362     -4.2 1.103e+04 5.866e-09
 44.91779     -2.4 1.120e+04 6.806e-09
 44.93767     -2.7 1.104e+04 5.736e-09
 44.97314     -0.9 1.123e+04 6.374e-09
 45.01290      1.2 1.142e+04 7.543e-09
 45.05266      3.3 1.158e+04 8.444e-09
 45.07556      5.2 1.186e+04 9.778e-09
 45.09544      6.1 1.181e+04 8.846e-09
 45.11501      7.2 1.213e+04 1.144e-08
 45.12486      7.2 1.183e+04 9.396e-09
 45.14192      8.4 1.181e+04 9.106e-09
 45.16180      9.2 1.196e+04 9.471e-09
 45.18168      9.6 1.212e+04 1.059e-08
 45.19703     10.0 1.229e+04 1.273e-08
 45.20697     10.6 1.211e+04 1.018e-08
 45.22144     11.0 1.237e+04 1.297e-08
 45.24132     11.1 1.270e+04 1.722e-08
 45.26119     11.2 1.297e+04 2.248e-08
 45.28107     11.2 1.298e+04 2.469e-08
 45.30095     11.5 1.272e+04 2.212e-08
 45.31223     11.9 1.220e+04 1.556e-08
 45.32004     11.8 1.210e+04 1.553e-08
 45.32864     11.9 1.225e+04 1.714e-08
 45.34071     12.5 1.173e+04 1.236e-08
 45.36059     12.4 1.133e+04 7.330e-09
 45.38047     11.5 1.106e+04 4.397e-09
 45.40035     10.6 1.065e+04 3.170e-09
 45.42023     10.4 1.027e+04 2.731e-09
 45.44011     10.8 1.003e+04 2.580e-09
 45.45031     10.9 9.943e+03 2.569e-09
 45.46025     11.5 1.002e+04 2.740e-09
 45.48991     11.8 9.988e+03 2.639e-09
 45.52976     12.4 9.994e+03 2.727e-09
 45.56223     13.4 9.869e+03 2.442e-09
 45.58211     14.0 1.002e+04 2.827e-09
 45.60928     14.5 1.003e+04 2.403e-09
 45.64904     14.6 1.011e+04 2.545e-09
 45.68718     15.0 1.011e+04 2.785e-09
 45.70696     15.4 1.026e+04 3.421e-09
 45.71842     15.4 1.031e+04 3.581e-09
 45.73830     15.2 1.043e+04 3.743e-09
 45.75818     14.4 1.066e+04 4.172e-09
 45.77806     13.6 1.075e+04 5.204e-09
 45.79794     13.7 1.076e+04 6.428e-09
 45.81531     13.9 1.093e+04 7.030e-09
 45.82525     14.2 1.097e+04 7.159e-09
 45.83770     14.6 1.094e+04 6.752e-09
 45.85758     14.4 1.098e+04 6.445e-09
 45.88750     15.2 1.074e+04 4.968e-09
 45.92735     15.8 1.043e+04 4.347e-09
 45.96711     16.5 1.040e+04 4.636e-09
 46.00687     17.5 1.050e+04 5.903e-09
 46.04663     19.1 1.078e+04 7.413e-09
 46.06868     20.1 1.084e+04 7.324e-09
 46.07852     20.1 1.103e+04 7.648e-09
 46.09156     20.7 1.114e+04 7.788e-09
 46.10150     20.6 1.095e+04 6.601e-09
 46.11602     21.1 1.101e+04 6.730e-09
 46.13589     21.6 1.108e+04 6.980e-09
 46.15577     22.4 1.108e+04 7.124e-09
 46.17565     22.8 1.119e+04 7.365e-09
 46.20557     24.0 1.111e+04 6.240e-09
 46.24543     25.6 1.114e+04 5.876e-09
 46.28519     27.4 1.123e+04 5.562e-09
 46.31211     29.6 1.147e+04 5.965e-09
 46.32195     29.4 1.144e+04 5.334e-09
 46.33469     30.2 1.159e+04 5.668e-09
 46.35457     31.2 1.182e+04 6.219e-09
 46.37445     32.1 1.205e+04 6.915e-09
 46.39433     32.6 1.243e+04 8.912e-09
 46.41421     33.2 1.289e+04 1.275e-08
 46.43358     33.5 1.343e+04 1.988e-08
 46.44352     34.4 1.294e+04 1.171e-08
 46.45397     34.5 1.371e+04 2.131e-08
 46.47385     34.6 1.469e+04 3.737e-08
 46.48615     33.4 1.567e+04 5.818e-08
 46.49107     32.9 1.523e+04 4.924e-08
 46.49860     31.8 1.595e+04 7.095e-08
 46.50426     30.6 1.655e+04 1.048e-07
 46.50923     30.6 1.651e+04 9.731e-08
 46.51848     29.8 1.714e+04 1.593e-07
 46.52842     29.5 1.766e+04 2.311e-07
 46.53836     28.9 1.787e+04 2.430e-07
 46.54830     28.7 1.764e+04 2.156e-07
 46.55824     28.1 1.741e+04 1.611e-07
 46.56509     27.3 1.674e+04 9.320e-08
 46.57006     27.6 1.666e+04 9.045e-08
 46.57812     25.7 1.592e+04 6.252e-08
 46.59308     25.9 1.484e+04 3.422e-08
 46.61300     24.2 1.417e+04 1.594e-08
 46.63288     22.5 1.328e+04 1.155e-08
 46.65276     22.2 1.318e+04 1.174e-08
 46.67264     21.5 1.330e+04 1.374e-08
 46.68351     20.9 1.355e+04 1.996e-08
 46.68779     21.8 1.334e+04 1.688e-08
 46.69680     22.5 1.296e+04 1.137e-08
 46.71240     22.3 1.308e+04 1.540e-08
 46.73228     22.2 1.299e+04 1.546e-08
 46.75216     22.7 1.263e+04 1.263e-08
 46.77204     22.9 1.235e+04 8.103e-09
 46.79192     22.7 1.220e+04 4.863e-09
 46.80852     22.1 1.201e+04 3.153e-09
 46.81846     23.4 1.192e+04 3.369e-09
 46.83168     24.1 1.164e+04 2.324e-09
 46.85156     24.1 1.164e+04 2.183e-09
 46.87099     24.6 1.140e+04 1.959e-09
 46.89096     26.5 1.132e+04 1.837e-09
 46.92133     28.0 1.109e+04 1.708e-09
 46.96109     30.1 1.104e+04 2.010e-09
 47.00085     32.2 1.107e+04 2.777e-09
 47.03057     34.0 1.103e+04 3.408e-09
 47.05035     35.1 1.117e+04 4.022e-09
 47.06180     36.1 1.121e+04 4.451e-09
 47.06971     37.0 1.113e+04 4.113e-09
 47.07815     37.7 1.113e+04 4.215e-09
 47.09011     38.7 1.125e+04 4.839e-09
 47.10999     39.5 1.131e+04 5.284e-09
 47.12987     40.3 1.131e+04 5.570e-09
 47.14975     41.1 1.128e+04 5.597e-09
 47.16963     42.0 1.122e+04 5.425e-09
 47.18346     42.7 1.114e+04 5.033e-09
 47.19340     43.8 1.123e+04 5.426e-09
 47.20939     44.5 1.112e+04 5.025e-09
 47.22927     45.2 1.105e+04 4.550e-09
 47.24915     45.9 1.100e+04 4.143e-09
 47.26552     46.4 1.094e+04 3.863e-09
 47.27546     47.1 1.105e+04 4.497e-09
 47.28891     47.8 1.096e+04 4.199e-09
 47.30513     48.5 1.087e+04 4.065e-09
 47.31507     49.5 1.102e+04 4.636e-09
 47.32867     50.2 1.092e+04 4.454e-09
 47.34855     51.0 1.090e+04 4.474e-09
 47.36843     51.7 1.095e+04 4.737e-09
 47.38831     52.3 1.108e+04 5.295e-09
 47.40819     52.8 1.140e+04 6.506e-09
 47.42680     53.0 1.188e+04 9.078e-09
 47.43674     54.4 1.163e+04 8.092e-09
 47.44794     54.2 1.252e+04 1.273e-08
 47.46284     53.5 1.429e+04 2.654e-08
 47.47278     56.0 1.316e+04 1.940e-08
 47.48770     55.5 1.503e+04 3.690e-08
 47.50256     54.5 1.656e+04 6.483e-08
 47.51246     54.3 1.687e+04 8.760e-08
 47.52741     54.6 1.750e+04 1.195e-07
 47.54734     53.8 1.824e+04 1.625e-07
 47.55836     52.0 1.913e+04 1.633e-07
 47.56253     52.6 1.920e+04 1.874e-07
 47.56637     53.5 1.923e+04 2.193e-07
 47.57209     52.9 1.928e+04 2.439e-07
 47.58203     50.6 2.037e+04 2.328e-07
 47.59197     49.1 2.065e+04 1.933e-07
 47.60191     44.9 2.175e+04 1.065e-07
 47.61185     42.8 2.131e+04 7.104e-08
 47.62681     37.0 1.813e+04 3.548e-08
 47.64674     29.7 1.215e+04 1.812e-08
 47.66016     23.8 1.379e+04 1.485e-08
 47.67010     26.3 1.528e+04 3.068e-08
 47.68007     18.9 1.513e+04 3.443e-08
 47.69001     18.0 1.561e+04 4.145e-08
 47.70638     14.5 1.461e+04 5.347e-08
 47.72626     13.8 1.463e+04 5.911e-08
 47.74614     13.6 1.479e+04 4.397e-08
 47.76602     11.2 1.547e+04 2.570e-08
 47.78590      8.6 1.412e+04 1.742e-08
 47.80174      6.8 1.243e+04 1.240e-08
 47.81168      6.7 1.220e+04 1.094e-08
 47.82566      7.2 1.177e+04 9.984e-09
 47.84553      7.5 1.134e+04 8.800e-09
 47.85747      8.3 1.121e+04 7.996e-09
 47.86741      8.5 1.205e+04 1.162e-08
 47.88529      9.1 1.166e+04 9.354e-09
 47.91521     10.0 1.075e+04 5.543e-09
 47.95507     10.9 1.030e+04 4.114e-09
 47.99483     12.2 1.028e+04 4.290e-09
 48.03459     14.2 1.026e+04 4.612e-09
 48.05489     15.9 1.040e+04 3.622e-09
 48.05553     16.1 1.018e+04 2.393e-09
 48.06495     16.5 1.020e+04 2.654e-09
 48.08409     16.8 1.006e+04 2.416e-09
 48.11401     18.1 1.012e+04 2.105e-09
 48.15386     19.7 1.004e+04 2.065e-09
 48.19362     20.9 1.014e+04 2.300e-09
 48.23338     22.0 1.020e+04 2.786e-09
 48.27314     23.0 1.026e+04 3.072e-09
 48.29854     24.2 1.030e+04 2.929e-09
 48.30839     24.3 1.032e+04 3.363e-09
 48.32264     24.6 1.030e+04 3.342e-09
 48.34252     25.5 1.022e+04 3.022e-09
 48.36240     25.6 1.024e+04 2.881e-09
 48.38228     25.8 1.015e+04 2.825e-09
 48.40216     25.9 1.016e+04 2.882e-09
 48.42002     25.9 1.033e+04 3.052e-09
 48.42996     26.4 1.032e+04 3.267e-09
 48.43949     26.6 1.038e+04 3.364e-09
 48.44942     26.4 1.025e+04 2.737e-09
 48.46180     26.6 1.024e+04 2.507e-09
 48.48168     26.4 1.017e+04 2.410e-09
 48.50156     26.3 1.020e+04 2.217e-09
 48.52144     26.2 1.019e+04 2.282e-09
 48.54132     26.6 9.956e+03 2.412e-09
 48.55162     27.0 1.002e+04 2.508e-09
 48.56156     27.4 1.000e+04 2.556e-09
 48.58108     27.9 1.002e+04 2.835e-09
 48.60096     28.4 1.003e+04 3.114e-09
 48.62084     28.9 1.013e+04 3.400e-09
 48.63680     29.2 1.031e+04 3.745e-09
 48.64674     29.8 1.027e+04 3.786e-09
 48.66060     29.9 1.057e+04 4.604e-09
 48.67329     29.7 1.084e+04 5.980e-09
 48.68323     30.4 1.069e+04 5.792e-09
 48.70036     29.1 1.188e+04 8.871e-09
 48.72023     25.4 1.313e+04 1.731e-08
 48.74011     26.0 1.343e+04 4.010e-08
 48.75999     26.8 1.360e+04 4.540e-08
 48.77987     27.9 1.338e+04 3.143e-08
 48.79496     26.1 1.355e+04 1.729e-08
 48.80490     27.4 1.336e+04 1.744e-08
 48.81963     24.6 1.239e+04 1.009e-08
 48.83412     23.3 1.139e+04 8.779e-09
 48.84406     24.5 1.151e+04 8.735e-09
 48.85939     24.4 1.133e+04 8.091e-09
 48.87927     24.3 1.139e+04 8.573e-09
 48.89915     24.3 1.146e+04 1.053e-08
 48.91662     24.3 1.170e+04 1.259e-08
 48.92656     25.6 1.140e+04 1.000e-08
 48.93891     25.9 1.167e+04 1.340e-08
 48.95879     26.4 1.205e+04 1.650e-08
 48.97867     27.0 1.231e+04 1.891e-08
 48.99855     27.7 1.238e+04 1.897e-08
 49.01843     28.1 1.248e+04 1.721e-08
 49.03144     28.2 1.225e+04 1.409e-08
 49.04136     29.3 1.303e+04 2.357e-08
 49.05817     30.6 1.285e+04 2.020e-08
 49.07807     30.3 1.226e+04 1.559e-08
 49.09795     30.1 1.154e+04 1.315e-08
 49.11783     30.6 1.102e+04 1.166e-08
 49.13770     31.3 1.095e+04 1.063e-08
 49.15758     31.6 1.089e+04 1.001e-08
 49.16990     32.4 1.069e+04 1.017e-08
 49.17984     33.2 1.077e+04 1.022e-08
 49.19734     33.7 1.085e+04 1.079e-08
 49.21722     34.4 1.086e+04 1.202e-08
 49.22875     35.4 1.091e+04 1.307e-08
 49.23869     35.8 1.102e+04 1.390e-08
 49.25698     36.7 1.114e+04 1.539e-08
 49.27686     37.9 1.111e+04 1.629e-08
 49.29156     39.4 1.112e+04 1.655e-08
 49.30150     40.1 1.124e+04 1.715e-08
 49.31662     40.9 1.140e+04 1.803e-08
 49.33650     42.5 1.121e+04 1.711e-08
 49.35638     43.6 1.129e+04 1.721e-08
 49.37626     45.0 1.116e+04 1.658e-08
 49.39614     46.5 1.100e+04 1.583e-08
 49.41323     47.9 1.089e+04 1.501e-08
 49.42317     48.1 1.089e+04 1.488e-08
 49.42607     49.3 1.069e+04 1.361e-08
 49.43601     50.5 1.076e+04 1.432e-08
 49.45578     52.1 1.056e+04 1.302e-08
 49.47566     53.3 1.111e+04 1.350e-08
 49.49554     50.6 1.480e+04 2.273e-08
 49.51542     44.1 1.871e+04 5.988e-08
 49.53028     41.7 1.959e+04 1.202e-07
 49.53977     39.3 1.907e+04 4.293e-07
 49.54474     39.2 1.921e+04 1.662e-07
 49.55011     38.2 1.842e+04 5.377e-07
 49.56005     37.7 1.836e+04 1.077e-06
 49.56999     35.3 1.884e+04 1.248e-06
 49.57993     31.1 2.011e+04 8.408e-07
 49.58987     23.8 2.099e+04 4.187e-07
 49.59981     15.6 1.990e+04 1.481e-07
 49.60557      8.5 1.653e+04 6.569e-08
 49.61054     11.5 1.808e+04 1.013e-07
 49.61832      9.1 1.723e+04 7.244e-08
 49.62329      6.7 1.724e+04 6.095e-08
 49.63464     -0.4 1.345e+04 2.540e-08
 49.65457     -3.7 1.155e+04 1.527e-08
 49.66651     -4.0 1.117e+04 1.331e-08
 49.67645     -3.2 1.158e+04 1.636e-08
 49.69433     -2.8 1.125e+04 1.347e-08
 49.71421     -2.6 1.059e+04 9.765e-09
 49.73409     -3.0 9.950e+03 7.066e-09
 49.75397     -3.4 9.470e+03 5.615e-09
 49.77385     -3.6 9.182e+03 4.929e-09
 49.78817     -3.6 8.981e+03 4.494e-09
 49.79811     -3.2 9.002e+03 4.604e-09
 49.81076     -3.4 8.831e+03 4.232e-09
 49.82070     -2.7 9.111e+03 5.101e-09
 49.83349     -3.1 8.966e+03 4.706e-09
 49.85337     -3.7 8.856e+03 4.453e-09
 49.87325     -4.4 8.806e+03 4.325e-09
 49.89313     -5.2 8.798e+03 4.277e-09
 49.90984     -6.4 8.865e+03 4.329e-09
 49.91978     -5.6 8.639e+03 3.994e-09
 49.93289     -7.9 8.840e+03 4.243e-09
 49.95277    -11.8 9.820e+03 6.358e-09
 49.97265    -15.4 1.126e+04 1.246e-08
 49.99253    -17.6 1.250e+04 2.284e-08
 50.00808    -18.9 1.330e+04 3.226e-08
 50.01802    -18.6 1.269e+04 2.449e-08
 50.03151    -20.4 1.287e+04 2.635e-08
 50.04145    -19.9 1.306e+04 2.878e-08
 50.05216    -21.7 1.286e+04 2.724e-08
 50.07204    -23.5 1.200e+04 1.925e-08
 50.09192    -25.8 1.107e+04 1.299e-08
 50.11180    -28.0 1.044e+04 1.022e-08
 50.13168    -29.4 1.021e+04 9.169e-09
 50.15156    -30.4 1.019e+04 8.711e-09
 50.16311    -31.3 1.026e+04 8.382e-09
 50.17305    -31.9 1.037e+04 8.866e-09
 50.19132    -33.3 1.049e+04 8.784e-09
 50.20540    -35.7 1.092e+04 8.955e-09
 50.21534    -34.8 1.116e+04 1.104e-08
 50.23108    -38.3 1.199e+04 1.306e-08
 50.25096    -42.2 1.283e+04 1.845e-08
 50.27084    -45.5 1.343e+04 2.643e-08
 50.28478    -48.2 1.380e+04 3.166e-08
 50.29472    -50.0 1.419e+04 3.568e-08
 50.31060    -53.1 1.405e+04 3.250e-08
 50.33048    -56.3 1.332e+04 2.454e-08
 50.35036    -59.1 1.225e+04 1.748e-08
 50.37024    -61.3 1.130e+04 1.327e-08
 50.39012    -62.6 1.068e+04 1.105e-08
 50.40271    -63.5 1.032e+04 9.433e-09
 50.40911    -64.8 1.082e+04 1.173e-08
 50.41639    -66.4 1.083e+04 1.163e-08
 50.42987    -67.2 1.057e+04 1.034e-08
 50.44975    -68.0 1.040e+04 9.755e-09
 50.46963    -68.6 1.034e+04 9.636e-09
 50.48951    -69.2 1.033e+04 9.658e-09
 50.50939    -69.8 1.041e+04 1.000e-08
 50.52812    -70.4 1.061e+04 1.053e-08
 50.53806    -71.6 1.064e+04 1.062e-08
 50.54915    -72.2 1.100e+04 1.148e-08
 50.56903    -73.2 1.146e+04 1.292e-08
 50.58891    -74.4 1.191e+04 1.520e-08
 50.60003    -75.4 1.226e+04 1.832e-08
 50.60997    -77.5 1.246e+04 2.276e-08
 50.62867    -77.9 1.248e+04 2.344e-08
 50.64855    -78.1 1.244e+04 2.310e-08
 50.65972    -78.2 1.234e+04 2.033e-08
 50.66966    -79.4 1.235e+04 2.037e-08
 50.68831    -79.7 1.230e+04 1.692e-08
 50.70819    -80.1 1.229e+04 1.441e-08
 50.72807    -80.4 1.227e+04 1.324e-08
 50.74795    -80.4 1.223e+04 1.289e-08
 50.76783    -80.2 1.218e+04 1.270e-08
 50.78139    -79.9 1.211e+04 1.241e-08
 50.79103    -81.1 1.212e+04 1.310e-08
 50.79735    -81.8 1.189e+04 1.111e-08
 50.80759    -81.2 1.178e+04 1.056e-08
 50.82747    -80.4 1.167e+04 1.011e-08
 50.84735    -79.5 1.156e+04 9.474e-09
 50.86722    -78.5 1.145e+04 8.639e-09
 50.88710    -77.6 1.133e+04 7.733e-09
 50.90306    -76.7 1.118e+04 6.844e-09
 50.91300    -77.5 1.087e+04 5.153e-09
 50.92686    -76.5 1.068e+04 4.728e-09
 50.94674    -75.4 1.052e+04 4.474e-09
 50.96662    -74.2 1.040e+04 4.325e-09
 50.98473    -72.9 1.030e+04 4.218e-09
 50.99467    -73.3 1.016e+04 4.301e-09
 51.00638    -72.0 1.001e+04 4.046e-09
 51.02472    -70.6 9.882e+03 3.735e-09
 51.03466    -70.6 9.883e+03 3.746e-09
 51.04614    -69.1 9.757e+03 3.414e-09
 51.06602    -67.5 9.648e+03 3.104e-09
 51.08590    -66.1 9.587e+03 2.902e-09
 51.10578    -64.8 9.545e+03 2.807e-09
 51.12566    -63.1 9.528e+03 2.793e-09
 51.14554    -62.2 9.510e+03 2.788e-09
 51.17220    -60.0 9.535e+03 2.973e-09
 51.19218    -59.8 9.445e+03 2.613e-09
 51.21531    -57.1 9.416e+03 2.718e-09
 51.25507    -54.4 9.442e+03 2.927e-09
 51.27819    -51.9 9.478e+03 3.146e-09
 51.28804    -52.8 9.657e+03 4.263e-09
 51.30457    -51.7 9.690e+03 4.465e-09
 51.32445    -50.4 9.745e+03 4.736e-09
 51.34433    -49.4 9.776e+03 5.000e-09
 51.36421    -48.1 9.835e+03 5.425e-09
 51.37936    -46.9 9.939e+03 5.976e-09
 51.38930    -46.7 1.003e+04 6.380e-09
 51.39967    -45.6 1.020e+04 7.329e-09
 51.40960    -45.6 1.052e+04 9.287e-09
 51.42385    -44.6 1.077e+04 1.055e-08
 51.44373    -43.6 1.111e+04 1.220e-08
 51.46361    -42.8 1.147e+04 1.432e-08
 51.48349    -42.2 1.177e+04 1.657e-08
 51.50337    -41.6 1.199e+04 1.861e-08
 51.52133    -41.1 1.211e+04 2.000e-08
 51.53127    -41.6 1.230e+04 2.117e-08
 51.54313    -41.2 1.226e+04 2.101e-08
 51.56301    -40.8 1.211e+04 1.985e-08
 51.57668    -40.5 1.197e+04 1.860e-08
 51.58662    -40.2 1.196e+04 1.848e-08
 51.60277    -39.9 1.180e+04 1.734e-08
 51.62265    -39.7 1.168e+04 1.642e-08
 51.64253    -39.5 1.156e+04 1.546e-08
 51.65294    -39.3 1.138e+04 1.419e-08
 51.66288    -39.6 1.126e+04 1.377e-08
 51.68229    -39.4 1.106e+04 1.254e-08
 51.70217    -39.2 1.091e+04 1.154e-08
 51.72205    -39.2 1.086e+04 1.122e-08
 51.74192    -39.3 1.099e+04 1.151e-08
 51.76180    -39.8 1.142e+04 1.403e-08
 51.77399    -40.1 1.187e+04 1.832e-08
 51.77686    -39.8 1.182e+04 1.783e-08
 51.78455    -40.5 1.215e+04 2.176e-08
 51.80156    -40.4 1.253e+04 2.677e-08
 51.82144    -40.3 1.270e+04 2.873e-08
 51.84132    -40.2 1.256e+04 2.534e-08
 51.86120    -40.2 1.219e+04 1.855e-08
 51.88108    -40.4 1.170e+04 1.200e-08
 51.89627    -41.0 1.122e+04 7.624e-09
 51.90621    -42.3 1.077e+04 5.229e-09
 51.92084    -42.6 1.039e+04 3.772e-09
 51.94072    -42.4 1.018e+04 3.091e-09
 51.96060    -41.6 1.015e+04 2.730e-09
 51.97131    -40.8 1.020e+04 2.519e-09
 51.98125    -41.3 1.018e+04 2.450e-09
 52.00036    -40.5 1.021e+04 2.366e-09
 52.01794    -39.7 1.029e+04 2.349e-09
 52.02788    -39.5 9.948e+03 2.328e-09
 52.04012    -38.6 1.021e+04 2.335e-09
 52.06000    -37.8 1.056e+04 2.485e-09
 52.07988    -37.1 1.082e+04 2.830e-09
 52.09976    -36.3 1.103e+04 3.490e-09
 52.11964    -35.5 1.125e+04 4.626e-09
 52.13952    -34.8 1.152e+04 6.435e-09
 52.15869    -34.0 1.191e+04 9.360e-09
 52.16863    -34.5 1.204e+04 1.079e-08
 52.17927    -34.0 1.252e+04 1.501e-08
 52.19915    -33.6 1.301e+04 2.070e-08
 52.21903    -33.3 1.342e+04 2.592e-08
 52.23891    -33.2 1.364e+04 2.837e-08
 52.25879    -33.4 1.367e+04 2.862e-08
 52.27121    -33.8 1.344e+04 2.536e-08
 52.28115    -34.2 1.365e+04 2.743e-08
 52.29855    -34.9 1.318e+04 2.020e-08
 52.31843    -36.0 1.274e+04 1.521e-08
 52.33831    -36.8 1.229e+04 1.187e-08
 52.35600    -37.3 1.191e+04 9.767e-09
 52.36594    -38.0 1.187e+04 1.034e-08
 52.37807    -38.2 1.143e+04 8.106e-09
 52.39288    -37.7 1.094e+04 6.403e-09
 52.40282    -38.4 1.100e+04 7.434e-09
 52.41783    -37.5 1.065e+04 6.031e-09
 52.43771    -36.4 1.044e+04 4.910e-09
 52.45759    -35.3 1.032e+04 3.994e-09
 52.47747    -34.4 1.022e+04 3.243e-09
 52.49735    -33.5 1.014e+04 2.801e-09
 52.51465    -32.3 1.008e+04 2.359e-09
 52.52459    -33.0 1.011e+04 2.935e-09
 52.53711    -32.4 1.010e+04 2.874e-09
 52.55332    -31.2 1.011e+04 2.836e-09
 52.56326    -31.4 1.004e+04 2.413e-09
 52.57687    -31.1 1.004e+04 2.457e-09
 52.59674    -30.1 1.013e+04 2.795e-09
 52.61662    -29.7 1.013e+04 3.124e-09
 52.63622    -28.6 1.021e+04 3.876e-09
 52.64616    -29.1 1.024e+04 4.369e-09
 52.65638    -28.1 1.038e+04 4.973e-09
 52.67626    -27.1 1.052e+04 5.515e-09
 52.69614    -26.1 1.060e+04 5.709e-09
 52.71602    -25.2 1.064e+04 5.734e-09
 52.73590    -24.2 1.066e+04 5.285e-09
 52.75064    -23.1 1.055e+04 4.750e-09
 52.76058    -23.3 1.051e+04 4.807e-09
 52.76782    -22.2 1.039e+04 4.281e-09
 52.77776    -22.4 1.039e+04 4.274e-09
 52.79554    -21.2 1.032e+04 3.806e-09
 52.81542    -20.0 1.028e+04 3.385e-09
 52.83530    -18.9 1.024e+04 3.003e-09
 52.85518    -17.6 1.022e+04 2.794e-09
 52.87506    -16.2 1.031e+04 2.773e-09
 52.88949    -15.5 1.025e+04 2.700e-09
 52.89943    -15.2 1.029e+04 2.764e-09
 52.91482    -13.6 1.034e+04 2.720e-09
 52.93470    -12.7 1.024e+04 2.646e-09
 52.94796    -10.7 1.028e+04 2.625e-09
 52.95790    -11.2 1.040e+04 3.105e-09
 52.97446    -10.1 1.038e+04 2.971e-09
 52.99434     -8.3 1.040e+04 2.853e-09
 53.01116     -7.4 1.034e+04 2.745e-09
 53.02110     -7.3 1.041e+04 3.096e-09
 53.03409     -5.7 1.042e+04 3.084e-09
 53.05397     -4.4 1.043e+04 3.009e-09
 53.07385     -2.8 1.042e+04 2.913e-09
 53.09373     -1.6 1.040e+04 2.843e-09
 53.11361     -0.4 1.048e+04 3.084e-09
 53.13282      0.8 1.065e+04 3.563e-09
 53.14276      0.2 1.073e+04 4.337e-09
 53.14527      0.8 1.087e+04 5.522e-09
 53.15521     -0.0 1.078e+04 6.833e-09
 53.17325      0.8 1.083e+04 8.954e-09
 53.19313      2.2 1.107e+04 1.180e-08
 53.21301      3.5 1.146e+04 1.409e-08
 53.23289      4.4 1.174e+04 1.538e-08
 53.25277      4.9 1.183e+04 1.549e-08
 53.26443      5.2 1.167e+04 1.443e-08
 53.27437      4.9 1.126e+04 1.117e-08
 53.29253      5.2 1.095e+04 1.005e-08
 53.31241      5.7 1.077e+04 9.542e-09
 53.33229      6.3 1.069e+04 9.233e-09
 53.34259      7.3 1.076e+04 9.561e-09
 53.35253      6.9 1.074e+04 9.883e-09
 53.37205      7.7 1.085e+04 1.037e-08
 53.38610      8.6 1.089e+04 1.103e-08
 53.39604      9.2 1.076e+04 1.047e-08
 53.41181     10.1 1.085e+04 1.092e-08
 53.43169     11.3 1.093e+04 1.263e-08
 53.45156     12.4 1.117e+04 1.267e-08
 53.47144     13.4 1.116e+04 1.522e-08
 53.49132     14.5 1.144e+04 1.554e-08
 53.50777     15.2 1.169e+04 1.680e-08
 53.51771     16.4 1.166e+04 1.594e-08
 53.52997     17.2 1.178e+04 1.897e-08
 53.53991     16.3 1.102e+04 1.423e-08
 53.55096     16.9 1.150e+04 1.549e-08
 53.57084     17.1 1.181e+04 1.984e-08
 53.59072     16.6 1.260e+04 2.488e-08
 53.61060     14.9 1.380e+04 3.644e-08
 53.62546     14.7 1.416e+04 5.359e-08
 53.63350     14.5 1.439e+04 5.907e-08
 53.63742     13.7 1.444e+04 5.987e-08
 53.63927     13.0 1.503e+04 7.237e-08
 53.64529     13.5 1.499e+04 9.060e-08
 53.65523     14.4 1.499e+04 9.386e-08
 53.66517     15.3 1.550e+04 8.291e-08
 53.67511     15.5 1.579e+04 7.006e-08
 53.68505     13.2 1.660e+04 5.532e-08
 53.69499      9.1 1.629e+04 5.001e-08
 53.70011      4.2 1.610e+04 5.040e-08
 53.70508      3.5 1.709e+04 6.596e-08
 53.71487     -1.4 1.710e+04 9.365e-08
 53.72481     -3.9 1.784e+04 1.532e-07
 53.73216     -5.8 1.819e+04 2.373e-07
 53.73713     -6.0 1.822e+04 2.273e-07
 53.74469     -6.7 1.860e+04 3.513e-07
 53.75463     -7.8 1.864e+04 4.156e-07
 53.76094     -9.0 1.867e+04 4.257e-07
 53.76591     -9.8 1.867e+04 5.636e-07
 53.77451    -11.1 1.874e+04 4.084e-07
 53.78445    -13.0 1.851e+04 2.359e-07
 53.79439    -15.0 1.782e+04 1.500e-07
 53.80935    -17.3 1.688e+04 1.070e-07
 53.82928    -20.3 1.545e+04 6.565e-08
 53.84916    -21.7 1.497e+04 5.799e-08
 53.86904    -22.2 1.486e+04 5.833e-08
 53.88271    -22.4 1.481e+04 5.957e-08
 53.89265    -22.9 1.422e+04 4.650e-08
 53.90879    -22.5 1.393e+04 4.187e-08
 53.92460    -22.3 1.338e+04 3.208e-08
 53.93454    -22.2 1.309e+04 2.969e-08
 53.94855    -22.3 1.279e+04 2.510e-08
 53.96843    -22.8 1.245e+04 2.110e-08
 53.98831    -23.3 1.211e+04 1.830e-08
 54.00437    -23.4 1.188e+04 1.678e-08
 54.01431    -23.4 1.102e+04 1.094e-08
 54.02807    -23.4 1.098e+04 1.096e-08
 54.04795    -23.4 1.096e+04 1.117e-08
 54.06783    -23.1 1.088e+04 1.095e-08
 54.08771    -22.6 1.078e+04 1.035e-08
 54.10759    -22.0 1.061e+04 9.060e-09
 54.12192    -21.3 1.038e+04 7.359e-09
 54.13043    -21.6 1.018e+04 6.162e-09
 54.13598    -21.3 1.024e+04 6.613e-09
 54.14735    -20.8 1.005e+04 5.384e-09
 54.16723    -20.2 9.892e+03 4.692e-09
 54.19715    -19.3 9.779e+03 4.225e-09
 54.23700    -17.2 9.582e+03 3.716e-09
 54.25784    -14.8 9.320e+03 3.173e-09
 54.27772    -14.6 9.268e+03 3.412e-09
 54.30949    -12.2 9.018e+03 2.681e-09
 54.32937    -12.0 9.190e+03 3.225e-09
 54.35628     -9.4 9.005e+03 2.600e-09
 54.39604     -6.7 8.892e+03 2.189e-09
 54.43580     -4.0 8.843e+03 1.899e-09
 54.47556     -1.5 8.796e+03 1.670e-09
 54.50118      0.3 8.789e+03 1.553e-09
 54.52106     -0.4 8.825e+03 1.823e-09
 54.55507      0.1 8.971e+03 2.047e-09
 54.59483      0.5 9.067e+03 2.920e-09
 54.63459      1.0 9.353e+03 3.647e-09
 54.66431     -0.9 9.815e+03 3.738e-09
 54.68410     -2.8 1.047e+04 4.056e-09
 54.70393    -10.3 1.182e+04 4.215e-09
 54.72381    -19.9 1.424e+04 3.404e-08
 54.74373    -20.1 1.552e+04 8.755e-08
 54.75426    -19.1 1.627e+04 1.124e-07
 54.76420    -19.7 1.606e+04 9.868e-08
 54.78349    -22.6 1.586e+04 5.150e-08
 54.80337    -30.2 1.272e+04 1.221e-08
 54.82325    -34.3 1.085e+04 7.091e-09
 54.84313    -35.0 1.059e+04 6.349e-09
 54.86301    -35.2 1.054e+04 6.111e-09
 54.87592    -35.2 1.052e+04 5.886e-09
 54.88586    -34.9 1.053e+04 6.138e-09
 54.90125    -34.8 1.052e+04 5.822e-09
 54.91119    -35.6 1.047e+04 5.495e-09
 54.92265    -35.3 1.049e+04 5.176e-09
 54.94253    -35.0 1.048e+04 4.828e-09
 54.96241    -34.7 1.050e+04 4.410e-09
 54.98229    -34.3 1.051e+04 4.022e-09
 54.99759    -33.8 1.050e+04 3.670e-09
 55.00753    -33.6 1.042e+04 3.552e-09
 55.02205    -33.0 1.042e+04 3.257e-09
 55.04193    -32.3 1.044e+04 3.045e-09
 55.06181    -31.4 1.052e+04 2.902e-09
 55.08169    -30.4 1.059e+04 2.832e-09
 55.09866    -28.8 1.079e+04 2.823e-09
 55.11864    -29.6 1.080e+04 2.772e-09
 55.15146    -27.8 1.105e+04 3.101e-09
 55.18118    -26.1 1.124e+04 3.548e-09
 55.20096    -25.1 1.138e+04 3.844e-09
 55.22084    -24.3 1.147e+04 4.116e-09
 55.24072    -23.4 1.156e+04 4.375e-09
 55.25086    -22.6 1.162e+04 4.619e-09
 55.26080    -22.4 1.173e+04 5.202e-09
 55.28048    -21.6 1.177e+04 5.434e-09
 55.29588    -20.8 1.184e+04 5.666e-09
 55.30582    -21.1 1.180e+04 5.265e-09
 55.32024    -20.5 1.187e+04 5.273e-09
 55.34012    -19.9 1.193e+04 5.359e-09
 55.36000    -19.4 1.197e+04 5.639e-09
 55.37253    -18.9 1.198e+04 5.953e-09
 55.38247    -19.0 1.219e+04 7.100e-09
 55.39976    -18.5 1.220e+04 7.316e-09
 55.41964    -18.1 1.220e+04 7.361e-09
 55.43952    -17.8 1.204e+04 6.975e-09
 55.45940    -17.5 1.201e+04 6.522e-09
 55.47928    -17.2 1.191e+04 5.900e-09
 55.49320    -16.9 1.178e+04 5.282e-09
 55.49818    -16.9 1.165e+04 4.675e-09
 55.50414    -17.4 1.167e+04 4.749e-09
 55.51904    -17.1 1.158e+04 4.478e-09
 55.53892    -16.8 1.147e+04 4.156e-09
 55.55880    -16.6 1.142e+04 4.075e-09
 55.57868    -16.2 1.137e+04 3.948e-09
 55.59856    -16.0 1.127e+04 3.838e-09
 55.61587    -15.6 1.127e+04 3.821e-09
 55.62581    -16.0 1.122e+04 3.425e-09
 55.63831    -16.0 1.120e+04 3.632e-09
 55.65819    -16.0 1.134e+04 3.869e-09
 55.67807    -16.1 1.133e+04 4.047e-09
 55.69051    -16.3 1.131e+04 4.237e-09
 55.70045    -16.4 1.120e+04 4.172e-09
 55.71783    -17.0 1.119e+04 4.234e-09
 55.73753    -17.5 1.114e+04 4.223e-09
 55.74747    -17.6 1.103e+04 3.829e-09
 55.75759    -18.3 1.093e+04 3.483e-09
 55.77747    -19.1 1.087e+04 3.175e-09
 55.79735    -20.1 1.089e+04 3.021e-09
 55.81723    -21.6 1.076e+04 2.905e-09
 55.83711    -22.7 1.074e+04 2.928e-09
 55.85699    -24.2 1.072e+04 2.949e-09
 55.86914    -25.3 1.078e+04 3.064e-09
 55.87908    -24.8 1.077e+04 3.051e-09
 55.88783    -26.4 1.077e+04 3.212e-09
 55.90781    -27.3 1.067e+04 2.921e-09
 55.94664    -28.5 1.046e+04 2.485e-09
 55.98106    -29.3 1.008e+04 1.645e-09
 56.00094    -28.7 1.028e+04 1.966e-09
 56.02616    -29.0 1.008e+04 1.553e-09
 56.06592    -28.9 1.004e+04 1.486e-09
 56.10568    -28.3 1.014e+04 1.660e-09
 56.14544    -27.8 1.032e+04 2.176e-09
 56.18520    -27.1 1.049e+04 2.746e-09
 56.22440    -26.4 1.067e+04 3.170e-09
 56.24418    -26.6 1.069e+04 3.378e-09
 56.26268    -26.4 1.089e+04 3.439e-09
 56.28266    -25.7 1.065e+04 3.165e-09
 56.30447    -24.8 1.067e+04 2.761e-09
 56.34423    -23.6 1.055e+04 2.240e-09
 56.38399    -22.3 1.052e+04 1.847e-09
 56.42375    -20.9 1.063e+04 1.573e-09
 56.46351    -19.8 1.071e+04 1.475e-09
 56.48761    -18.8 1.076e+04 1.510e-09
 56.50749    -19.3 1.079e+04 1.661e-09
 56.54303    -18.1 1.083e+04 1.931e-09
 56.58279    -16.9 1.086e+04 2.087e-09
 56.62255    -15.6 1.096e+04 2.159e-09
 56.65741    -14.4 1.111e+04 2.175e-09
 56.67729    -15.1 1.146e+04 3.557e-09
 56.70206    -14.2 1.178e+04 4.138e-09
 56.73094    -13.5 1.195e+04 6.224e-09
 56.75082    -13.3 1.166e+04 5.645e-09
 56.78158    -12.3 1.205e+04 8.814e-09
 56.82134    -11.2 1.226e+04 1.146e-08
 56.86110    -10.2 1.228e+04 1.234e-08
 56.90086     -9.6 1.223e+04 1.220e-08
 56.94062     -9.0 1.232e+04 1.370e-08
 56.97428     -8.2 1.248e+04 1.542e-08
 56.99406     -8.9 1.271e+04 1.811e-08
 57.01000     -8.8 1.253e+04 1.528e-08
 57.02988     -9.1 1.255e+04 1.466e-08
 57.04976    -10.5 1.251e+04 1.354e-08
 57.06179    -11.2 1.243e+04 1.339e-08
 57.07173    -12.2 1.263e+04 1.417e-08
 57.08952    -13.1 1.240e+04 1.504e-08
 57.10569    -13.8 1.220e+04 1.476e-08
 57.11563    -14.9 1.203e+04 1.427e-08
 57.13932    -15.1 1.170e+04 1.184e-08
 57.17917    -15.3 1.101e+04 8.146e-09
 57.20890    -15.0 1.047e+04 6.012e-09
 57.22736    -14.8 1.035e+04 5.573e-09
 57.23730    -15.0 1.028e+04 5.530e-09
 57.24856    -14.6 1.021e+04 5.207e-09
 57.25911    -14.5 1.011e+04 5.105e-09
 57.26905    -14.6 1.002e+04 4.303e-09
 57.28832    -13.8 1.011e+04 4.649e-09
 57.30820    -13.6 9.977e+03 5.105e-09
 57.32807    -12.7 1.015e+04 6.147e-09
 57.34795    -12.5 1.003e+04 6.554e-09
 57.35896    -11.4 1.025e+04 7.795e-09
 57.36890    -11.3 1.029e+04 8.002e-09
 57.38771    -11.3 1.028e+04 7.975e-09
 57.41763    -11.1 1.030e+04 8.342e-09
 57.44658    -10.9 1.115e+04 1.255e-08
 57.45643    -11.0 1.175e+04 1.671e-08
 57.46723    -12.2 1.221e+04 2.262e-08
 57.48063    -11.9 1.302e+04 3.319e-08
 57.49057    -12.0 1.355e+04 4.424e-08
 57.50699    -12.3 1.377e+04 4.781e-08
 57.52687    -12.7 1.343e+04 4.138e-08
 57.54675    -13.4 1.265e+04 2.737e-08
 57.56663    -14.7 1.181e+04 1.898e-08
 57.58651    -15.3 1.125e+04 1.427e-08
 57.60230    -15.7 1.087e+04 1.103e-08
 57.61224    -16.2 1.054e+04 8.679e-09
 57.62627    -16.4 1.019e+04 6.844e-09
 57.64380    -16.6 9.931e+03 5.604e-09
 57.65374    -16.8 1.002e+04 5.790e-09
 57.66603    -16.9 9.938e+03 5.447e-09
 57.68591    -16.9 9.925e+03 5.452e-09
 57.70579    -16.9 9.980e+03 5.906e-09
 57.72397    -16.7 1.012e+04 6.720e-09
 57.73391    -16.9 1.012e+04 6.703e-09
 57.74555    -16.7 1.034e+04 7.788e-09
 57.76542    -16.4 1.056e+04 8.785e-09
 57.78530    -16.3 1.072e+04 9.241e-09
 57.80518    -16.2 1.080e+04 9.301e-09
 57.82506    -16.2 1.081e+04 8.879e-09
 57.84112    -16.3 1.077e+04 8.297e-09
 57.85106    -16.1 1.098e+04 9.253e-09
 57.85557    -16.1 1.095e+04 8.675e-09
 57.86551    -16.6 1.095e+04 8.568e-09
 57.88470    -16.7 1.090e+04 7.745e-09
 57.90458    -17.2 1.080e+04 7.130e-09
 57.92446    -17.5 1.074e+04 6.980e-09
 57.94434    -17.4 1.077e+04 7.174e-09
 57.96422    -17.1 1.080e+04 7.226e-09
 57.97724    -16.6 1.071e+04 6.570e-09
 57.98728    -17.5 1.053e+04 5.634e-09
 58.01411    -16.9 1.037e+04 4.308e-09
 58.05387    -16.4 1.024e+04 3.594e-09
 58.09363    -15.4 1.022e+04 3.375e-09
 58.13339    -14.3 1.028e+04 3.320e-09
 58.17315    -13.2 1.037e+04 3.500e-09
 58.21083    -12.1 1.058e+04 4.093e-09
 58.23071    -12.9 1.033e+04 3.567e-09
 58.23595    -12.1 1.058e+04 4.396e-09
 58.25583    -11.6 1.060e+04 4.259e-09
 58.29243    -11.3 1.086e+04 4.860e-09
 58.33219    -12.1 1.128e+04 5.326e-09
 58.37195    -15.1 1.187e+04 7.316e-09
 58.41171    -16.6 1.234e+04 1.219e-08
 58.45146    -17.5 1.254e+04 1.300e-08
 58.47404    -18.1 1.221e+04 6.572e-09
 58.49392    -16.9 1.203e+04 6.497e-09
 58.52094    -16.9 1.205e+04 5.031e-09
 58.54073    -16.9 1.203e+04 4.984e-09
 58.56061    -15.8 1.232e+04 4.837e-09
 58.58049    -15.7 1.225e+04 4.997e-09
 58.59552    -14.5 1.253e+04 5.682e-09
 58.60546    -14.1 1.249e+04 5.790e-09
 58.62024    -13.8 1.245e+04 5.812e-09
 58.63039    -12.9 1.260e+04 6.100e-09
 58.64033    -12.3 1.246e+04 5.001e-09
 58.66000    -12.0 1.245e+04 4.845e-09
 58.67988    -11.2 1.259e+04 4.625e-09
 58.69976    -10.8 1.261e+04 4.267e-09
 58.71718    -10.3 1.274e+04 3.881e-09
 58.72712    -10.1 1.289e+04 4.347e-09
 58.73952     -9.8 1.286e+04 4.444e-09
 58.75940     -9.5 1.302e+04 5.084e-09
 58.77928     -9.6 1.301e+04 6.260e-09
 58.80920     -8.3 1.322e+04 9.888e-09
 58.84905     -7.5 1.323e+04 1.208e-08
 58.88881     -7.0 1.303e+04 9.885e-09
 58.92857     -6.4 1.274e+04 5.347e-09
 58.96071     -5.5 1.246e+04 3.363e-09
 58.98059     -5.4 1.249e+04 3.256e-09
 59.00534     -3.8 1.237e+04 2.660e-09
 59.02522     -2.5 1.230e+04 2.849e-09
 59.04785     -0.5 1.230e+04 2.768e-09
 59.08761      1.2 1.230e+04 3.445e-09
 59.12737      3.5 1.239e+04 4.839e-09
 59.16713      5.7 1.242e+04 5.751e-09
 59.20405      7.6 1.236e+04 5.130e-09
 59.22393      7.6 1.269e+04 5.850e-09
 59.24665      9.3 1.260e+04 5.129e-09
 59.28640     10.7 1.288e+04 5.738e-09
 59.32616     11.7 1.323e+04 9.920e-09
 59.35589     12.6 1.367e+04 1.594e-08
 59.37567     13.0 1.387e+04 2.000e-08
 59.39555     13.3 1.401e+04 3.017e-08
 59.40972     14.2 1.398e+04 2.982e-08
 59.41966     14.7 1.483e+04 5.246e-08
 59.43531     15.8 1.465e+04 4.240e-08
 59.45519     16.4 1.418e+04 2.536e-08
 59.46706     16.5 1.351e+04 1.349e-08
 59.47700     15.8 1.341e+04 1.261e-08
 59.49494     16.0 1.293e+04 7.958e-09
 59.52486     16.6 1.279e+04 7.016e-09
 59.56472     18.6 1.244e+04 5.900e-09
 59.60448     20.9 1.240e+04 6.326e-09
 59.64424     23.1 1.244e+04 7.330e-09
 59.68400     25.0 1.243e+04 8.198e-09
 59.71059     26.8 1.233e+04 8.672e-09
 59.73047     26.1 1.209e+04 7.561e-09
 59.76351     27.8 1.196e+04 7.383e-09
 59.79461     29.5 1.175e+04 6.034e-09
 59.81448     30.5 1.229e+04 9.862e-09
 59.84303     32.1 1.214e+04 8.801e-09
 59.88279     33.5 1.191e+04 7.401e-09
 59.92255     34.9 1.168e+04 6.446e-09
 59.95393     36.5 1.145e+04 5.939e-09
 59.97381     35.3 1.136e+04 5.922e-09
 60.00207     37.1 1.113e+04 5.284e-09
 60.04183     39.0 1.090e+04 4.098e-09
 60.08159     40.7 1.079e+04 3.198e-09
 60.12135     42.6 1.060e+04 3.069e-09
 60.16110     44.5 1.061e+04 3.133e-09
 60.18924     46.1 1.061e+04 3.570e-09
 60.20552     47.1 1.070e+04 4.601e-09
 60.21714     45.7 1.078e+04 5.106e-09
 60.24062     47.1 1.107e+04 8.011e-09
 60.28038     48.2 1.174e+04 1.307e-08
 60.32014     48.7 1.221e+04 1.803e-08
 60.34986     48.5 1.225e+04 1.916e-08
 60.36964     48.7 1.213e+04 1.780e-08
 60.38636     49.2 1.169e+04 1.317e-08
 60.39630     49.4 1.160e+04 1.320e-08
 60.40940     49.4 1.123e+04 1.007e-08
 60.43932     49.0 1.116e+04 7.671e-09
 60.46048     48.0 1.050e+04 6.055e-09
 60.48036     47.1 9.591e+03 2.657e-09
 60.51894     48.3 9.793e+03 3.682e-09
 60.54866     49.4 9.940e+03 4.882e-09
 60.56844     50.0 1.005e+04 5.562e-09
 60.58195     50.5 1.019e+04 6.496e-09
 60.58725     50.7 9.890e+03 4.858e-09
 60.59362     51.6 9.874e+03 5.010e-09
 60.60820     52.1 9.965e+03 5.603e-09
 60.62808     52.6 1.009e+04 6.336e-09
 60.64796     53.3 1.016e+04 6.618e-09
 60.66784     53.9 1.019e+04 6.624e-09
 60.68772     54.2 1.024e+04 6.700e-09
 60.70362     54.1 1.044e+04 7.294e-09
 60.71356     54.2 1.011e+04 5.211e-09
 60.72748     53.0 1.070e+04 6.813e-09
 60.74736     50.4 1.179e+04 1.372e-08
 60.76724     49.7 1.316e+04 3.291e-08
 60.78099     50.1 1.422e+04 5.472e-08
 60.79093     50.9 1.457e+04 5.980e-08
 60.80699     50.7 1.517e+04 7.222e-08
 60.82528     48.5 1.603e+04 7.405e-08
 60.83522     46.3 1.512e+04 5.309e-08
 60.84675     36.7 1.718e+04 6.539e-08
 60.86663     24.8 1.781e+04 1.455e-07
 60.88651     21.7 1.653e+04 1.286e-07
 60.90639     20.5 1.512e+04 5.518e-08
 60.92627     15.3 1.371e+04 1.436e-08
 60.94615     10.2 1.075e+04 6.601e-09
 60.95689      9.1 9.989e+03 5.407e-09
 60.96683      9.7 1.001e+04 5.202e-09
 60.97831      9.4 1.008e+04 4.017e-09
 60.98825      7.3 1.059e+04 4.634e-09
 61.00579      6.3 1.094e+04 5.345e-09
 61.02567      5.5 1.106e+04 9.993e-09
 61.04555      5.5 1.120e+04 1.039e-08
 61.07547      5.8 1.139e+04 1.394e-08
 61.11532      6.3 1.136e+04 1.380e-08
 61.14504      7.1 1.124e+04 1.272e-08
 61.16483      7.5 1.103e+04 1.196e-08
 61.17563      7.7 1.078e+04 9.660e-09
 61.18557      6.2 1.028e+04 7.052e-09
 61.20022      6.3 9.886e+03 6.157e-09
 61.21016      6.2 9.952e+03 6.918e-09
 61.22446      6.4 9.862e+03 5.528e-09
 61.24434      6.8 9.576e+03 4.990e-09
 61.26422      6.9 9.623e+03 4.245e-09
 61.28410      7.0 9.520e+03 4.057e-09
 61.30398      7.3 9.449e+03 4.176e-09
 61.32189      7.6 9.506e+03 4.297e-09
 61.33183      7.0 9.470e+03 4.221e-09
 61.34374      7.4 9.379e+03 4.563e-09
 61.36301      7.9 9.380e+03 4.769e-09
 61.37304      6.8 9.029e+03 3.893e-09
 61.39364      8.2 9.030e+03 3.817e-09
 61.43340      9.4 9.049e+03 3.299e-09
 61.45369     10.5 9.026e+03 2.724e-09
 61.47357      9.3 9.071e+03 2.663e-09
 61.51291     10.2 9.186e+03 2.500e-09
 61.55267     11.2 9.302e+03 2.339e-09
 61.57526     12.3 9.250e+03 2.229e-09
 61.58510     11.2 9.431e+03 2.633e-09
 61.60218     11.2 9.716e+03 3.130e-09
 61.62206     10.7 1.024e+04 4.175e-09
 61.64193      9.2 1.115e+04 6.965e-09
 61.66181      7.5 1.209e+04 1.370e-08
 61.68169      6.9 1.268e+04 2.355e-08
 61.69683      6.8 1.302e+04 2.730e-08
 61.70677      5.6 1.307e+04 2.445e-08
 61.72145      4.3 1.298e+04 1.469e-08
 61.74133      1.7 1.189e+04 8.077e-09
 61.75764     -0.2 1.115e+04 6.125e-09
 61.76768     -0.1 1.120e+04 5.681e-09
 61.79123     -1.4 1.035e+04 4.628e-09
 61.83099     -1.1 1.017e+04 4.298e-09
 61.87074     -0.5 1.013e+04 4.170e-09
 61.91050      0.5 1.013e+04 4.109e-09
 61.94036      1.6 1.007e+04 4.084e-09
 61.96024      0.4 9.877e+03 3.794e-09
 61.99002      1.1 9.991e+03 3.457e-09
 62.02978      1.2 1.008e+04 4.400e-09
 62.06954      2.1 1.014e+04 6.070e-09
 62.10930      2.8 1.008e+04 6.255e-09
 62.14253      3.5 9.965e+03 4.576e-09
 62.16241      4.3 1.041e+04 7.428e-09
 62.18370      4.3 1.019e+04 5.156e-09
 62.20358      2.8 1.036e+04 5.385e-09
 62.22858      2.7 9.842e+03 4.281e-09
 62.26834      3.5 9.394e+03 3.312e-09
 62.30809      5.0 9.170e+03 2.354e-09
 62.34785      6.6 8.917e+03 1.654e-09
 62.38761      7.8 8.762e+03 1.269e-09
 62.42703      9.1 8.832e+03 1.261e-09
 62.44691      8.3 8.754e+03 9.837e-10
 62.46713      9.4 8.763e+03 1.212e-09
 62.50689     10.7 8.898e+03 1.607e-09
 62.53716     11.7 9.121e+03 1.995e-09
 62.55704     11.4 9.772e+03 3.121e-09
 62.58641     10.6 1.010e+04 3.532e-09
 62.62617     10.2 1.041e+04 5.395e-09
 62.66593     10.8 1.042e+04 6.048e-09
 62.69024     12.3 1.019e+04 4.812e-09
 62.71012     12.2 1.005e+04 4.761e-09
 62.74544     14.1 9.812e+03 3.104e-09
 62.78520     15.5 9.685e+03 1.923e-09
 62.82496     17.0 9.543e+03 1.454e-09
 62.86472     19.1 9.472e+03 1.447e-09
 62.90448     21.2 9.533e+03 1.556e-09
 62.93180     23.0 9.691e+03 1.958e-09
 62.94101     22.5 9.658e+03 2.020e-09
 62.95346     22.8 9.599e+03 1.832e-09
 62.98400     24.7 9.814e+03 2.344e-09
 63.02376     26.3 1.009e+04 2.808e-09
 63.06352     27.4 1.036e+04 3.100e-09
 63.10328     28.0 1.056e+04 3.287e-09
 63.14304     28.5 1.062e+04 3.418e-09
 63.17691     29.3 1.053e+04 3.261e-09
 63.19679     29.7 1.047e+04 3.057e-09
 63.22255     30.7 1.030e+04 2.707e-09
 63.26231     31.9 1.014e+04 2.034e-09
 63.30207     33.1 1.004e+04 1.503e-09
 63.32643     34.4 9.762e+03 1.368e-09
 63.34631     34.0 9.808e+03 1.172e-09
 63.38159     36.0 9.780e+03 1.176e-09
 63.42025     37.9 9.793e+03 1.241e-09
 63.44013     38.2 9.788e+03 1.285e-09
 63.46111     39.9 9.847e+03 1.535e-09
 63.50087     41.4 9.987e+03 2.351e-09
 63.54063     42.8 1.031e+04 3.846e-09
 63.58039     43.9 1.065e+04 4.983e-09
 63.62014     44.4 1.067e+04 4.898e-09
 63.65990     44.7 1.059e+04 4.188e-09
 63.68346     45.0 1.046e+04 3.215e-09
 63.70334     45.3 1.038e+04 2.988e-09
 63.72106     45.8 1.036e+04 2.734e-09
 63.74094     45.5 1.032e+04 2.057e-09
 63.77918     46.1 1.035e+04 1.868e-09
 63.81894     46.9 1.039e+04 1.756e-09
 63.85870     47.6 1.044e+04 1.653e-09
 63.89846     48.2 1.049e+04 1.671e-09
 63.92679     48.4 1.065e+04 1.954e-09
 63.94667     49.7 1.059e+04 1.849e-09
 63.97798     49.7 1.081e+04 2.530e-09
 64.01774     49.7 1.112e+04 4.103e-09
 64.05749     49.3 1.156e+04 6.550e-09
 64.09582     48.5 1.198e+04 9.004e-09
 64.11560     48.4 1.229e+04 1.022e-08
 64.12688     47.1 1.276e+04 1.227e-08
 64.14676     45.3 1.324e+04 1.554e-08
 64.16664     43.4 1.358e+04 2.001e-08
 64.17987     41.9 1.367e+04 2.320e-08
 64.18981     43.0 1.369e+04 2.233e-08
 64.20640     41.8 1.359e+04 2.137e-08
 64.22627     40.9 1.336e+04 1.736e-08
 64.24615     40.0 1.312e+04 1.149e-08
 64.26603     39.1 1.288e+04 6.939e-09
 64.28591     38.3 1.270e+04 4.307e-09
 64.30154     37.7 1.268e+04 2.925e-09
 64.30857     38.7 1.273e+04 2.974e-09
 64.31282     38.4 1.274e+04 1.976e-09
 64.32567     37.4 1.284e+04 1.741e-09
 64.34555     37.0 1.272e+04 1.692e-09
 64.37547     36.6 1.261e+04 2.071e-09
 64.41346     36.6 1.247e+04 2.302e-09
 64.43334     38.1 1.271e+04 1.851e-09
 64.45508     38.0 1.266e+04 2.362e-09
 64.49045     37.5 1.242e+04 2.647e-09
 64.51033     37.6 1.245e+04 2.583e-09
 64.52457     36.5 1.237e+04 2.511e-09
 64.54435     35.9 1.221e+04 2.485e-09
 64.55481     34.7 1.205e+04 2.740e-09
 64.56475     35.0 1.198e+04 3.415e-09
 64.58411     33.8 1.186e+04 4.349e-09
 64.60399     32.6 1.188e+04 5.748e-09
 64.62387     31.8 1.182e+04 6.760e-09
 64.64375     29.9 1.202e+04 8.059e-09
 64.66362     28.1 1.204e+04 9.107e-09
 64.67648     25.2 1.228e+04 1.254e-08
 64.68642     24.6 1.229e+04 1.359e-08
 64.69751     22.6 1.209e+04 1.383e-08
 64.70745     22.6 1.215e+04 1.482e-08
 64.72326     21.2 1.176e+04 1.288e-08
 64.74314     19.3 1.120e+04 1.002e-08
 64.76302     19.2 1.007e+04 4.150e-09
 64.78290     18.5 9.925e+03 3.586e-09
 64.81282     16.5 9.330e+03 1.254e-09
 64.85268     15.0 8.906e+03 8.832e-10
 64.88509     15.5 8.669e+03 8.980e-10
 64.90497     15.8 8.767e+03 7.262e-10
 64.92001     16.3 8.748e+03 8.942e-10
 64.93989     16.6 8.663e+03 6.206e-10
 64.97195     17.5 8.681e+03 8.094e-10
 65.01171     18.5 8.711e+03 1.038e-09
 65.05147     19.4 8.791e+03 1.229e-09
 65.09123     20.2 8.953e+03 1.381e-09
 65.13099     20.8 9.132e+03 1.632e-09
 65.16335     21.4 9.324e+03 2.092e-09
 65.18323     21.2 9.312e+03 2.301e-09
 65.21051     21.7 9.635e+03 3.246e-09
 65.25027     22.0 1.001e+04 3.850e-09
 65.27972     21.9 1.030e+04 4.063e-09
 65.29960     22.0 1.062e+04 5.225e-09
 65.32978     21.7 1.087e+04 5.729e-09
 65.36954     21.1 1.111e+04 5.705e-09
 65.40668     19.9 1.137e+04 5.901e-09
 65.42656     18.6 1.132e+04 5.479e-09
 65.43902     18.0 1.139e+04 6.271e-09
 65.45881     17.9 1.150e+04 6.836e-09
 65.47684     17.1 1.170e+04 8.860e-09
 65.48678     16.9 1.172e+04 9.456e-09
 65.49857     16.8 1.177e+04 9.925e-09
 65.52848     16.2 1.168e+04 9.371e-09
 65.56834     15.4 1.153e+04 8.572e-09
 65.60810     13.6 1.178e+04 1.013e-08
 65.63782     11.3 1.215e+04 1.449e-08
 65.65760     10.5 1.231e+04 1.907e-08
 65.66970     10.0 1.242e+04 2.202e-08
 65.67632      9.2 1.251e+04 2.381e-08
 65.68410      9.0 1.249e+04 2.410e-08
 65.69736      8.8 1.223e+04 2.222e-08
 65.71724      8.3 1.163e+04 1.553e-08
 65.73712      7.6 1.092e+04 1.193e-08
 65.75700      8.1 1.025e+04 7.022e-09
 65.77688      7.3 9.907e+03 5.433e-09
 65.79137      7.5 9.510e+03 4.180e-09
 65.80131      7.1 9.572e+03 4.265e-09
 65.81664      7.2 9.466e+03 3.801e-09
 65.83652      7.8 9.332e+03 3.598e-09
 65.85640      8.4 9.318e+03 3.628e-09
 65.87148      9.8 9.338e+03 3.855e-09
 65.88142      9.8 9.054e+03 3.135e-09
 65.89616     10.2 9.145e+03 3.271e-09
 65.91313     12.6 9.346e+03 4.242e-09
 65.93311     11.4 9.466e+03 4.402e-09
 65.96593     14.0 1.030e+04 6.616e-09
 65.99565     16.3 1.032e+04 6.389e-09
 66.01543     16.3 1.083e+04 7.682e-09
 66.03470     15.5 1.199e+04 1.290e-08
 66.04464     13.9 1.249e+04 1.912e-08
 66.05519     13.2 1.375e+04 3.673e-08
 66.06879     12.0 1.519e+04 6.598e-08
 66.07873     11.4 1.638e+04 7.052e-08
 66.08993      7.2 1.762e+04 1.627e-07
 66.09982      5.5 1.814e+04 2.181e-07
 66.10538      4.9 1.848e+04 2.776e-07
 66.11035      4.8 1.869e+04 1.972e-07
 66.11970      2.9 1.888e+04 1.617e-07
 66.12964      1.2 1.942e+04 1.014e-07
 66.13958     -2.3 1.913e+04 6.135e-08
 66.15454     -8.3 1.651e+04 4.217e-08
 66.16631    -11.2 1.311e+04 2.819e-08
 66.17625    -10.8 1.292e+04 2.346e-08
 66.19435    -10.3 1.267e+04 1.301e-08
 66.21423    -11.0 1.214e+04 7.383e-09
 66.24415    -11.5 1.117e+04 4.817e-09
 66.28400    -10.4 1.086e+04 2.588e-09
 66.32376     -9.9 1.084e+04 2.206e-09
 66.36352     -9.1 1.062e+04 2.613e-09
 66.39990     -7.8 1.032e+04 3.338e-09
 66.41978     -8.2 1.059e+04 5.118e-09
 66.44304     -6.6 1.064e+04 5.446e-09
 66.46362     -5.5 1.085e+04 5.371e-09
 66.48350     -9.2 1.109e+04 3.959e-09
 66.52256    -11.0 1.182e+04 6.817e-09
 66.55228    -11.0 1.273e+04 1.008e-08
 66.57206    -12.6 1.284e+04 1.906e-08
 66.59194    -12.6 1.334e+04 3.193e-08
 66.61182    -11.5 1.338e+04 4.011e-08
 66.63170    -10.4 1.338e+04 2.412e-08
 66.65080    -11.2 1.328e+04 8.501e-09
 66.66074    -14.3 1.229e+04 5.524e-09
 66.66291    -15.8 1.117e+04 3.252e-09
 66.67285    -15.1 1.148e+04 2.802e-09
 66.69134    -15.6 1.113e+04 2.036e-09
 66.71122    -15.7 1.102e+04 1.715e-09
 66.73110    -15.7 1.096e+04 1.680e-09
 66.76101    -14.7 1.102e+04 1.761e-09
 66.80087    -14.0 1.105e+04 2.017e-09
 66.83838    -13.3 1.118e+04 2.265e-09
 66.85826    -13.2 1.099e+04 2.004e-09
 66.88039    -12.7 1.129e+04 2.199e-09
 66.90635    -12.8 1.140e+04 2.944e-09
 66.91619    -12.5 1.150e+04 3.216e-09
 66.92989    -12.9 1.169e+04 4.107e-09
 66.94977    -12.5 1.170e+04 6.172e-09
 66.96965    -12.3 1.201e+04 7.143e-09
 66.99957    -11.5 1.194e+04 8.703e-09
 67.03942    -11.3 1.211e+04 7.299e-09
 67.07918    -11.4 1.211e+04 5.274e-09
 67.11894    -11.5 1.190e+04 4.516e-09
 67.14978    -11.0 1.176e+04 4.395e-09
 67.16966    -10.5 1.145e+04 3.484e-09
 67.19846     -9.9 1.145e+04 3.887e-09
 67.23301     -9.0 1.168e+04 4.083e-09
 67.25289    -10.0 1.171e+04 3.809e-09
 67.27798     -8.8 1.178e+04 4.251e-09
 67.31774     -7.1 1.180e+04 4.159e-09
 67.35750     -5.1 1.203e+04 3.211e-09
 67.39311     -3.7 1.211e+04 2.838e-09
 67.41299     -3.1 1.181e+04 2.436e-09
 67.43702     -1.2 1.175e+04 2.294e-09
 67.47677      0.8 1.185e+04 2.110e-09
 67.51653      2.8 1.184e+04 2.049e-09
 67.55629      4.8 1.174e+04 2.163e-09
 67.59605      6.4 1.164e+04 2.642e-09
 67.62764      8.1 1.146e+04 3.348e-09
 67.64752      7.6 1.147e+04 3.250e-09
 67.65633      9.5 1.129e+04 3.111e-09
 67.67621      9.7 1.134e+04 4.513e-09
 67.71533     11.7 1.113e+04 3.729e-09
 67.75509     13.4 1.097e+04 2.886e-09
 67.79485     15.0 1.078e+04 2.413e-09
 67.83461     16.5 1.072e+04 2.385e-09
 67.87437     17.5 1.078e+04 2.836e-09
 67.89966     18.8 1.127e+04 4.451e-09
 67.90950     18.8 1.120e+04 4.846e-09
 67.92387     18.9 1.146e+04 5.682e-09
 67.94375     18.7 1.195e+04 7.603e-09
 67.96363     18.5 1.243e+04 1.072e-08
 67.98351     18.4 1.287e+04 1.451e-08
 68.00339     18.1 1.333e+04 1.890e-08
 68.02113     17.4 1.400e+04 2.505e-08
 68.02989     17.3 1.408e+04 2.408e-08
 68.03202     16.2 1.534e+04 5.111e-08
 68.04315     14.8 1.597e+04 6.622e-08
 68.06303     13.7 1.579e+04 6.415e-08
 68.08291     13.9 1.491e+04 4.960e-08
 68.10278     14.0 1.389e+04 3.245e-08
 68.12266     13.6 1.311e+04 2.087e-08
 68.14254     13.1 1.255e+04 1.511e-08
 68.15274     13.1 1.196e+04 1.400e-08
 68.16268     13.2 1.190e+04 1.393e-08
 68.18230     14.1 1.158e+04 1.334e-08
 68.20218     15.0 1.150e+04 1.320e-08
 68.21940     15.7 1.164e+04 1.399e-08
 68.22934     14.3 1.168e+04 1.359e-08
 68.24194     14.5 1.211e+04 1.673e-08
 68.26182     14.6 1.253e+04 2.150e-08
 68.27441     14.7 1.289e+04 2.713e-08
 68.28435     14.8 1.287e+04 2.583e-08
 68.30158     14.6 1.315e+04 3.154e-08
 68.32146     14.4 1.321e+04 3.447e-08
 68.34134     14.3 1.294e+04 3.190e-08
 68.36122     13.8 1.249e+04 2.673e-08
 68.38110     12.4 1.197e+04 2.136e-08
 68.39607      8.0 1.251e+04 2.342e-08
 68.40601      7.5 1.300e+04 2.762e-08
 68.41672      2.0 1.369e+04 4.019e-08
 68.42666      0.4 1.345e+04 3.895e-08
 68.44074     -1.3 1.352e+04 4.422e-08
 68.46062     -5.7 1.446e+04 3.897e-08
 68.48050    -18.1 1.691e+04 4.214e-08
 68.49536    -34.7 2.058e+04 9.090e-08
 68.50525    -42.6 1.958e+04 2.416e-07
 68.51519    -45.5 1.902e+04 5.181e-07
 68.52025    -48.3 1.869e+04 6.044e-07
 68.52270    -49.1 1.860e+04 5.993e-07
 68.52758    -48.7 1.850e+04 8.797e-07
 68.53507    -50.5 1.862e+04 4.272e-07
 68.54501    -55.3 1.857e+04 7.959e-08
 68.55495    -65.6 1.455e+04 1.625e-08
 68.56489    -71.5 1.157e+04 8.263e-09
 68.57985    -73.3 1.065e+04 6.090e-09
 68.59977    -75.2 9.678e+03 3.175e-09
 68.61403    -75.8 9.343e+03 2.402e-09
 68.62397    -75.4 9.215e+03 2.010e-09
 68.63941    -75.1 9.178e+03 1.889e-09
 68.64935    -75.5 9.251e+03 2.128e-09
 68.65941    -74.7 9.340e+03 2.049e-09
 68.67929    -74.5 9.362e+03 2.018e-09
 68.70921    -73.9 9.413e+03 2.019e-09
 68.74907    -72.3 9.383e+03 1.942e-09
 68.77111    -70.6 9.437e+03 1.881e-09
 68.78095    -70.6 9.469e+03 1.909e-09
 68.79857    -70.6 9.596e+03 2.034e-09
 68.81135    -70.3 9.901e+03 2.601e-09
 68.83133    -68.4 9.738e+03 2.242e-09
 68.85831    -69.2 1.013e+04 3.917e-09
 68.87809    -69.4 1.034e+04 5.583e-09
 68.89268    -69.3 1.051e+04 7.338e-09
 68.90262    -69.2 1.052e+04 6.423e-09
 68.91785    -68.8 1.069e+04 7.245e-09
 68.93773    -68.6 1.078e+04 7.427e-09
 68.95761    -68.3 1.065e+04 6.223e-09
 68.97748    -68.4 1.053e+04 5.021e-09
 68.99736    -68.7 1.052e+04 4.183e-09
 69.00867    -69.4 1.058e+04 3.931e-09
 69.01571    -67.5 1.050e+04 3.932e-09
 69.02429    -67.6 1.058e+04 4.308e-09
 69.03712    -68.3 1.068e+04 4.307e-09
 69.05700    -69.4 1.096e+04 4.931e-09
 69.07688    -70.3 1.105e+04 6.254e-09
 69.09676    -70.9 1.104e+04 7.325e-09
 69.11664    -71.3 1.104e+04 7.546e-09
 69.13602    -71.7 1.089e+04 6.414e-09
 69.14596    -71.7 1.090e+04 4.990e-09
 69.15640    -72.6 1.076e+04 3.366e-09
 69.17628    -73.8 1.057e+04 2.589e-09
 69.19605    -74.8 1.052e+04 2.498e-09
 69.20598    -73.4 1.071e+04 2.544e-09
 69.21604    -74.4 1.062e+04 2.519e-09
 69.23592    -75.1 1.079e+04 2.856e-09
 69.25580    -75.5 1.089e+04 3.406e-09
 69.26762    -75.6 1.097e+04 3.898e-09
 69.27756    -75.3 1.072e+04 3.829e-09
 69.29556    -75.1 1.072e+04 4.048e-09
 69.31544    -74.9 1.072e+04 4.090e-09
 69.33532    -74.7 1.071e+04 3.999e-09
 69.35520    -74.6 1.071e+04 3.922e-09
 69.37508    -74.7 1.075e+04 4.016e-09
 69.38929    -74.7 1.090e+04 4.549e-09
 69.39764    -74.2 1.074e+04 3.551e-09
 69.40330    -73.9 1.079e+04 3.273e-09
 69.42487    -74.0 1.088e+04 4.252e-09
 69.46473    -73.6 1.136e+04 7.453e-09
 69.50449    -73.3 1.180e+04 1.126e-08
 69.54425    -73.2 1.189e+04 1.230e-08
 69.58093    -73.0 1.157e+04 8.720e-09
 69.60081    -72.1 1.163e+04 8.825e-09
 69.62288    -71.3 1.124e+04 5.100e-09
 69.64276    -70.9 1.095e+04 4.196e-09
 69.66352    -70.3 1.062e+04 2.230e-09
 69.70328    -69.6 1.052e+04 1.383e-09
 69.74304    -68.8 1.052e+04 1.116e-09
 69.78280    -67.7 1.050e+04 1.054e-09
 69.82256    -66.4 1.051e+04 1.038e-09
 69.86232    -65.1 1.060e+04 1.036e-09
 69.88609    -64.0 1.084e+04 1.080e-09
 69.90597    -62.9 1.078e+04 7.861e-10
 69.94184    -61.8 1.090e+04 8.769e-10
 69.97557    -60.6 1.097e+04 1.049e-09
 69.99545    -60.5 1.103e+04 1.072e-09
 70.02136    -59.3 1.111e+04 1.258e-09
 70.06111    -58.1 1.127e+04 1.560e-09
 70.10087    -57.0 1.145e+04 2.179e-09
 70.12943    -56.2 1.170e+04 3.232e-09
 70.14931    -55.1 1.156e+04 2.942e-09
 70.18039    -54.6 1.186e+04 4.159e-09
 70.22015    -54.4 1.234e+04 4.655e-09
 70.25991    -54.8 1.260e+04 4.689e-09
 70.29967    -55.1 1.275e+04 4.542e-09
 70.32939    -54.9 1.291e+04 4.408e-09
 70.34917    -54.9 1.292e+04 4.405e-09
 70.36905    -54.8 1.293e+04 4.339e-09
 70.37995    -54.7 1.290e+04 4.208e-09
 70.38346    -54.8 1.294e+04 4.213e-09
 70.39254    -54.1 1.277e+04 3.979e-09
 70.41895    -54.1 1.275e+04 3.918e-09
 70.45871    -53.9 1.263e+04 3.651e-09
 70.49846    -53.4 1.258e+04 3.196e-09
 70.53822    -52.9 1.263e+04 2.575e-09
 70.57798    -52.3 1.275e+04 1.998e-09
 70.61610    -51.7 1.286e+04 1.722e-09
 70.63598    -50.5 1.278e+04 2.095e-09
 70.65750    -49.8 1.284e+04 1.895e-09
 70.69726    -49.1 1.297e+04 2.003e-09
 70.73702    -48.5 1.307e+04 2.489e-09
 70.76484    -47.7 1.308e+04 2.853e-09
 70.78472    -47.1 1.312e+04 2.745e-09
 70.81654    -46.1 1.307e+04 2.945e-09
 70.85630    -44.9 1.290e+04 2.407e-09
 70.87931    -43.5 1.294e+04 1.435e-09
 70.89919    -42.4 1.288e+04 2.258e-09
 70.93581    -41.1 1.297e+04 1.479e-09
 70.97557    -39.9 1.311e+04 1.049e-09
 71.01533    -38.7 1.314e+04 9.317e-10
 71.05509    -37.5 1.320e+04 9.746e-10
 71.09485    -36.3 1.317e+04 1.390e-09
 71.12265    -34.9 1.316e+04 1.996e-09
 71.14252    -34.2 1.340e+04 2.708e-09
 71.15947    -33.2 1.341e+04 2.935e-09
 71.17935    -33.1 1.317e+04 2.340e-09
 71.21413    -32.1 1.312e+04 2.455e-09
 71.25389    -31.4 1.311e+04 2.771e-09
 71.29365    -31.0 1.317e+04 3.435e-09
 71.33341    -30.8 1.321e+04 4.316e-09
 71.36598    -30.6 1.335e+04 4.873e-09
 71.38586    -30.4 1.339e+04 4.465e-09
 71.41292    -30.5 1.355e+04 4.168e-09
 71.45268    -30.1 1.371e+04 2.967e-09
 71.49244    -29.8 1.396e+04 1.844e-09
 71.53220    -29.4 1.392e+04 1.382e-09
 71.55410    -28.8 1.380e+04 1.330e-09
 71.57398    -28.7 1.366e+04 1.316e-09
 71.60931    -28.1 1.357e+04 1.338e-09
 71.62919    -28.0 1.351e+04 1.447e-09
 71.65148    -27.4 1.337e+04 1.580e-09
 71.69124    -26.6 1.333e+04 1.712e-09
 71.73100    -25.6 1.332e+04 1.674e-09
 71.77076    -24.6 1.347e+04 1.298e-09
 71.81051    -23.9 1.355e+04 9.835e-10
 71.85027    -23.0 1.347e+04 9.277e-10
 71.87253    -21.8 1.347e+04 9.507e-10
 71.89241    -21.7 1.346e+04 1.016e-09
 71.92886    -20.4 1.346e+04 1.171e-09
 71.94874    -19.5 1.338e+04 1.035e-09
 71.96955    -18.1 1.348e+04 1.164e-09
 72.00931    -17.0 1.366e+04 1.477e-09
 72.04907    -16.5 1.367e+04 2.412e-09
 72.08883    -15.7 1.363e+04 4.817e-09
 72.11586    -14.8 1.389e+04 7.118e-09
 72.13574    -15.6 1.391e+04 6.237e-09
 72.16835    -15.2 1.416e+04 5.464e-09
 72.20811    -14.4 1.431e+04 3.336e-09
 72.24786    -13.2 1.436e+04 2.054e-09
 72.28762    -11.7 1.428e+04 1.723e-09
 72.32349     -9.7 1.424e+04 1.651e-09
 72.34337     -9.3 1.414e+04 1.185e-09
 72.35920     -7.4 1.424e+04 1.322e-09
 72.37908     -7.5 1.422e+04 1.585e-09
 72.40690     -5.9 1.426e+04 2.839e-09
 72.44666     -4.5 1.433e+04 6.202e-09
 72.48642     -3.3 1.459e+04 1.268e-08
 72.52618     -2.4 1.488e+04 1.556e-08
 72.56594     -1.9 1.522e+04 1.438e-08
 72.59566     -1.6 1.530e+04 1.444e-08
 72.61227     -1.7 1.547e+04 1.752e-08
 72.62221     -1.7 1.538e+04 1.513e-08
 72.63532     -2.2 1.574e+04 2.011e-08
 72.65520     -3.2 1.595e+04 3.339e-08
 72.67508     -3.6 1.592e+04 5.676e-08
 72.69496     -4.3 1.600e+04 6.481e-08
 72.71484     -4.8 1.593e+04 4.516e-08
 72.72787     -5.4 1.569e+04 2.196e-08
 72.73703     -4.7 1.604e+04 4.631e-08
 72.74388     -4.8 1.607e+04 4.096e-08
 72.75460     -5.9 1.570e+04 1.616e-08
 72.77448     -7.3 1.571e+04 5.968e-09
 72.80439     -7.2 1.558e+04 4.721e-09
 72.84425     -8.2 1.515e+04 2.766e-09
 72.86574     -7.8 1.461e+04 2.772e-09
 72.88562     -7.3 1.451e+04 2.593e-09
 72.92377     -6.4 1.413e+04 2.737e-09
 72.96353     -5.8 1.371e+04 3.268e-09
 73.00329     -5.4 1.331e+04 4.240e-09
 73.04305     -4.2 1.300e+04 4.907e-09
 73.08280     -3.0 1.290e+04 4.473e-09
 73.10908     -1.6 1.293e+04 4.398e-09
 73.11915     -1.5 1.336e+04 5.310e-09
 73.13264     -1.2 1.330e+04 4.545e-09
 73.16232     -0.3 1.324e+04 4.448e-09
 73.20208      0.8 1.314e+04 4.977e-09
 73.24184      1.9 1.310e+04 4.786e-09
 73.28160      3.2 1.286e+04 3.973e-09
 73.32136      4.5 1.284e+04 2.402e-09
 73.35241      5.4 1.296e+04 1.346e-09
 73.37229      4.9 1.283e+04 1.059e-09
 73.40088      6.3 1.258e+04 1.197e-09
 73.44064      7.8 1.255e+04 1.275e-09
 73.48040      9.3 1.241e+04 1.446e-09
 73.50739     11.0 1.235e+04 1.550e-09
 73.52727     11.4 1.233e+04 1.564e-09
 73.55991     13.1 1.241e+04 1.511e-09
 73.59575     14.9 1.240e+04 1.454e-09
 73.61563     14.6 1.230e+04 1.582e-09
 73.63943     15.8 1.231e+04 1.828e-09
 73.67919     17.0 1.233e+04 2.975e-09
 73.71895     18.4 1.242e+04 4.822e-09
 73.75871     19.7 1.273e+04 6.190e-09
 73.78843     19.5 1.288e+04 6.044e-09
 73.80821     19.6 1.300e+04 6.197e-09
 73.82809     19.1 1.332e+04 7.002e-09
 73.84797     16.6 1.428e+04 1.130e-08
 73.85877     13.2 1.523e+04 3.523e-08
 73.86870     13.8 1.469e+04 3.013e-08
 73.88773     13.4 1.516e+04 6.480e-08
 73.90183     14.2 1.467e+04 5.121e-08
 73.91177     14.5 1.399e+04 3.121e-08
 73.92749     12.7 1.416e+04 1.392e-08
 73.94737      9.0 1.323e+04 7.303e-09
 73.96725      7.5 1.239e+04 5.787e-09
 73.98043      7.5 1.244e+04 5.389e-09
 73.99037      8.3 1.217e+04 4.899e-09
 74.00701      8.4 1.227e+04 4.784e-09
 74.02689      8.8 1.213e+04 5.082e-09
 74.04677      9.4 1.204e+04 5.557e-09
 74.06665     10.1 1.210e+04 5.997e-09
 74.08653     10.8 1.215e+04 6.426e-09
 74.09915     11.7 1.221e+04 6.834e-09
 74.10478     12.1 1.197e+04 5.837e-09
 74.11204     12.4 1.173e+04 4.928e-09
 74.12629     13.1 1.182e+04 5.326e-09
 74.14616     14.1 1.184e+04 5.508e-09
 74.16604     14.9 1.193e+04 5.861e-09
 74.18592     15.6 1.203e+04 6.448e-09
 74.20580     16.3 1.208e+04 7.417e-09
 74.22377     17.1 1.219e+04 9.080e-09
 74.23371     17.6 1.191e+04 7.233e-09
 74.24556     18.5 1.210e+04 8.877e-09
 74.26544     19.4 1.218e+04 1.034e-08
 74.28532     20.5 1.224e+04 1.107e-08
 74.29647     21.6 1.226e+04 1.097e-08
 74.30641     22.3 1.204e+04 8.424e-09
 74.32508     23.2 1.209e+04 8.524e-09
 74.34496     24.1 1.212e+04 8.476e-09
 74.35537     25.1 1.214e+04 8.447e-09
 74.36531     25.2 1.203e+04 8.085e-09
 74.38472     26.3 1.207e+04 8.430e-09
 74.40460     27.0 1.225e+04 9.195e-09
 74.42448     27.8 1.234e+04 9.943e-09
 74.44436     28.6 1.237e+04 1.073e-08
 74.46424     29.6 1.246e+04 1.153e-08
 74.47704     30.2 1.262e+04 1.226e-08
 74.48671     30.4 1.260e+04 1.234e-08
 74.49378     31.1 1.254e+04 1.200e-08
 74.51403     31.4 1.254e+04 1.191e-08
 74.55389     32.7 1.230e+04 1.043e-08
 74.58896     34.2 1.189e+04 7.472e-09
 74.60884     34.2 1.186e+04 7.210e-09
 74.63341     35.9 1.157e+04 5.517e-09
 74.66313     37.6 1.130e+04 3.967e-09
 74.68116     37.8 1.129e+04 3.777e-09
 74.69120     38.7 1.149e+04 4.399e-09
 74.71293     40.6 1.136e+04 4.421e-09
 74.74265     41.8 1.127e+04 4.765e-09
 74.76243     42.6 1.130e+04 4.854e-09
 74.78231     43.4 1.135e+04 5.213e-09
 74.80219     44.1 1.145e+04 5.824e-09
 74.82207     44.3 1.164e+04 6.608e-09
 74.84195     44.2 1.183e+04 7.689e-09
 74.86183     43.5 1.200e+04 9.014e-09
 74.87848     42.6 1.217e+04 1.187e-08
 74.88842     42.5 1.250e+04 1.646e-08
 74.90159     41.8 1.265e+04 2.077e-08
 74.92147     41.2 1.276e+04 2.210e-08
 74.94135     40.3 1.279e+04 2.063e-08
 74.96123     38.6 1.308e+04 1.872e-08
 74.97365     35.3 1.364e+04 2.082e-08
 74.98359     34.8 1.367e+04 2.268e-08
 75.00098     31.9 1.406e+04 3.657e-08
 75.02086     31.3 1.382e+04 4.588e-08
 75.04074     31.9 1.344e+04 4.195e-08
 75.06062     32.7 1.271e+04 2.819e-08
 75.07579     32.4 1.192e+04 1.539e-08
 75.08573     33.8 1.246e+04 2.339e-08
 75.09532     32.6 1.183e+04 1.300e-08
 75.10526     32.3 1.193e+04 1.141e-08
 75.12026     29.7 1.099e+04 6.327e-09
 75.15018     27.8 1.056e+04 6.178e-09
 75.18000     27.1 1.035e+04 6.468e-09
 75.19978     26.6 1.034e+04 7.401e-09
 75.21698     26.0 1.052e+04 8.494e-09
 75.22692     24.6 1.060e+04 8.481e-09
 75.23954     22.0 1.163e+04 1.207e-08
 75.25942     16.3 1.378e+04 2.571e-08
 75.27311     13.8 1.471e+04 5.718e-08
 75.28305     13.6 1.548e+04 7.721e-08
 75.29918     13.4 1.538e+04 9.504e-08
 75.31906     14.8 1.455e+04 6.399e-08
 75.33865     13.2 1.404e+04 3.366e-08
 75.34859     10.7 1.425e+04 3.038e-08
 75.35882      6.6 1.257e+04 2.027e-08
 75.37870      5.2 1.212e+04 1.840e-08
 75.39858      4.5 1.228e+04 2.276e-08
 75.41846      4.3 1.279e+04 2.988e-08
 75.43833      3.5 1.388e+04 4.187e-08
 75.45821      2.6 1.512e+04 6.543e-08
 75.47026      2.4 1.573e+04 9.154e-08
 75.47253      2.3 1.587e+04 1.016e-07
 75.48037      1.8 1.598e+04 1.162e-07
 75.49797      2.8 1.586e+04 1.218e-07
 75.51785      3.9 1.563e+04 9.055e-08
 75.53773      1.3 1.668e+04 8.275e-08
 75.55259     -4.2 1.840e+04 1.001e-07
 75.56248     -8.4 1.851e+04 2.163e-07
 75.56899    -10.9 1.795e+04 4.681e-07
 75.57396    -11.3 1.803e+04 4.135e-07
 75.58236    -11.1 1.757e+04 9.333e-07
 75.59183     -8.5 1.758e+04 1.355e-06
 75.59680     -9.9 1.759e+04 1.295e-06
 75.60224     -8.4 1.773e+04 1.622e-06
 75.61218     -7.2 1.767e+04 1.129e-06
 75.62212     -5.0 1.772e+04 3.995e-07
 75.63206     -5.0 1.777e+04 1.248e-07
 75.64200     -7.9 1.724e+04 5.040e-08
 75.65696    -12.0 1.419e+04 2.022e-08
 75.66775    -13.4 1.152e+04 8.770e-09
 75.67768    -12.3 1.174e+04 9.315e-09
 75.69677    -11.1 1.115e+04 7.190e-09
 75.71359     -9.3 1.129e+04 6.536e-09
 75.72353     -8.4 1.142e+04 7.182e-09
 75.74657     -8.3 1.121e+04 6.164e-09
 75.78642     -5.7 1.095e+04 7.035e-09
 75.82551     -3.2 1.141e+04 1.139e-08
 75.84539     -1.5 1.094e+04 9.058e-09
 75.85532      0.7 1.119e+04 1.184e-08
 75.87520      1.1 1.039e+04 6.969e-09
 75.90570      3.2 1.066e+04 9.092e-09
 75.94546      5.2 1.077e+04 1.094e-08
 75.98522      6.9 1.071e+04 1.114e-08
 76.02498      8.2 1.053e+04 1.057e-08
 76.06474      9.0 1.040e+04 1.041e-08
 76.08863     10.2 1.008e+04 9.879e-09
 76.10851     11.3 9.954e+03 9.535e-09
 76.14425     12.4 9.719e+03 8.065e-09
 76.18401     12.9 9.727e+03 7.549e-09
 76.22377     13.1 9.955e+03 9.301e-09
 76.24995     13.7 1.026e+04 1.320e-08
 76.26983     15.0 9.810e+03 6.910e-09
 76.30329     15.4 1.045e+04 1.313e-08
 76.33196     16.1 1.040e+04 1.507e-08
 76.35184     17.0 9.526e+03 8.501e-09
 76.37277     16.8 1.020e+04 1.218e-08
 76.39255     16.6 1.051e+04 1.403e-08
 76.41243     16.2 1.071e+04 1.409e-08
 76.43231     15.4 1.092e+04 1.573e-08
 76.44707     15.6 1.107e+04 1.801e-08
 76.45701     15.3 1.168e+04 2.492e-08
 76.46347     15.4 1.176e+04 2.490e-08
 76.47341     16.1 1.148e+04 2.275e-08
 76.49195     16.0 1.158e+04 2.147e-08
 76.51183     14.5 1.244e+04 2.182e-08
 76.53171     12.6 1.282e+04 2.399e-08
 76.55159     12.0 1.238e+04 2.710e-08
 76.57147     12.5 1.191e+04 2.336e-08
 76.58514     12.6 1.137e+04 1.625e-08
 76.59508     13.0 1.114e+04 1.475e-08
 76.61123     13.3 1.084e+04 1.009e-08
 76.63111     12.9 1.046e+04 7.774e-09
 76.64439     12.3 1.038e+04 6.091e-09
 76.65433     11.4 1.023e+04 6.007e-09
 76.67087     11.2 1.000e+04 6.014e-09
 76.69075     11.1 9.995e+03 6.888e-09
 76.70681     11.4 1.004e+04 7.763e-09
 76.71675     11.8 1.031e+04 9.480e-09
 76.73050     12.7 1.038e+04 1.175e-08
 76.75038     13.6 1.060e+04 1.219e-08
 76.77026     14.3 1.083e+04 1.072e-08
 76.79014     13.8 1.095e+04 8.711e-09
 76.81002     13.0 1.049e+04 7.700e-09
 76.82848     12.4 1.022e+04 6.937e-09
 76.83841     12.9 1.023e+04 7.335e-09
 76.84171     12.8 1.019e+04 7.152e-09
 76.85165     12.5 9.901e+03 6.571e-09
 76.86966     12.9 9.960e+03 6.664e-09
 76.88954     13.2 1.013e+04 7.128e-09
 76.90942     13.5 1.022e+04 7.394e-09
 76.92930     14.0 1.028e+04 7.839e-09
 76.94918     14.8 1.022e+04 7.959e-09
 76.96008     15.6 1.023e+04 7.617e-09
 76.97002     15.8 1.002e+04 6.781e-09
 76.98894     16.7 1.007e+04 7.092e-09
 77.00882     17.6 1.008e+04 6.830e-09
 77.02870     18.4 1.003e+04 6.861e-09
 77.03902     19.5 1.003e+04 6.475e-09
 77.04896     19.3 1.012e+04 6.980e-09
 77.06846     20.3 1.004e+04 6.444e-09
 77.08175     21.6 1.000e+04 5.762e-09
 77.09169     22.0 1.003e+04 6.861e-09
 77.10822     23.1 1.006e+04 6.187e-09
 77.12810     24.3 9.938e+03 5.268e-09
 77.14798     25.4 9.982e+03 4.947e-09
 77.16785     26.4 1.011e+04 5.164e-09
 77.18773     27.6 1.017e+04 5.396e-09
 77.20342     28.9 1.022e+04 5.667e-09
 77.21336     29.4 1.026e+04 5.908e-09
 77.22640     30.5 1.052e+04 6.428e-09
 77.23634     30.5 1.028e+04 5.950e-09
 77.24737     31.0 1.076e+04 7.743e-09
 77.26725     31.0 1.131e+04 1.228e-08
 77.28713     31.2 1.222e+04 2.277e-08
 77.30701     32.3 1.360e+04 4.365e-08
 77.32508     33.6 1.458e+04 6.037e-08
 77.33502     33.6 1.432e+04 5.642e-08
 77.34677     34.7 1.423e+04 5.319e-08
 77.36665     35.7 1.374e+04 3.861e-08
 77.38653     35.1 1.312e+04 2.278e-08
 77.40641     33.3 1.242e+04 1.343e-08
 77.42372     31.8 1.181e+04 9.432e-09
 77.43366     31.4 1.137e+04 6.911e-09
 77.44617     30.5 1.144e+04 7.265e-09
 77.45669     29.2 1.174e+04 9.169e-09
 77.46663     29.9 1.160e+04 7.460e-09
 77.48593     28.1 1.200e+04 1.085e-08
 77.50581     26.5 1.228e+04 1.874e-08
 77.52569     26.0 1.253e+04 2.958e-08
 77.54557     25.7 1.255e+04 3.099e-08
 77.56545     26.0 1.217e+04 2.734e-08
 77.57836     25.6 1.169e+04 1.995e-08
 77.58830     26.1 1.172e+04 1.957e-08
 77.60520     24.3 1.117e+04 1.409e-08
 77.62104     22.7 1.072e+04 1.256e-08
 77.63097     21.2 1.036e+04 1.141e-08
 77.64496     20.0 1.064e+04 1.332e-08
 77.66484     19.0 1.143e+04 1.826e-08
 77.68472     18.1 1.240e+04 2.735e-08
 77.70002     18.0 1.322e+04 3.935e-08
 77.70996     18.5 1.254e+04 2.758e-08
 77.72448     17.7 1.308e+04 3.291e-08
 77.74436     16.6 1.313e+04 3.356e-08
 77.76424     15.5 1.263e+04 2.762e-08
 77.78412     14.5 1.175e+04 2.020e-08
 77.80400     13.1 1.123e+04 1.601e-08
 77.81835     10.8 1.154e+04 1.417e-08
 77.82610      8.8 1.126e+04 1.243e-08
 77.83163      5.6 1.372e+04 2.393e-08
 77.84376      2.7 1.389e+04 4.017e-08
 77.86364      3.6 1.418e+04 6.032e-08
 77.88352      4.9 1.432e+04 6.209e-08
 77.90340      5.5 1.397e+04 4.728e-08
 77.92328      5.1 1.344e+04 3.451e-08
 77.94316      4.4 1.291e+04 2.864e-08
 77.95330      4.5 1.250e+04 2.386e-08
 77.96324      2.7 1.141e+04 1.393e-08
 77.98292      3.5 1.099e+04 1.113e-08
 78.00280      4.3 1.081e+04 1.007e-08
 78.01567      5.1 1.069e+04 9.742e-09
 78.02561      4.4 1.130e+04 1.381e-08
 78.04255      5.6 1.131e+04 1.331e-08
 78.06243      6.9 1.146e+04 1.527e-08
 78.07497      8.2 1.188e+04 1.768e-08
 78.08491      7.9 1.135e+04 1.213e-08
 78.10219      8.7 1.194e+04 1.498e-08
 78.12207      9.3 1.261e+04 2.118e-08
 78.14195      9.9 1.341e+04 3.372e-08
 78.16183     10.8 1.416e+04 5.023e-08
 78.18171     12.1 1.471e+04 6.809e-08
 78.19663     13.1 1.487e+04 7.309e-08
 78.20657     13.1 1.488e+04 7.267e-08
 78.21299     14.1 1.478e+04 6.653e-08
 78.22293     14.2 1.592e+04 1.150e-07
 78.24135     15.1 1.550e+04 8.485e-08
 78.26123     15.5 1.488e+04 5.364e-08
 78.28111     15.3 1.429e+04 3.377e-08
 78.30099     14.9 1.375e+04 2.528e-08
 78.31830     14.9 1.330e+04 2.205e-08
 78.32824     15.8 1.378e+04 2.583e-08
 78.34075     16.0 1.345e+04 2.406e-08
 78.36063     16.5 1.329e+04 2.293e-08
 78.38051     17.1 1.318e+04 2.052e-08
 78.40036     17.1 1.317e+04 1.672e-08
 78.42024     14.5 1.416e+04 2.171e-08
 78.43997     11.6 1.501e+04 3.923e-08
 78.44986     11.3 1.534e+04 4.229e-08
 78.45496     10.3 1.516e+04 6.216e-08
 78.46490     10.6 1.526e+04 6.895e-08
 78.47484     10.6 1.529e+04 6.742e-08
 78.48478     10.7 1.515e+04 6.404e-08
 78.49973     10.3 1.479e+04 4.234e-08
 78.51966      8.8 1.407e+04 2.244e-08
 78.53954      7.9 1.308e+04 1.487e-08
 78.55942      8.0 1.299e+04 8.346e-09
 78.57157      8.5 1.216e+04 7.241e-09
 78.58151      7.9 1.195e+04 4.964e-09
 78.59778      9.4 1.213e+04 2.493e-09
 78.60772      8.8 1.245e+04 3.965e-09
 78.61906      9.6 1.220e+04 3.552e-09
 78.63894     10.7 1.215e+04 3.423e-09
 78.65882     11.6 1.206e+04 3.585e-09
 78.67870     13.0 1.197e+04 3.394e-09
 78.69324     13.9 1.205e+04 3.606e-09
 78.70318     13.7 1.198e+04 3.538e-09
 78.71846     14.7 1.204e+04 3.855e-09
 78.73834     15.7 1.218e+04 4.317e-09
 78.75822     16.4 1.250e+04 4.859e-09
 78.77810     16.2 1.302e+04 6.167e-09
 78.79500     15.3 1.386e+04 1.041e-08
 78.80494     14.3 1.437e+04 2.563e-08
 78.81491     14.1 1.494e+04 4.969e-08
 78.82485     14.6 1.486e+04 4.112e-08
 78.83774     15.3 1.514e+04 6.523e-08
 78.85762     16.0 1.495e+04 6.607e-08
 78.87750     17.8 1.413e+04 4.651e-08
 78.89737     18.7 1.337e+04 2.772e-08
 78.91725     19.2 1.272e+04 1.452e-08
 78.93658     19.0 1.248e+04 1.217e-08
 78.94652     19.2 1.282e+04 1.505e-08
 78.96705     20.6 1.194e+04 8.891e-09
 78.99251     22.3 1.149e+04 7.470e-09
 79.01239     22.4 1.197e+04 1.070e-08
 79.04667     24.5 1.177e+04 1.013e-08
 79.06838     26.8 1.151e+04 8.475e-09
 79.08826     26.7 1.184e+04 8.563e-09
 79.12618     29.0 1.146e+04 6.182e-09
 79.16594     31.3 1.121e+04 5.092e-09
 79.20570     33.7 1.093e+04 4.713e-09
 79.24546     36.4 1.095e+04 4.793e-09
 79.28522     38.5 1.124e+04 5.856e-09
 79.31161     39.0 1.184e+04 8.026e-09
 79.33149     39.3 1.215e+04 9.063e-09
 79.35470     39.3 1.239e+04 1.064e-08
 79.37448     39.4 1.255e+04 1.238e-08
 79.38695     39.4 1.253e+04 1.297e-08
 79.39689     38.5 1.234e+04 1.120e-08
 79.41424     38.5 1.206e+04 1.047e-08
 79.43318     38.9 1.163e+04 8.532e-09
 79.44312     38.8 1.137e+04 7.069e-09
 79.45400     39.2 1.107e+04 5.025e-09
 79.47388     39.4 1.088e+04 3.225e-09
 79.49376     39.0 1.083e+04 2.240e-09
 79.52368     39.2 1.062e+04 2.454e-09
 79.55505     40.0 1.050e+04 2.580e-09
 79.57493     41.0 1.018e+04 1.287e-09
 79.60329     42.4 1.015e+04 1.783e-09
 79.64305     43.9 1.027e+04 2.732e-09
 79.67277     44.8 1.032e+04 3.539e-09
 79.68646     45.2 1.031e+04 3.943e-09
 79.69640     45.8 1.031e+04 3.586e-09
 79.71244     46.6 1.026e+04 4.103e-09
 79.73232     47.5 1.022e+04 4.515e-09
 79.75219     48.3 1.019e+04 4.258e-09
 79.77164     48.7 1.015e+04 3.991e-09
 79.78168     48.5 1.017e+04 3.868e-09
 79.79838     50.4 9.965e+03 3.272e-09
 79.81816     51.4 1.014e+04 3.784e-09
 79.84175     53.6 1.006e+04 3.468e-09
 79.88161     55.5 9.810e+03 2.835e-09
 79.92137     57.4 9.566e+03 2.357e-09
 79.96113     59.6 9.411e+03 2.063e-09
 80.00088     61.9 9.304e+03 1.831e-09
 80.04064     64.3 9.206e+03 1.569e-09
 80.06159     66.7 9.079e+03 1.316e-09
 80.08147     67.7 9.359e+03 2.047e-09
 80.12016     70.0 9.188e+03 1.775e-09
 80.15653     72.3 9.063e+03 1.683e-09
 80.17641     72.7 9.344e+03 2.165e-09
 80.19968     74.9 9.336e+03 2.216e-09
 80.23944     77.0 9.354e+03 2.492e-09
 80.27920     79.0 9.413e+03 2.994e-09
 80.30483     80.2 9.422e+03 3.313e-09
 80.31467     80.2 9.446e+03 3.609e-09
 80.32870     81.3 9.512e+03 4.144e-09
 80.34858     82.2 9.621e+03 4.691e-09
 80.36359     83.2 9.733e+03 5.127e-09
 80.37353     83.2 9.880e+03 5.498e-09
 80.38834     83.9 9.943e+03 5.756e-09
 80.40822     84.5 9.930e+03 5.888e-09
 80.42640     85.0 9.905e+03 5.947e-09
 80.43634     85.0 9.960e+03 6.005e-09
 80.44798     85.4 9.959e+03 6.209e-09
 80.46786     85.7 9.955e+03 6.410e-09
 80.48774     85.9 9.964e+03 6.708e-09
 80.50762     86.0 9.984e+03 7.119e-09
 80.52750     86.0 1.002e+04 7.622e-09
 80.54738     85.8 1.008e+04 8.129e-09
 80.55801     85.5 1.014e+04 8.370e-09
 80.56160     84.9 1.016e+04 8.466e-09
 80.57085     84.3 1.041e+04 9.434e-09
 80.58714     83.7 1.023e+04 8.618e-09
 80.60701     83.2 9.943e+03 7.274e-09
 80.62689     82.6 9.604e+03 5.833e-09
 80.64677     82.0 9.285e+03 4.626e-09
 80.66665     81.3 9.015e+03 3.733e-09
 80.67967     80.6 9.026e+03 3.449e-09
 80.68961     80.1 8.910e+03 3.407e-09
 80.70641     79.7 8.894e+03 3.389e-09
 80.72629     79.6 8.902e+03 3.402e-09
 80.74617     79.6 8.922e+03 3.458e-09
 80.75823     79.6 8.945e+03 3.555e-09
 80.76817     78.8 9.082e+03 3.915e-09
 80.78593     78.9 9.107e+03 4.018e-09
 80.80134     79.0 9.176e+03 4.222e-09
 80.81128     79.4 8.985e+03 3.616e-09
 80.82569     79.6 9.091e+03 3.878e-09
 80.84557     79.5 9.301e+03 4.505e-09
 80.86545     79.2 9.639e+03 5.908e-09
 80.88533     78.1 1.054e+04 8.938e-09
 80.90521     75.0 1.314e+04 2.401e-08
 80.92007     73.9 1.405e+04 3.620e-08
 80.92788     73.2 1.474e+04 5.043e-08
 80.93290     75.3 1.431e+04 4.003e-08
 80.93995     73.9 1.536e+04 6.361e-08
 80.94984     72.7 1.626e+04 8.916e-08
 80.95545     70.7 1.753e+04 1.335e-07
 80.96042     69.0 1.796e+04 1.583e-07
 80.96972     65.8 1.889e+04 2.583e-07
 80.97966     62.1 1.920e+04 4.390e-07
 80.98871     56.5 1.919e+04 9.193e-07
 80.99368     54.6 1.874e+04 1.927e-06
 80.99954     45.9 1.852e+04 2.869e-06
 81.00948     37.8 1.884e+04 2.031e-06
 81.01942     33.1 1.910e+04 6.747e-07
 81.02936     28.3 1.859e+04 1.969e-07
 81.04432     24.1 1.718e+04 8.148e-08
 81.05462     17.4 1.440e+04 1.596e-08
 81.06456     10.9 1.160e+04 4.380e-09
 81.08412      9.3 9.693e+03 2.987e-09
 81.10400     10.5 9.571e+03 2.637e-09
 81.12388     11.8 9.624e+03 2.498e-09
 81.14292     13.3 9.586e+03 2.372e-09
 81.15286     12.7 9.572e+03 2.319e-09
 81.16364     13.5 9.674e+03 2.411e-09
 81.19356     15.3 9.756e+03 2.586e-09
 81.23342     18.3 9.564e+03 2.338e-09
 81.27317     20.9 9.606e+03 2.372e-09
 81.29814     23.5 9.686e+03 2.483e-09
 81.31802     22.9 9.860e+03 3.238e-09
 81.34043     25.6 9.941e+03 3.403e-09
 81.36031     25.1 9.982e+03 3.892e-09
 81.39245     27.9 1.004e+04 4.041e-09
 81.43221     30.8 1.005e+04 3.927e-09
 81.47197     33.6 1.004e+04 3.670e-09
 81.51173     36.5 9.996e+03 3.337e-09
 81.54148     39.4 9.955e+03 2.984e-09
 81.56136     39.4 9.827e+03 2.872e-09
 81.59125     42.4 9.757e+03 2.480e-09
 81.63101     45.4 9.728e+03 2.173e-09
 81.67077     48.4 9.699e+03 1.940e-09
 81.71052     51.4 9.688e+03 1.730e-09
 81.73507     54.4 9.680e+03 1.545e-09
 81.75495     54.1 9.622e+03 1.443e-09
 81.78481     57.0 9.647e+03 1.332e-09
 81.80469     57.7 9.616e+03 1.540e-09
 81.82980     60.7 9.656e+03 1.424e-09
 81.86956     63.7 9.718e+03 1.307e-09
 81.90932     66.7 9.778e+03 1.230e-09
 81.94908     69.7 9.766e+03 1.229e-09
 81.98884     72.8 9.753e+03 1.274e-09
 82.02815     75.8 9.723e+03 1.382e-09
 82.04803     76.4 9.693e+03 1.469e-09
 82.06836     79.4 9.683e+03 1.624e-09
 82.10812     82.2 9.716e+03 1.874e-09
 82.12970     84.6 9.776e+03 2.179e-09
 82.14958     83.8 9.540e+03 1.769e-09
 82.18763     86.1 9.640e+03 2.152e-09
 82.22739     88.0 9.763e+03 2.586e-09
 82.26715     89.2 9.820e+03 2.920e-09
 82.29126     90.7 9.857e+03 3.460e-09
 82.30111     91.3 9.827e+03 3.561e-09
 82.31666     92.4 9.968e+03 4.151e-09
 82.32682     93.3 1.013e+04 4.679e-09
 82.33676     92.9 1.004e+04 4.230e-09
 82.35641     93.5 1.027e+04 4.788e-09
 82.37629     93.5 1.050e+04 5.477e-09
 82.39617     93.1 1.084e+04 6.699e-09
 82.41283     92.2 1.143e+04 9.538e-09
 82.42277     93.4 1.134e+04 9.373e-09
 82.43593     92.4 1.206e+04 1.461e-08
 82.45581     91.5 1.275e+04 2.230e-08
 82.47569     90.7 1.318e+04 2.828e-08
 82.49557     89.8 1.335e+04 2.979e-08
 82.51420     88.6 1.331e+04 2.761e-08
 82.52414     87.6 1.288e+04 2.176e-08
 82.53450     86.0 1.278e+04 2.017e-08
 82.54444     87.2 1.295e+04 2.336e-08
 82.55521     85.5 1.296e+04 2.343e-08
 82.57509     83.6 1.320e+04 2.617e-08
 82.59497     82.0 1.355e+04 3.047e-08
 82.61485     80.3 1.361e+04 3.066e-08
 82.63473     78.3 1.368e+04 2.833e-08
 82.65461     75.8 1.381e+04 2.780e-08
 82.66611     72.4 1.414e+04 2.982e-08
 82.67605     73.3 1.393e+04 2.768e-08
 82.69437     68.9 1.505e+04 4.353e-08
 82.71152     65.3 1.561e+04 6.067e-08
 82.72146     66.6 1.541e+04 5.752e-08
 82.73413     63.5 1.550e+04 6.063e-08
 82.75401     60.5 1.526e+04 4.747e-08
 82.77388     53.9 1.560e+04 3.472e-08
 82.78777     44.0 1.619e+04 4.867e-08
 82.79771     45.2 1.572e+04 3.918e-08
 82.81364     38.7 1.473e+04 4.962e-08
 82.83352     38.1 1.422e+04 4.769e-08
 82.85340     38.2 1.333e+04 3.322e-08
 82.87328     37.2 1.244e+04 1.670e-08
 82.89316     34.3 1.119e+04 8.151e-09
 82.90883     32.5 1.011e+04 5.497e-09
 82.91517     33.0 9.946e+03 5.119e-09
 82.91938     33.7 9.757e+03 4.786e-09
 82.93292     34.0 9.610e+03 4.500e-09
 82.95280     34.7 9.580e+03 4.379e-09
 82.97268     35.3 9.622e+03 4.334e-09
 82.99256     36.1 9.622e+03 4.276e-09
 83.01244     36.9 9.615e+03 4.237e-09
 83.03111     37.9 9.623e+03 4.235e-09
 83.04105     38.4 9.559e+03 4.158e-09
 83.05220     39.3 9.585e+03 4.207e-09
 83.07208     40.1 9.587e+03 4.298e-09
 83.09196     41.3 9.637e+03 4.430e-09
 83.10615     42.2 9.696e+03 4.626e-09
 83.11609     42.6 9.563e+03 4.222e-09
 83.13172     43.6 9.634e+03 4.573e-09
 83.15160     44.7 9.736e+03 4.978e-09
 83.16272     45.7 9.910e+03 5.626e-09
 83.17266     45.9 9.692e+03 4.961e-09
 83.19135     46.9 9.835e+03 5.667e-09
 83.21123     48.0 1.008e+04 6.580e-09
 83.23111     48.5 1.055e+04 8.231e-09
 83.25099     48.3 1.127e+04 1.166e-08
 83.27087     47.6 1.229e+04 1.956e-08
 83.28438     47.2 1.358e+04 3.593e-08
 83.29432     47.3 1.335e+04 3.223e-08
 83.30347     47.2 1.448e+04 5.367e-08
 83.31341     47.2 1.403e+04 4.907e-08
 83.33051     47.3 1.406e+04 4.830e-08
 83.35039     47.8 1.363e+04 3.868e-08
 83.37027     47.8 1.262e+04 2.009e-08
 83.39015     46.1 1.162e+04 8.383e-09
 83.40605     42.3 1.053e+04 4.559e-09
 83.41599     42.2 1.057e+04 4.703e-09
 83.42991     39.9 1.018e+04 4.447e-09
 83.44979     38.5 1.033e+04 4.919e-09
 83.46967     37.2 1.080e+04 7.181e-09
 83.48955     36.4 1.147e+04 1.119e-08
 83.50078     35.7 1.249e+04 1.655e-08
 83.51072     36.9 1.238e+04 1.596e-08
 83.52772     35.0 1.426e+04 2.325e-08
 83.53766     35.7 1.373e+04 2.509e-08
 83.54919     33.5 1.499e+04 3.605e-08
 83.56907     30.0 1.752e+04 6.853e-08
 83.58895     27.5 1.799e+04 1.438e-07
 83.59939     26.2 1.819e+04 1.889e-07
 83.60432     26.3 1.820e+04 1.925e-07
 83.61370     25.9 1.822e+04 2.047e-07
 83.62364     24.4 1.861e+04 2.212e-07
 83.63358     23.0 1.874e+04 2.190e-07
 83.64352     21.2 1.920e+04 2.085e-07
 83.65346     19.8 1.906e+04 1.998e-07
 83.65923     17.8 1.914e+04 1.745e-07
 83.66420     18.9 1.941e+04 1.990e-07
 83.67334     17.4 1.908e+04 1.847e-07
 83.68328     15.4 1.863e+04 1.567e-07
 83.69303     13.7 1.781e+04 1.291e-07
 83.69800     14.2 1.819e+04 1.319e-07
 83.70316     12.6 1.732e+04 1.112e-07
 83.71310     11.2 1.627e+04 9.229e-08
 83.72006     10.1 1.561e+04 7.155e-08
 83.72503     11.5 1.670e+04 1.112e-07
 83.73297     10.5 1.608e+04 9.333e-08
 83.74291      9.3 1.600e+04 7.371e-08
 83.75285      7.8 1.568e+04 6.439e-08
 83.76279      5.9 1.526e+04 5.362e-08
 83.77273      4.3 1.474e+04 4.807e-08
 83.78089      2.7 1.413e+04 4.223e-08
 83.78586      2.9 1.513e+04 5.549e-08
 83.79169      2.0 1.463e+04 5.163e-08
 83.79666      2.4 1.509e+04 6.070e-08
 83.80255      1.6 1.463e+04 5.536e-08
 83.81249      1.3 1.447e+04 5.323e-08
 83.82243      0.8 1.432e+04 4.840e-08
 83.83237      0.8 1.430e+04 4.772e-08
 83.84733     -0.6 1.376e+04 3.888e-08
 83.86726     -1.7 1.277e+04 3.048e-08
 83.88548     -2.3 1.156e+04 2.166e-08
 83.89542     -0.9 1.154e+04 2.117e-08
 83.90266     -1.4 1.058e+04 1.509e-08
 83.91260     -1.2 1.164e+04 2.095e-08
 83.92690     -3.1 1.125e+04 1.581e-08
 83.94678     -6.9 1.195e+04 1.324e-08
 83.96666    -13.4 1.491e+04 1.757e-08
 83.98654    -19.6 1.689e+04 5.178e-08
 84.00642    -22.5 1.740e+04 1.141e-07
 84.02433    -23.3 1.757e+04 1.951e-07
 84.03426    -25.8 1.757e+04 2.037e-07
 84.04618    -24.8 1.731e+04 1.677e-07
 84.06605    -24.0 1.706e+04 9.660e-08
 84.08280    -24.0 1.626e+04 3.876e-08
 84.09274    -25.4 1.600e+04 3.044e-08
 84.10581    -27.2 1.343e+04 1.025e-08
 84.12569    -27.0 1.006e+04 5.899e-09
 84.14557    -27.3 8.937e+03 4.711e-09
 84.17549    -29.2 7.987e+03 4.158e-09
 84.21535    -26.1 8.050e+03 4.159e-09
 84.25511    -23.1 8.293e+03 4.556e-09
 84.27779    -20.3 8.531e+03 5.150e-09
 84.29767    -20.4 8.270e+03 4.462e-09
 84.33462    -17.8 8.459e+03 4.911e-09
 84.37438    -15.5 8.549e+03 5.061e-09
 84.41414    -13.1 8.451e+03 4.630e-09
 84.45390    -10.4 8.155e+03 3.658e-09
 84.47762     -8.0 7.879e+03 2.862e-09
 84.49750     -7.7 8.250e+03 3.692e-09
 84.52113     -5.3 7.980e+03 2.753e-09
 84.54101     -5.2 8.034e+03 2.875e-09
 84.57318     -2.7 7.935e+03 2.599e-09
 84.61294     -0.2 8.006e+03 2.706e-09
 84.65270      2.3 8.257e+03 3.255e-09
 84.69246      4.6 8.438e+03 3.502e-09
 84.73221      6.6 8.532e+03 3.308e-09
 84.76446      8.2 8.673e+03 3.294e-09
 84.78434      7.7 8.556e+03 2.936e-09
 84.81173      8.6 8.823e+03 3.455e-09
 84.84145      9.2 9.274e+03 4.450e-09
 84.86124      9.0 9.569e+03 4.999e-09
 84.87206      8.6 9.930e+03 7.194e-09
 84.88200      8.8 9.871e+03 6.793e-09
 84.89587      8.8 1.017e+04 8.042e-09
 84.90581      8.5 9.860e+03 6.123e-09
 84.92087      7.4 1.036e+04 8.038e-09
 84.94075      5.6 1.108e+04 9.517e-09
 84.96063      3.7 1.117e+04 1.282e-08
 84.98051      2.6 1.140e+04 1.439e-08
 85.00039      0.9 1.159e+04 1.281e-08
 85.01754     -0.8 1.166e+04 1.047e-08
 85.02748      0.2 1.143e+04 1.031e-08
 85.05019     -1.6 1.141e+04 6.075e-09
 85.09005     -3.7 1.078e+04 3.706e-09
 85.12981     -4.0 1.053e+04 3.011e-09
 85.16956     -3.4 1.024e+04 2.680e-09
 85.20932     -2.6 1.016e+04 2.499e-09
 85.24701     -2.0 1.010e+04 2.475e-09
 85.26689     -2.0 9.953e+03 2.210e-09
 85.27101     -1.5 9.921e+03 2.324e-09
 85.29089     -1.2 9.735e+03 2.129e-09
 85.32860     -0.9 9.715e+03 2.207e-09
 85.36836     -1.0 9.719e+03 2.296e-09
 85.40812     -2.1 9.943e+03 3.087e-09
 85.44788     -3.5 1.016e+04 4.990e-09
 85.48764     -4.2 1.041e+04 7.002e-09
 85.51435     -5.7 1.026e+04 6.285e-09
 85.52419     -5.6 1.038e+04 7.198e-09
 85.53714     -5.5 1.035e+04 6.725e-09
 85.55702     -7.1 9.819e+03 4.097e-09
 85.57690     -7.2 9.744e+03 3.965e-09
 85.60682     -7.7 9.457e+03 2.994e-09
 85.64165     -8.2 9.189e+03 2.224e-09
 85.66153    -10.3 9.119e+03 2.063e-09
 85.68643    -11.4 9.458e+03 2.192e-09
 85.72619    -13.1 1.014e+04 5.169e-09
 85.75591    -13.1 1.053e+04 8.173e-09
 85.76742    -13.2 1.093e+04 1.106e-08
 85.77736    -13.2 1.066e+04 9.404e-09
 85.79557    -13.2 1.086e+04 1.066e-08
 85.81545    -13.8 1.072e+04 1.019e-08
 85.83533    -14.2 1.035e+04 8.258e-09
 85.84871    -14.5 1.001e+04 6.264e-09
 85.85865    -15.0 9.660e+03 4.958e-09
 85.87509    -15.7 9.332e+03 3.731e-09
 85.88909    -16.0 9.259e+03 3.224e-09
 85.89903    -16.4 9.133e+03 3.110e-09
 85.91485    -16.9 9.080e+03 2.960e-09
 85.93473    -16.9 9.109e+03 3.000e-09
 85.95461    -16.9 9.280e+03 3.458e-09
 85.97449    -17.0 9.290e+03 3.555e-09
 85.99437    -16.4 9.496e+03 4.163e-09
 86.01076    -16.4 9.505e+03 4.121e-09
 86.02080    -16.9 9.426e+03 3.703e-09
 86.03628    -16.3 9.287e+03 2.816e-09
 86.05616    -16.0 9.051e+03 2.523e-09
 86.08402    -15.8 8.989e+03 1.968e-09
 86.12378    -15.6 8.918e+03 1.680e-09
 86.16354    -14.7 8.880e+03 1.580e-09
 86.20330    -13.5 8.892e+03 1.413e-09
 86.24306    -12.4 8.919e+03 1.228e-09
 86.26423    -11.2 8.920e+03 1.173e-09
 86.28411    -11.1 8.827e+03 1.170e-09
 86.32258     -9.3 8.954e+03 1.247e-09
 86.36234     -7.6 9.050e+03 1.268e-09
 86.40210     -6.0 9.307e+03 1.269e-09
 86.43091     -5.2 9.621e+03 1.533e-09
 86.45079     -4.8 9.590e+03 1.328e-09
 86.48161     -4.4 9.713e+03 2.253e-09
 86.50756     -3.2 1.009e+04 3.972e-09
 86.52744     -2.9 9.976e+03 3.229e-09
 86.56113     -2.1 1.032e+04 3.876e-09
 86.60089     -1.8 1.040e+04 4.096e-09
 86.64065     -1.3 1.038e+04 3.912e-09
 86.68041     -0.8 1.027e+04 3.669e-09
 86.72017      0.1 1.013e+04 3.291e-09
 86.75090      1.1 9.978e+03 2.644e-09
 86.77078      1.4 9.598e+03 1.877e-09
 86.79969      2.2 9.280e+03 1.368e-09
 86.82555      3.1 8.998e+03 1.235e-09
 86.84543      2.6 9.033e+03 1.175e-09
 86.87920      4.4 8.845e+03 1.031e-09
 86.91896      6.5 8.718e+03 8.121e-10
 86.95872      8.2 8.667e+03 6.585e-10
 86.99423     10.3 8.636e+03 6.651e-10
 87.01411     11.2 8.582e+03 6.731e-10
 87.03824     13.4 8.681e+03 7.535e-10
 87.07800     15.9 8.803e+03 8.950e-10
 87.11776     18.4 8.948e+03 1.021e-09
 87.15752     20.8 9.153e+03 1.099e-09
 87.19728     22.8 9.339e+03 1.176e-09
 87.22018     24.7 9.552e+03 1.273e-09
 87.24006     25.4 9.571e+03 1.231e-09
 87.25744     27.6 9.850e+03 1.307e-09
 87.27732     28.7 9.861e+03 1.370e-09
 87.31655     30.5 1.051e+04 1.495e-09
 87.34628     30.4 1.084e+04 1.589e-09
 87.36606     30.6 1.107e+04 1.888e-09
 87.37892     30.8 1.149e+04 2.645e-09
 87.38886     32.0 1.128e+04 2.478e-09
 87.40582     31.9 1.180e+04 3.519e-09
 87.41730     28.6 1.416e+04 7.704e-09
 87.42724     32.2 1.300e+04 6.154e-09
 87.44558     24.0 1.642e+04 3.387e-08
 87.46546     21.2 1.641e+04 1.171e-07
 87.48534     22.5 1.586e+04 1.008e-07
 87.50058     19.0 1.787e+04 3.153e-08
 87.51052     18.9 1.971e+04 3.611e-08
 87.52509      3.7 1.951e+04 8.937e-09
 87.54497     -9.1 1.373e+04 8.257e-09
 87.56485    -14.3 1.326e+04 1.386e-08
 87.58473    -15.8 1.321e+04 2.220e-08
 87.60461    -16.2 1.341e+04 2.496e-08
 87.62225    -18.7 1.291e+04 1.376e-08
 87.63219    -20.8 1.294e+04 1.244e-08
 87.64437    -22.0 1.215e+04 6.427e-09
 87.66425    -22.5 1.172e+04 3.817e-09
 87.68413    -22.6 1.148e+04 2.590e-09
 87.70401    -22.8 1.130e+04 2.071e-09
 87.72389    -22.5 1.122e+04 1.952e-09
 87.74402    -22.0 1.127e+04 2.134e-09
 87.76399    -23.1 1.103e+04 1.989e-09
 87.79366    -22.0 1.097e+04 2.416e-09
 87.83342    -20.9 1.103e+04 2.687e-09
 87.87318    -20.2 1.101e+04 2.464e-09
 87.91294    -19.7 1.080e+04 1.737e-09
 87.95270    -19.5 1.054e+04 1.344e-09
 87.98745    -18.6 1.028e+04 1.240e-09
 88.00444    -17.6 1.031e+04 1.246e-09
 88.00945    -18.0 1.034e+04 1.210e-09
 88.03222    -16.7 1.020e+04 1.108e-09
 88.07198    -15.3 1.018e+04 1.090e-09
 88.11174    -14.2 1.022e+04 1.228e-09
 88.15150    -13.8 1.039e+04 1.976e-09
 88.19125    -14.1 1.096e+04 4.189e-09
 88.23078    -15.6 1.190e+04 1.111e-08
 88.25066    -14.1 1.213e+04 1.088e-08
 88.26073    -16.0 1.317e+04 2.844e-08
 88.28052    -16.1 1.389e+04 4.222e-08
 88.30040    -16.3 1.412e+04 4.454e-08
 88.32028    -17.6 1.338e+04 3.022e-08
 88.34016    -18.9 1.247e+04 1.947e-08
 88.36004    -19.7 1.188e+04 1.454e-08
 88.37213    -19.9 1.155e+04 1.164e-08
 88.38207    -19.5 1.160e+04 1.144e-08
 88.39395    -19.5 1.138e+04 9.667e-09
 88.40389    -19.1 1.127e+04 8.628e-09
 88.41967    -18.7 1.122e+04 8.251e-09
 88.43955    -18.2 1.118e+04 8.141e-09
 88.46947    -17.1 1.099e+04 7.833e-09
 88.49400    -15.0 1.091e+04 6.857e-09
 88.51387    -14.1 1.106e+04 6.186e-09
 88.54909    -12.5 1.115e+04 5.886e-09
 88.58885    -10.7 1.131e+04 6.489e-09
 88.62860     -8.8 1.159e+04 8.052e-09
 88.66836     -7.2 1.194e+04 1.010e-08
 88.70812     -5.7 1.222e+04 1.186e-08
 88.73733     -4.8 1.240e+04 1.232e-08
 88.75721     -6.5 1.215e+04 8.314e-09
 88.77884     -6.9 1.216e+04 9.171e-09
 88.79862     -5.8 1.238e+04 1.090e-08
 88.81726     -6.5 1.249e+04 1.190e-08
 88.83714     -7.2 1.264e+04 1.255e-08
 88.85702     -8.3 1.279e+04 1.203e-08
 88.86874     -9.3 1.288e+04 1.130e-08
 88.87868     -9.9 1.291e+04 1.165e-08
 88.89678    -10.3 1.270e+04 1.012e-08
 88.91666    -10.4 1.254e+04 7.464e-09
 88.93654    -10.6 1.239e+04 5.278e-09
 88.95642    -10.4 1.231e+04 3.834e-09
 88.97596    -10.4 1.212e+04 3.034e-09
 88.98590    -10.3 1.240e+04 5.223e-09
 88.99041    -10.0 1.235e+04 4.155e-09
 89.00035    -10.0 1.244e+04 4.951e-09
 89.01606    -10.1 1.232e+04 4.179e-09
 89.03594    -10.2 1.222e+04 4.065e-09
 89.05582    -10.1 1.190e+04 4.743e-09
 89.07570    -10.3 1.183e+04 5.355e-09
 89.10562     -9.7 1.187e+04 6.468e-09
 89.14547     -9.3 1.171e+04 6.228e-09
 89.17347     -9.0 1.165e+04 5.871e-09
 89.18331    -10.7 1.234e+04 1.227e-08
 89.19498    -10.6 1.236e+04 1.176e-08
 89.21486    -10.6 1.240e+04 1.116e-08
 89.23374    -10.5 1.260e+04 1.137e-08
 89.24368    -10.2 1.278e+04 1.159e-08
 89.25461    -10.8 1.347e+04 1.475e-08
 89.27449    -12.6 1.425e+04 2.440e-08
 89.29437    -14.4 1.475e+04 4.587e-08
 89.31425    -14.3 1.584e+04 9.157e-08
 89.33413    -13.7 1.698e+04 1.396e-07
 89.35401    -14.6 1.744e+04 1.556e-07
 89.36535    -16.5 1.734e+04 1.261e-07
 89.37199    -17.8 1.725e+04 1.193e-07
 89.38053    -19.4 1.720e+04 1.283e-07
 89.39377    -20.4 1.637e+04 9.710e-08
 89.41365    -20.9 1.566e+04 6.633e-08
 89.43353    -21.6 1.485e+04 4.339e-08
 89.45341    -22.3 1.408e+04 3.223e-08
 89.47329    -22.3 1.351e+04 2.745e-08
 89.48702    -21.6 1.312e+04 2.490e-08
 89.49696    -21.5 1.294e+04 2.314e-08
 89.51305    -20.7 1.287e+04 2.310e-08
 89.53293    -19.8 1.275e+04 2.241e-08
 89.55281    -18.9 1.272e+04 2.145e-08
 89.56791    -18.3 1.280e+04 2.051e-08
 89.57785    -19.1 1.335e+04 2.855e-08
 89.59257    -18.8 1.374e+04 3.232e-08
 89.60868    -18.7 1.426e+04 3.935e-08
 89.61862    -17.9 1.402e+04 3.719e-08
 89.63233    -18.0 1.449e+04 4.534e-08
 89.65221    -18.3 1.504e+04 5.854e-08
 89.67208    -18.6 1.559e+04 7.539e-08
 89.69196    -19.0 1.589e+04 8.857e-08
 89.71184    -19.3 1.583e+04 9.043e-08
 89.73035    -19.2 1.517e+04 7.144e-08
 89.74029    -19.0 1.551e+04 8.370e-08
 89.75160    -18.7 1.456e+04 5.318e-08
 89.76523    -18.9 1.342e+04 2.937e-08
 89.77517    -19.3 1.303e+04 2.556e-08
 89.79136    -19.9 1.199e+04 1.416e-08
 89.81124    -20.3 1.128e+04 9.446e-09
 89.83112    -20.3 1.096e+04 7.731e-09
 89.85100    -19.7 1.079e+04 6.961e-09
 89.86196    -18.9 1.068e+04 6.285e-09
 89.87190    -18.7 1.070e+04 6.101e-09
 89.89076    -18.1 1.062e+04 5.187e-09
 89.91064    -17.5 1.059e+04 4.556e-09
 89.93052    -17.0 1.060e+04 4.073e-09
 89.95040    -16.4 1.056e+04 3.735e-09
 89.96254    -15.7 1.054e+04 3.401e-09
 89.97248    -15.3 1.045e+04 3.330e-09
 89.98362    -14.6 1.044e+04 3.070e-09
 89.99366    -14.6 1.039e+04 2.796e-09
 90.02017    -13.2 1.046e+04 2.415e-09
 90.05993    -12.0 1.051e+04 1.967e-09
 90.09969    -10.7 1.046e+04 1.752e-09
 90.13945     -9.0 1.051e+04 1.635e-09
 90.17921     -6.9 1.066e+04 1.686e-09
 90.21721     -4.9 1.082e+04 1.975e-09
 90.23709     -3.4 1.078e+04 1.969e-09
 90.25873     -1.2 1.109e+04 2.268e-09
 90.28845      0.1 1.099e+04 2.675e-09
 90.30823      0.9 1.137e+04 2.857e-09
 90.32811      1.8 1.124e+04 3.728e-09
 90.34724      2.1 1.174e+04 3.830e-09
 90.35718      0.4 1.307e+04 4.692e-09
 90.35857     -4.4 1.734e+04 7.145e-09
 90.36851     -0.7 1.358e+04 5.885e-09
 90.38775     -6.4 1.739e+04 1.615e-08
 90.40763     -7.3 1.687e+04 8.706e-08
 90.42751     -6.2 1.723e+04 1.381e-07
 90.44739     -5.9 1.726e+04 1.036e-07
 90.46727     -6.6 1.673e+04 7.144e-08
 90.48023     -7.2 1.635e+04 6.211e-08
 90.49017     -6.3 1.638e+04 6.062e-08
 90.50703     -6.3 1.621e+04 5.771e-08
 90.52690     -6.1 1.642e+04 6.560e-08
 90.54456     -5.8 1.674e+04 8.790e-08
 90.55450     -7.0 1.589e+04 6.342e-08
 90.56666     -6.0 1.580e+04 6.353e-08
 90.58654     -4.8 1.568e+04 5.826e-08
 90.60190     -3.9 1.545e+04 4.415e-08
 90.61184     -3.6 1.597e+04 6.349e-08
 90.62630     -2.9 1.567e+04 4.774e-08
 90.64618     -2.3 1.516e+04 3.726e-08
 90.66606     -1.1 1.464e+04 2.980e-08
 90.68594     -0.2 1.473e+04 2.012e-08
 90.70582     -0.4 1.467e+04 1.704e-08
 90.72357      1.1 1.378e+04 2.381e-08
 90.73351      1.3 1.431e+04 3.018e-08
 90.74187      3.0 1.470e+04 2.529e-08
 90.75181      3.4 1.390e+04 1.651e-08
 90.76546      4.5 1.457e+04 1.444e-08
 90.78534      5.1 1.414e+04 1.783e-08
 90.80522      6.2 1.436e+04 1.618e-08
 90.82510      7.2 1.389e+04 1.595e-08
 90.84498      8.7 1.380e+04 1.210e-08
 90.85517      8.8 1.361e+04 1.085e-08
 90.86511      9.1 1.368e+04 1.174e-08
 90.88474     10.0 1.364e+04 9.544e-09
 90.90462     10.0 1.365e+04 9.402e-09
 90.92450     11.0 1.365e+04 9.363e-09
 90.93919     11.3 1.378e+04 9.583e-09
 90.94913     11.4 1.362e+04 8.659e-09
 90.96425     12.1 1.371e+04 9.234e-09
 90.97684     12.5 1.382e+04 9.616e-09
 90.98678     12.7 1.380e+04 1.066e-08
 91.00401     13.1 1.377e+04 1.140e-08
 91.02389     13.7 1.375e+04 1.236e-08
 91.04377     14.4 1.385e+04 1.287e-08
 91.06365     15.0 1.393e+04 1.341e-08
 91.08353     15.9 1.397e+04 1.419e-08
 91.09851     16.7 1.418e+04 1.537e-08
 91.10845     16.1 1.442e+04 1.925e-08
 91.12329     16.4 1.471e+04 2.263e-08
 91.13651     16.6 1.515e+04 3.013e-08
 91.14645     17.2 1.484e+04 2.362e-08
 91.16305     16.6 1.576e+04 3.799e-08
 91.18293     13.9 1.799e+04 9.025e-08
 91.19779     10.2 1.859e+04 1.915e-07
 91.20768      8.9 1.874e+04 2.908e-07
 91.21762      8.9 1.849e+04 4.527e-07
 91.22505      9.0 1.844e+04 3.881e-07
 91.23007      9.2 1.879e+04 9.442e-08
 91.24257      7.3 1.777e+04 6.982e-08
 91.26245      4.9 1.667e+04 3.147e-08
 91.28233      2.8 1.475e+04 2.229e-08
 91.30221      2.8 1.433e+04 2.009e-08
 91.32209      3.2 1.392e+04 1.873e-08
 91.33382      3.6 1.361e+04 1.574e-08
 91.34364      4.5 1.396e+04 2.338e-08
 91.35178      5.0 1.348e+04 1.374e-08
 91.36185      5.3 1.299e+04 1.201e-08
 91.38172      5.6 1.269e+04 9.287e-09
 91.40160      5.6 1.227e+04 7.642e-09
 91.42148      5.9 1.181e+04 6.595e-09
 91.44136      6.5 1.149e+04 5.742e-09
 91.46124      7.1 1.114e+04 5.227e-09
 91.47345      8.5 1.113e+04 3.951e-09
 91.48339      8.9 1.118e+04 4.059e-09
 91.50100      9.7 1.085e+04 3.681e-09
 91.52088     10.9 1.083e+04 2.515e-09
 91.53114     10.9 1.079e+04 2.482e-09
 91.54118     12.0 1.079e+04 2.333e-09
 91.57078     14.0 1.036e+04 1.927e-09
 91.61053     16.4 1.020e+04 1.781e-09
 91.65029     18.8 1.018e+04 1.676e-09
 91.69005     21.1 1.026e+04 1.734e-09
 91.71698     22.9 1.069e+04 1.992e-09
 91.73686     23.2 1.083e+04 2.015e-09
 91.75953     24.1 1.097e+04 2.350e-09
 91.77932     24.2 1.110e+04 2.783e-09
 91.79920     23.8 1.149e+04 4.563e-09
 91.81907     24.3 1.160e+04 5.481e-09
 91.84899     23.4 1.197e+04 8.569e-09
 91.88885     22.6 1.208e+04 9.216e-09
 91.91603     21.1 1.207e+04 8.167e-09
 91.93591     23.3 1.268e+04 1.327e-08
 91.96031     21.4 1.235e+04 1.136e-08
 91.98019     21.7 1.241e+04 1.148e-08
 92.00813     20.5 1.163e+04 7.406e-09
 92.04788     20.8 1.078e+04 3.858e-09
 92.08764     21.4 1.036e+04 1.905e-09
 92.12740     21.6 1.017e+04 1.297e-09
 92.16716     22.8 1.002e+04 1.372e-09
 92.20365     24.3 9.879e+03 1.630e-09
 92.22353     24.5 1.004e+04 2.355e-09
 92.24668     26.1 1.000e+04 2.430e-09
 92.28644     27.8 9.917e+03 2.268e-09
 92.31066     29.4 9.834e+03 1.972e-09
 92.33054     30.1 9.742e+03 2.055e-09
 92.36596     31.6 9.644e+03 1.721e-09
 92.40572     33.3 9.582e+03 1.451e-09
 92.44548     35.1 9.587e+03 1.209e-09
 92.46686     36.8 9.711e+03 1.054e-09
 92.48674     37.0 9.686e+03 1.336e-09
 92.52499     38.7 9.779e+03 1.312e-09
 92.56475     40.2 9.943e+03 1.382e-09
 92.60451     41.4 1.015e+04 1.624e-09
 92.64427     42.6 1.042e+04 2.057e-09
 92.68403     43.4 1.080e+04 2.808e-09
 92.70530     43.8 1.106e+04 3.311e-09
 92.71158     44.9 1.112e+04 3.753e-09
 92.72004     44.6 1.118e+04 4.008e-09
 92.73353     44.7 1.124e+04 4.132e-09
 92.76345     45.2 1.148e+04 4.723e-09
 92.80331     45.2 1.164e+04 4.701e-09
 92.84307     45.1 1.167e+04 4.304e-09
 92.88283     44.8 1.152e+04 3.774e-09
 92.92258     44.2 1.133e+04 3.322e-09
 92.95353     43.6 1.106e+04 2.960e-09
 92.97341     43.9 1.094e+04 2.486e-09
 93.00210     44.0 1.072e+04 2.411e-09
 93.04186     44.5 1.056e+04 2.430e-09
 93.08005     45.3 1.050e+04 2.551e-09
 93.09993     45.5 1.048e+04 3.209e-09
 93.12138     46.2 1.049e+04 3.446e-09
 93.16114     46.8 1.062e+04 4.360e-09
 93.19686     47.2 1.086e+04 6.064e-09
 93.21674     48.7 1.083e+04 6.123e-09
 93.24066     49.1 1.118e+04 7.869e-09
 93.27038     48.7 1.141e+04 8.679e-09
 93.28711     48.4 1.147e+04 9.010e-09
 93.29705     48.5 1.150e+04 8.863e-09
 93.31004     48.3 1.145e+04 8.787e-09
 93.32828     48.0 1.134e+04 8.586e-09
 93.33822     48.9 1.140e+04 8.752e-09
 93.34980     48.6 1.124e+04 8.314e-09
 93.36968     48.3 1.110e+04 7.821e-09
 93.38956     48.0 1.094e+04 7.093e-09
 93.40944     47.8 1.075e+04 6.158e-09
 93.42932     47.7 1.052e+04 5.254e-09
 93.44920     47.8 1.031e+04 4.525e-09
 93.45988     47.9 1.004e+04 3.538e-09
 93.46982     48.6 1.011e+04 3.680e-09
 93.48443     48.5 9.977e+03 3.213e-09
 93.49437     48.3 9.994e+03 3.144e-09
 93.51887     49.8 9.789e+03 2.706e-09
 93.55873     51.0 9.510e+03 2.201e-09
 93.59849     52.4 9.303e+03 1.824e-09
 93.63825     54.1 9.142e+03 1.651e-09
 93.67801     56.1 9.141e+03 1.664e-09
 93.70341     58.1 9.227e+03 1.787e-09
 93.72329     59.0 9.573e+03 2.241e-09
 93.75753     60.9 9.724e+03 2.763e-09
 93.79728     62.6 9.758e+03 3.286e-09
 93.82498     63.9 9.700e+03 3.276e-09
 93.83482     64.2 9.783e+03 3.990e-09
 93.84679     65.4 9.871e+03 4.317e-09
 93.86667     66.8 9.980e+03 4.637e-09
 93.87906     67.9 1.008e+04 4.874e-09
 93.88900     67.6 9.993e+03 3.695e-09
 93.90643     68.6 1.017e+04 3.890e-09
 93.92631     68.7 1.040e+04 4.271e-09
 93.94619     68.1 1.092e+04 5.578e-09
 93.95649     65.9 1.198e+04 1.163e-08
 93.96643     67.2 1.208e+04 1.084e-08
 93.98594     65.1 1.366e+04 2.840e-08
 94.00081     63.5 1.440e+04 4.633e-08
 94.01070     63.2 1.460e+04 5.226e-08
 94.01723     62.5 1.463e+04 5.512e-08
 94.02220     62.7 1.497e+04 6.209e-08
 94.03058     62.2 1.493e+04 6.161e-08
 94.04052     61.7 1.463e+04 5.206e-08
 94.05046     61.2 1.434e+04 4.492e-08
 94.06541     59.7 1.413e+04 3.312e-08
 94.07638     56.6 1.287e+04 1.628e-08
 94.07914     55.8 1.224e+04 1.122e-08
 94.08810     55.0 1.361e+04 2.142e-08
 94.10522     52.2 1.273e+04 1.758e-08
 94.12510     49.7 1.275e+04 1.965e-08
 94.13894     47.1 1.377e+04 3.251e-08
 94.14386     47.3 1.415e+04 3.813e-08
 94.14985     47.2 1.436e+04 4.312e-08
 94.15979     46.5 1.488e+04 5.418e-08
 94.16973     45.4 1.557e+04 7.249e-08
 94.17494     44.4 1.613e+04 9.374e-08
 94.17991     44.5 1.555e+04 7.649e-08
 94.18961     43.6 1.597e+04 8.734e-08
 94.19955     42.0 1.642e+04 9.483e-08
 94.20470     40.1 1.636e+04 9.340e-08
 94.20967     40.5 1.675e+04 1.015e-07
 94.21943     38.4 1.639e+04 9.531e-08
 94.22937     36.6 1.571e+04 8.489e-08
 94.23931     35.1 1.492e+04 6.723e-08
 94.24925     33.5 1.440e+04 5.544e-08
 94.25919     31.8 1.381e+04 4.069e-08
 94.26553     31.1 1.364e+04 3.847e-08
 94.27000     30.8 1.390e+04 4.135e-08
 94.27360     31.7 1.387e+04 4.186e-08
 94.28409     30.1 1.348e+04 3.293e-08
 94.30402     28.0 1.242e+04 2.313e-08
 94.32149     27.3 1.144e+04 1.634e-08
 94.33143     27.2 1.163e+04 1.523e-08
 94.34378     27.0 1.073e+04 8.299e-09
 94.36366     26.0 1.049e+04 4.833e-09
 94.38354     24.8 9.945e+03 3.928e-09
 94.40341     24.6 9.755e+03 3.812e-09
 94.42329     25.0 9.701e+03 3.793e-09
 94.44316     25.7 9.614e+03 3.882e-09
 94.46106     26.2 9.750e+03 4.257e-09
 94.47102     26.4 9.641e+03 3.653e-09
 94.48293     27.1 9.658e+03 3.879e-09
 94.50281     27.8 9.655e+03 3.826e-09
 94.52269     28.4 9.687e+03 3.835e-09
 94.54257     28.7 9.786e+03 3.998e-09
 94.56245     29.0 9.869e+03 4.348e-09
 94.57477     29.4 9.962e+03 4.834e-09
 94.58471     29.2 1.013e+04 5.684e-09
 94.60221     29.9 1.020e+04 5.718e-09
 94.62209     30.3 1.026e+04 5.294e-09
 94.64197     30.4 1.026e+04 4.770e-09
 94.65849     30.6 1.005e+04 3.778e-09
 94.67847     32.0 1.037e+04 5.260e-09
 94.69663     32.4 1.026e+04 3.996e-09
 94.71651     32.1 1.008e+04 3.225e-09
 94.75150     32.9 1.006e+04 2.946e-09
 94.79126     34.0 1.014e+04 3.053e-09
 94.81820     34.8 1.023e+04 3.043e-09
 94.82804     35.0 1.024e+04 3.072e-09
 94.84076     35.1 1.029e+04 3.106e-09
 94.87068     36.0 1.045e+04 3.216e-09
 94.91054     36.3 1.069e+04 3.507e-09
 94.93996     36.4 1.098e+04 4.921e-09
 94.95984     37.7 1.100e+04 4.720e-09
 94.99006     38.4 1.127e+04 7.215e-09
 95.02982     39.3 1.180e+04 1.043e-08
 95.05312     38.6 1.260e+04 1.534e-08
 95.06297     37.7 1.323e+04 2.292e-08
 95.07137     37.6 1.384e+04 3.240e-08
 95.08131     38.1 1.389e+04 3.305e-08
 95.09920     38.1 1.443e+04 4.402e-08
 95.11908     38.2 1.486e+04 5.392e-08
 95.13896     38.2 1.492e+04 5.423e-08
 95.15884     38.3 1.478e+04 5.046e-08
 95.17872     38.5 1.451e+04 4.475e-08
 95.19304     38.7 1.422e+04 3.808e-08
 95.20298     38.8 1.443e+04 4.205e-08
 95.21848     39.0 1.427e+04 3.733e-08
 95.23836     39.2 1.414e+04 3.165e-08
 95.25034     39.4 1.409e+04 2.708e-08
 95.26028     38.7 1.334e+04 1.464e-08
 95.27811     38.9 1.329e+04 1.379e-08
 95.29799     39.3 1.313e+04 1.283e-08
 95.31471     39.6 1.294e+04 1.164e-08
 95.32465     39.5 1.313e+04 1.283e-08
 95.33775     39.6 1.294e+04 1.130e-08
 95.35763     39.8 1.278e+04 1.042e-08
 95.37751     40.0 1.259e+04 1.001e-08
 95.39739     40.3 1.246e+04 1.009e-08
 95.41727     40.6 1.234e+04 1.033e-08
 95.43638     40.9 1.225e+04 1.090e-08
 95.44632     40.6 1.243e+04 1.295e-08
 95.44766     41.1 1.234e+04 1.294e-08
 95.45760     41.1 1.198e+04 1.074e-08
 95.47691     41.1 1.198e+04 1.082e-08
 95.50683     41.9 1.162e+04 9.188e-09
 95.54668     43.4 1.127e+04 5.910e-09
 95.58644     44.5 1.106e+04 3.316e-09
 95.62620     45.4 1.075e+04 2.419e-09
 95.66596     47.0 1.062e+04 2.371e-09
 95.68985     48.9 1.060e+04 2.435e-09
 95.70972     49.0 1.035e+04 1.688e-09
 95.74548     51.2 1.037e+04 1.663e-09
 95.78524     53.2 1.043e+04 1.604e-09
 95.82261     55.0 1.050e+04 1.647e-09
 95.84249     54.9 1.045e+04 1.253e-09
 95.86476     56.5 1.052e+04 1.375e-09
 95.90452     58.2 1.057e+04 1.682e-09
 95.93318     60.1 1.049e+04 2.018e-09
 95.95306     60.9 1.026e+04 1.391e-09
 95.98403     63.2 1.021e+04 1.698e-09
 96.02379     65.5 1.015e+04 1.688e-09
 96.06355     67.9 1.010e+04 1.504e-09
 96.10331     70.2 1.000e+04 1.289e-09
 96.14307     72.5 9.942e+03 1.247e-09
 96.17651     74.8 9.930e+03 1.286e-09
 96.19639     75.6 9.959e+03 1.442e-09
 96.21724     77.7 9.957e+03 1.576e-09
 96.23712     77.4 9.947e+03 1.578e-09
 96.26235     79.3 9.945e+03 1.743e-09
 96.30211     81.2 9.973e+03 1.960e-09
 96.34187     83.1 1.005e+04 2.202e-09
 96.38162     84.6 1.002e+04 2.391e-09
 96.41985     85.9 9.963e+03 2.515e-09
 96.43963     85.7 9.939e+03 2.630e-09
 96.45101     86.6 9.876e+03 2.770e-09
 96.47089     86.9 9.869e+03 2.892e-09
 96.50080     87.9 1.016e+04 4.326e-09
 96.53062     89.1 1.002e+04 4.172e-09
 96.55040     89.3 9.972e+03 4.048e-09
 96.56120     90.2 9.896e+03 3.867e-09
 96.57114     89.9 9.907e+03 3.860e-09
 96.59016     90.1 9.887e+03 3.775e-09
 96.61178     91.4 9.751e+03 3.432e-09
 96.63176     91.4 9.513e+03 2.523e-09
 96.65994     92.6 9.332e+03 1.928e-09
 96.68306     94.0 9.153e+03 1.354e-09
 96.70294     93.4 9.007e+03 1.006e-09
 96.73946     95.0 8.872e+03 7.429e-10
 96.77922     96.9 8.649e+03 6.826e-10
 96.81897     99.1 8.615e+03 6.875e-10
 96.85873    101.4 8.594e+03 7.086e-10
 96.89849    103.8 8.550e+03 7.853e-10
 96.92640    106.5 8.567e+03 9.958e-10
 96.94628    106.8 8.499e+03 9.517e-10
 96.97801    110.0 8.762e+03 1.388e-09
 97.00651    112.7 9.001e+03 1.837e-09
 97.01635    111.0 8.990e+03 1.840e-09
 97.02751    112.2 9.105e+03 2.034e-09
 97.04739    112.7 9.280e+03 2.422e-09
 97.05781    111.7 1.036e+04 4.161e-09
 97.06775    113.3 9.490e+03 3.296e-09
 97.08715    112.4 1.093e+04 6.590e-09
 97.10703    110.4 1.378e+04 1.985e-08
 97.12691    108.0 1.656e+04 6.511e-08
 97.14679    106.6 1.766e+04 1.206e-07
 97.16165    104.5 1.881e+04 1.977e-07
 97.17154    101.7 1.944e+04 3.393e-07
 97.17938     98.9 1.948e+04 5.514e-07
 97.18435    100.2 1.949e+04 5.488e-07
 97.19142     97.4 1.936e+04 8.339e-07
 97.20136     94.3 1.930e+04 7.656e-07
 97.20851     91.3 1.919e+04 5.268e-07
 97.21348     89.6 1.889e+04 3.079e-07
 97.22124     86.6 1.827e+04 1.661e-07
 97.23118     83.3 1.735e+04 9.309e-08
 97.24021     79.3 1.635e+04 5.910e-08
 97.24518     80.6 1.735e+04 8.145e-08
 97.25106     76.7 1.621e+04 5.578e-08
 97.26100     72.8 1.506e+04 4.540e-08
 97.27094     70.1 1.429e+04 4.255e-08
 97.28088     67.6 1.439e+04 4.516e-08
 97.29082     65.8 1.445e+04 4.934e-08
 97.30076     64.1 1.480e+04 5.754e-08
 97.30601     63.1 1.500e+04 6.505e-08
 97.30745     63.2 1.516e+04 6.641e-08
 97.31213     63.0 1.517e+04 6.628e-08
 97.32064     61.6 1.525e+04 6.595e-08
 97.33058     61.2 1.522e+04 6.541e-08
 97.34554     60.0 1.502e+04 5.854e-08
 97.36547     58.5 1.422e+04 4.091e-08
 97.38535     56.3 1.281e+04 2.289e-08
 97.40095     53.6 1.128e+04 1.379e-08
 97.41089     53.2 1.071e+04 1.178e-08
 97.42281     52.0 9.971e+03 9.045e-09
 97.43275     52.1 9.998e+03 9.248e-09
 97.44498     52.0 9.706e+03 8.264e-09
 97.46486     52.2 9.588e+03 8.042e-09
 97.48474     52.6 9.556e+03 8.052e-09
 97.50462     53.1 9.554e+03 8.165e-09
 97.52450     53.6 9.573e+03 8.259e-09
 97.54438     54.1 9.566e+03 8.213e-09
 97.56426     55.0 9.523e+03 7.949e-09
 97.58414     55.7 9.449e+03 7.428e-09
 97.59827     56.6 9.321e+03 6.609e-09
 97.60821     57.3 8.987e+03 5.398e-09
 97.62390     58.2 8.871e+03 4.732e-09
 97.64378     59.1 8.743e+03 4.006e-09
 97.66366     59.8 8.671e+03 3.467e-09
 97.67618     60.8 8.696e+03 3.303e-09
 97.69616     61.1 8.699e+03 2.988e-09
 97.73343     63.4 8.684e+03 2.885e-09
 97.77319     65.9 8.766e+03 3.063e-09
 97.79568     67.6 8.823e+03 3.305e-09
 97.80046     68.1 8.891e+03 3.485e-09
 97.80769     68.4 8.870e+03 3.365e-09
 97.82270     69.6 8.991e+03 3.763e-09
 97.84258     70.9 9.120e+03 4.223e-09
 97.86245     72.2 9.235e+03 4.625e-09
 97.88233     73.5 9.344e+03 4.981e-09
 97.90221     74.6 9.409e+03 5.232e-09
 97.91942     75.7 9.456e+03 5.368e-09
 97.92936     76.0 9.613e+03 5.815e-09
 97.94197     77.1 9.680e+03 6.008e-09
 97.96185     78.1 9.753e+03 6.232e-09
 97.98173     79.2 9.828e+03 6.446e-09
 97.99290     80.3 9.933e+03 6.635e-09
 98.00284     80.5 9.934e+03 6.517e-09
 98.02149     81.6 1.004e+04 6.683e-09
 98.04108     82.7 1.014e+04 6.796e-09
 98.05102     82.7 1.040e+04 7.787e-09
 98.06125     83.9 1.051e+04 7.937e-09
 98.08113     85.0 1.061e+04 8.081e-09
 98.10101     86.1 1.070e+04 8.208e-09
 98.12089     87.4 1.081e+04 8.437e-09
 98.14077     88.6 1.096e+04 8.861e-09
 98.16065     89.8 1.111e+04 9.387e-09
 98.17269     91.2 1.127e+04 9.943e-09
 98.18238     90.9 1.131e+04 9.961e-09
 98.19022     91.0 1.145e+04 1.085e-08
 98.20041     92.2 1.166e+04 1.171e-08
 98.22029     93.1 1.192e+04 1.292e-08
 98.24017     94.1 1.229e+04 1.481e-08
 98.26005     94.8 1.292e+04 1.864e-08
 98.27992     94.5 1.381e+04 2.644e-08
 98.29436     94.2 1.493e+04 4.172e-08
 98.30430     93.6 1.386e+04 2.640e-08
 98.31968     93.1 1.470e+04 3.627e-08
 98.33956     92.2 1.545e+04 4.890e-08
 98.35944     90.6 1.606e+04 6.238e-08
 98.37760     88.3 1.659e+04 7.809e-08
 98.38753     85.2 1.652e+04 7.767e-08
 98.39920     82.7 1.684e+04 9.516e-08
 98.41603     80.0 1.693e+04 1.047e-07
 98.42597     79.8 1.658e+04 9.547e-08
 98.43896     76.7 1.671e+04 8.900e-08
 98.45884     71.6 1.721e+04 8.665e-08
 98.47872     64.7 1.758e+04 8.793e-08
 98.49860     58.7 1.687e+04 8.549e-08
 98.51848     56.0 1.549e+04 6.097e-08
 98.53769     54.1 1.420e+04 3.056e-08
 98.54763     55.5 1.478e+04 4.678e-08
 98.55824     53.7 1.364e+04 2.055e-08
 98.57491     50.9 1.275e+04 9.152e-09
 98.58485     52.6 1.264e+04 1.036e-08
 98.59800     50.7 1.210e+04 6.088e-09
 98.61788     49.8 1.173e+04 4.781e-09
 98.63776     49.9 1.164e+04 4.489e-09
 98.65764     50.2 1.159e+04 4.354e-09
 98.66930     50.7 1.156e+04 4.214e-09
 98.67924     50.9 1.158e+04 4.524e-09
 98.69740     51.5 1.160e+04 4.460e-09
 98.71727     52.1 1.163e+04 4.288e-09
 98.73715     52.7 1.167e+04 4.062e-09
 98.75703     53.1 1.171e+04 3.879e-09
 98.77223     53.6 1.168e+04 3.863e-09
 98.78217     53.9 1.145e+04 3.176e-09
 98.79097     54.6 1.140e+04 3.280e-09
 98.80091     54.4 1.152e+04 4.182e-09
 98.81667     55.2 1.149e+04 4.477e-09
 98.83655     55.9 1.149e+04 4.772e-09
 98.85643     56.9 1.153e+04 4.939e-09
 98.87631     57.7 1.164e+04 5.095e-09
 98.89619     58.6 1.175e+04 5.239e-09
 98.91263     59.4 1.185e+04 5.467e-09
 98.92257     59.1 1.188e+04 5.820e-09
 98.93595     59.8 1.205e+04 6.209e-09
 98.95583     60.3 1.224e+04 7.132e-09
 98.96955     60.8 1.246e+04 8.680e-09
 98.97949     61.4 1.219e+04 7.284e-09
 98.99559     61.9 1.249e+04 9.389e-09
 99.01547     62.2 1.284e+04 1.232e-08
 99.03430     62.4 1.320e+04 1.556e-08
 99.04424     61.8 1.332e+04 1.582e-08
 99.05523     61.8 1.371e+04 1.759e-08
 99.07511     61.6 1.372e+04 1.720e-08
 99.09499     61.7 1.354e+04 1.521e-08
 99.11487     62.1 1.320e+04 1.193e-08
 99.13475     62.6 1.284e+04 8.804e-09
 99.15462     63.3 1.252e+04 6.384e-09
 99.16591     63.9 1.229e+04 4.808e-09
 99.16821     63.6 1.218e+04 4.749e-09
 99.17680     64.6 1.214e+04 4.437e-09
 99.19438     65.7 1.190e+04 3.308e-09
 99.21426     66.4 1.188e+04 2.681e-09
 99.24418     67.2 1.186e+04 2.343e-09
 99.28404     69.5 1.178e+04 1.927e-09
 99.32380     71.7 1.177e+04 1.920e-09
 99.35444     73.9 1.179e+04 1.989e-09
 99.37431     75.8 1.170e+04 1.864e-09
 99.39950     77.5 1.182e+04 2.068e-09
 99.41938     77.8 1.178e+04 2.156e-09
 99.43304     78.5 1.177e+04 2.289e-09
 99.45282     79.4 1.181e+04 2.656e-09
 99.47270     80.3 1.194e+04 3.338e-09
 99.49258     81.0 1.209e+04 4.305e-09
 99.51246     81.6 1.230e+04 5.470e-09
 99.53091     81.8 1.253e+04 6.816e-09
 99.54085     82.0 1.260e+04 7.587e-09
 99.55156     82.1 1.288e+04 9.737e-09
 99.56150     83.6 1.283e+04 9.739e-09
 99.57209     83.6 1.320e+04 1.235e-08
 99.59197     82.8 1.385e+04 1.646e-08
 99.61185     81.0 1.461e+04 2.538e-08
 99.63173     79.4 1.520e+04 4.060e-08
 99.65161     78.2 1.543e+04 4.974e-08
 99.66252     77.3 1.529e+04 4.580e-08
 99.67246     76.6 1.605e+04 6.334e-08
 99.69137     75.1 1.577e+04 4.944e-08
 99.71125     73.1 1.535e+04 3.848e-08
 99.73113     71.5 1.506e+04 3.762e-08
 99.74887     71.0 1.507e+04 4.003e-08
 99.75881     71.9 1.518e+04 4.150e-08
 99.77089     71.6 1.520e+04 4.456e-08
 99.78418     71.6 1.529e+04 4.788e-08
 99.79412     69.7 1.612e+04 5.509e-08
 99.81065     69.8 1.607e+04 5.231e-08
 99.83053     69.8 1.602e+04 5.024e-08
 99.85041     69.7 1.596e+04 4.905e-08
 99.87029     69.3 1.596e+04 4.970e-08
 99.89017     68.7 1.607e+04 5.291e-08
 99.90585     67.9 1.637e+04 5.912e-08
 99.91579     65.7 1.595e+04 5.094e-08
 99.92993     64.6 1.602e+04 5.084e-08
 99.94619     63.1 1.587e+04 4.758e-08
 99.95613     63.5 1.591e+04 4.785e-08
 99.96969     62.0 1.595e+04 4.820e-08
 99.98957     59.8 1.627e+04 5.887e-08
100.00443     58.5 1.647e+04 6.629e-08
