# Columns:
#   distance along LOS (in CHIMPs)
#   peculiar velocity  (in km/s)
#   temperature (K)
#   HI number density
# pos=(21.1303,178.819,8.82152), angles=(1.51561,1.3933)
  0.00458   -105.2 1.335e+04 2.219e-08
  0.01909   -104.6 1.345e+04 2.308e-08
  0.03896   -103.9 1.348e+04 2.332e-08
  0.05884   -103.2 1.348e+04 2.300e-08
  0.07871   -102.5 1.348e+04 2.262e-08
  0.09748   -101.7 1.359e+04 2.247e-08
  0.10741   -101.2 1.342e+04 2.171e-08
  0.11846   -100.3 1.360e+04 2.326e-08
  0.13833    -99.3 1.381e+04 2.510e-08
  0.14999    -98.4 1.403e+04 2.736e-08
  0.15993    -97.0 1.436e+04 2.964e-08
  0.17808    -96.1 1.487e+04 3.507e-08
  0.19795    -95.3 1.578e+04 4.797e-08
  0.21249    -94.4 1.683e+04 7.612e-08
  0.22242    -93.8 1.613e+04 5.736e-08
  0.23770    -93.3 1.707e+04 8.552e-08
  0.25255    -93.5 1.775e+04 1.188e-07
  0.26244    -93.7 1.810e+04 1.489e-07
  0.26990    -94.5 1.828e+04 1.533e-07
  0.27486    -93.9 1.796e+04 1.158e-07
  0.28231    -94.5 1.816e+04 1.307e-07
  0.29225    -95.2 1.820e+04 1.340e-07
  0.30219    -95.8 1.817e+04 1.397e-07
  0.31212    -96.1 1.803e+04 1.332e-07
  0.32206    -96.6 1.787e+04 1.282e-07
  0.32745    -96.9 1.776e+04 1.368e-07
  0.33744    -95.2 1.787e+04 1.342e-07
  0.35694    -95.0 1.757e+04 1.161e-07
  0.37681    -94.6 1.719e+04 1.002e-07
  0.39668    -94.0 1.661e+04 8.099e-08
  0.41656    -93.4 1.594e+04 6.155e-08
  0.43258    -92.6 1.533e+04 4.624e-08
  0.44251    -92.0 1.615e+04 6.550e-08
  0.45630    -91.2 1.556e+04 5.213e-08
  0.47618    -90.4 1.497e+04 4.003e-08
  0.49598    -89.7 1.452e+04 3.084e-08
  0.51585    -88.6 1.420e+04 2.318e-08
  0.53580    -87.7 1.383e+04 1.784e-08
  0.54759    -86.8 1.354e+04 1.420e-08
  0.55752    -86.8 1.398e+04 1.848e-08
  0.57554    -85.9 1.387e+04 1.623e-08
  0.59542    -85.3 1.389e+04 1.582e-08
  0.61529    -85.2 1.415e+04 1.680e-08
  0.63516    -85.5 1.499e+04 2.769e-08
  0.65266    -85.5 1.586e+04 5.292e-08
  0.66260    -86.3 1.633e+04 6.936e-08
  0.67491    -86.2 1.699e+04 9.984e-08
  0.69478    -86.7 1.726e+04 1.149e-07
  0.71466    -87.4 1.723e+04 1.143e-07
  0.73453    -87.4 1.640e+04 6.983e-08
  0.75440    -86.8 1.526e+04 3.383e-08
  0.76768    -86.4 1.432e+04 1.444e-08
  0.77761    -87.1 1.397e+04 1.045e-08
  0.79415    -86.8 1.332e+04 6.317e-09
  0.81402    -85.8 1.306e+04 4.819e-09
  0.83389    -84.6 1.291e+04 4.283e-09
  0.85190    -83.3 1.288e+04 3.954e-09
  0.86184    -82.7 1.294e+04 3.918e-09
  0.87275    -81.3 1.288e+04 3.691e-09
  0.88269    -81.0 1.289e+04 3.849e-09
  0.89351    -79.5 1.286e+04 3.637e-09
  0.91339    -77.9 1.286e+04 3.515e-09
  0.93326    -76.4 1.288e+04 3.464e-09
  0.95313    -74.9 1.288e+04 3.450e-09
  0.97301    -73.4 1.292e+04 3.458e-09
  0.98776    -71.9 1.298e+04 3.507e-09
  0.99770    -71.3 1.305e+04 3.695e-09
  1.01275    -69.9 1.313e+04 3.754e-09
  1.03263    -68.6 1.320e+04 3.781e-09
  1.05250    -67.4 1.324e+04 3.785e-09
  1.07237    -66.4 1.335e+04 3.808e-09
  1.09225    -65.8 1.353e+04 4.653e-09
  1.10278    -65.2 1.355e+04 6.796e-09
  1.11271    -65.0 1.384e+04 9.697e-09
  1.13199    -64.4 1.413e+04 1.577e-08
  1.15187    -63.8 1.451e+04 2.350e-08
  1.17174    -63.3 1.478e+04 2.970e-08
  1.19161    -62.9 1.484e+04 3.169e-08
  1.20782    -62.4 1.468e+04 2.882e-08
  1.21776    -61.4 1.491e+04 3.133e-08
  1.23136    -61.0 1.473e+04 2.998e-08
  1.25123    -60.7 1.453e+04 2.386e-08
  1.27111    -60.7 1.448e+04 2.181e-08
  1.29098    -60.8 1.449e+04 2.144e-08
  1.31085    -61.3 1.471e+04 2.322e-08
  1.32286    -62.2 1.530e+04 3.331e-08
  1.33280    -63.2 1.554e+04 3.883e-08
  1.35060    -64.4 1.611e+04 5.134e-08
  1.37047    -65.8 1.638e+04 5.927e-08
  1.39035    -67.3 1.638e+04 6.078e-08
  1.41022    -68.2 1.574e+04 5.234e-08
  1.42794    -68.6 1.472e+04 3.452e-08
  1.43788    -69.8 1.414e+04 2.796e-08
  1.44997    -70.0 1.321e+04 1.674e-08
  1.46984    -70.1 1.253e+04 1.001e-08
  1.48971    -70.2 1.210e+04 6.447e-09
  1.50959    -69.8 1.184e+04 4.708e-09
  1.52946    -69.2 1.170e+04 3.941e-09
  1.54295    -68.4 1.163e+04 3.630e-09
  1.55289    -69.3 1.144e+04 3.290e-09
  1.56374    -68.4 1.133e+04 3.206e-09
  1.57368    -67.0 1.176e+04 4.371e-09
  1.58908    -66.0 1.164e+04 4.093e-09
  1.60895    -64.9 1.157e+04 3.997e-09
  1.62883    -64.1 1.157e+04 4.032e-09
  1.64803    -64.1 1.196e+04 4.415e-09
  1.65796    -66.9 1.213e+04 4.661e-09
  1.66857    -69.9 1.350e+04 9.027e-09
  1.68845    -72.7 1.482e+04 2.535e-08
  1.70832    -74.4 1.583e+04 5.767e-08
  1.72819    -76.2 1.681e+04 8.420e-08
  1.74806    -79.1 1.698e+04 8.789e-08
  1.76304    -82.8 1.641e+04 5.467e-08
  1.77297    -86.3 1.427e+04 2.037e-08
  1.78781    -91.3 1.187e+04 7.124e-09
  1.80768    -94.8 1.082e+04 4.294e-09
  1.83759    -96.4 1.052e+04 3.846e-09
  1.86831    -98.4 1.002e+04 3.087e-09
  1.88818    -99.8 9.885e+03 2.400e-09
  1.90992   -101.4 9.865e+03 2.365e-09
  1.92980   -103.2 1.028e+04 3.932e-09
  1.95693   -105.4 1.027e+04 4.313e-09
  1.99668   -109.3 1.041e+04 5.065e-09
  2.02639   -113.3 1.030e+04 5.271e-09
  2.04616   -118.9 1.198e+04 6.148e-09
  2.06604   -127.4 1.770e+04 6.440e-09
  2.08591   -140.2 2.130e+04 4.972e-08
  2.09758   -145.2 2.021e+04 1.504e-07
  2.09982   -147.0 1.977e+04 2.458e-07
  2.10301   -145.9 1.953e+04 2.209e-07
  2.11065   -148.6 1.937e+04 3.770e-07
  2.12059   -151.8 1.932e+04 4.541e-07
  2.13053   -155.0 1.932e+04 4.548e-07
  2.14046   -158.3 1.929e+04 3.094e-07
  2.15040   -162.3 1.894e+04 1.432e-07
  2.15555   -167.1 1.761e+04 6.062e-08
  2.16051   -165.3 1.770e+04 6.431e-08
  2.17027   -169.6 1.578e+04 3.345e-08
  2.18021   -172.4 1.460e+04 2.505e-08
  2.19015   -173.4 1.426e+04 2.324e-08
  2.20316   -175.1 1.405e+04 2.254e-08
  2.21315   -172.0 1.397e+04 1.975e-08
  2.22502   -175.2 1.290e+04 1.578e-08
  2.24490   -177.5 1.185e+04 1.330e-08
  2.26477   -178.7 1.149e+04 1.181e-08
  2.27559   -179.4 1.114e+04 1.008e-08
  2.28552   -181.0 1.054e+04 7.649e-09
  2.30452   -181.3 1.009e+04 6.064e-09
  2.31823   -181.2 9.623e+03 4.561e-09
  2.32816   -179.7 9.801e+03 5.244e-09
  2.34426   -179.6 9.404e+03 3.974e-09
  2.36414   -179.2 9.071e+03 3.037e-09
  2.38401   -178.2 8.944e+03 2.598e-09
  2.40388   -177.1 8.940e+03 2.510e-09
  2.43379   -175.7 8.968e+03 2.504e-09
  2.47363   -174.7 8.891e+03 2.421e-09
  2.51338   -173.4 8.800e+03 2.334e-09
  2.53851   -171.9 8.750e+03 2.224e-09
  2.55838   -170.8 8.928e+03 2.538e-09
  2.59287   -169.3 8.854e+03 2.315e-09
  2.62177   -167.7 8.742e+03 2.073e-09
  2.64164   -168.4 8.504e+03 1.913e-09
  2.67237   -166.3 8.442e+03 1.751e-09
  2.71211   -164.2 8.438e+03 1.699e-09
  2.74866   -162.0 8.447e+03 1.696e-09
  2.76853   -161.4 8.543e+03 1.748e-09
  2.79161   -159.4 8.635e+03 1.751e-09
  2.83135   -157.5 8.731e+03 1.806e-09
  2.87110   -155.6 8.835e+03 1.854e-09
  2.91085   -153.7 8.905e+03 1.875e-09
  2.95059   -151.6 8.962e+03 1.878e-09
  2.97868   -149.5 9.019e+03 1.866e-09
  2.99856   -149.1 8.940e+03 1.498e-09
  3.03009   -146.9 9.007e+03 1.472e-09
  3.06983   -144.6 9.105e+03 1.464e-09
  3.10958   -142.3 9.204e+03 1.491e-09
  3.14933   -140.0 9.338e+03 1.526e-09
  3.18884   -138.0 9.501e+03 1.577e-09
  3.20871   -137.7 9.550e+03 1.655e-09
  3.22882   -135.9 9.772e+03 1.845e-09
  3.26856   -134.2 1.001e+04 2.188e-09
  3.30831   -132.9 1.028e+04 2.731e-09
  3.33361   -131.8 1.059e+04 3.508e-09
  3.35348   -132.0 1.102e+04 5.139e-09
  3.38780   -131.2 1.139e+04 6.209e-09
  3.41886   -130.6 1.175e+04 7.083e-09
  3.43873   -131.1 1.203e+04 8.086e-09
  3.46730   -131.2 1.221e+04 7.674e-09
  3.50704   -131.2 1.221e+04 6.087e-09
  3.54679   -130.8 1.208e+04 4.426e-09
  3.58654   -129.6 1.195e+04 3.672e-09
  3.62628   -128.3 1.193e+04 3.548e-09
  3.64888   -127.2 1.212e+04 4.298e-09
  3.66876   -126.2 1.158e+04 2.265e-09
  3.70578   -125.3 1.206e+04 3.356e-09
  3.74552   -124.8 1.253e+04 5.652e-09
  3.78527   -124.5 1.284e+04 8.219e-09
  3.82502   -124.2 1.295e+04 9.435e-09
  3.85903   -123.9 1.287e+04 9.254e-09
  3.87891   -121.8 1.261e+04 6.758e-09
  3.90451   -120.7 1.250e+04 6.440e-09
  3.94426   -118.8 1.228e+04 5.124e-09
  3.98400   -116.5 1.215e+04 3.994e-09
  4.02375   -114.0 1.211e+04 3.271e-09
  4.04545   -111.4 1.212e+04 2.845e-09
  4.06533   -112.2 1.214e+04 2.844e-09
  4.08906   -109.6 1.216e+04 2.542e-09
  4.10893   -108.4 1.216e+04 2.784e-09
  4.14299   -105.9 1.218e+04 2.590e-09
  4.18273   -103.3 1.221e+04 2.479e-09
  4.22248   -100.9 1.226e+04 2.416e-09
  4.26223    -98.5 1.231e+04 2.353e-09
  4.29921    -96.1 1.236e+04 2.265e-09
  4.31908    -95.3 1.232e+04 2.855e-09
  4.34172    -92.9 1.235e+04 2.692e-09
  4.38147    -90.5 1.239e+04 2.425e-09
  4.42121    -87.9 1.246e+04 2.110e-09
  4.46096    -85.3 1.258e+04 1.817e-09
  4.50071    -82.7 1.271e+04 1.590e-09
  4.52923    -80.3 1.285e+04 1.467e-09
  4.54911    -79.9 1.285e+04 1.598e-09
  4.58020    -77.5 1.293e+04 1.508e-09
  4.61995    -75.4 1.302e+04 1.571e-09
  4.65969    -73.4 1.306e+04 1.904e-09
  4.69944    -71.6 1.311e+04 2.717e-09
  4.73742    -70.0 1.330e+04 3.747e-09
  4.75730    -70.5 1.322e+04 2.009e-09
  4.75926    -68.8 1.330e+04 2.621e-09
  4.77913    -68.0 1.329e+04 2.388e-09
  4.81868    -66.2 1.337e+04 2.862e-09
  4.85843    -64.0 1.354e+04 3.237e-09
  4.89817    -61.6 1.381e+04 3.594e-09
  4.92788    -59.8 1.411e+04 4.299e-09
  4.94766    -59.3 1.418e+04 4.580e-09
  4.96753    -58.4 1.440e+04 5.307e-09
  4.97915    -57.8 1.456e+04 6.181e-09
  4.98909    -57.5 1.446e+04 6.990e-09
  5.00728    -56.7 1.460e+04 8.535e-09
  5.02715    -55.9 1.473e+04 1.047e-08
  5.04703    -55.2 1.483e+04 1.229e-08
  5.06690    -54.6 1.501e+04 1.356e-08
  5.08423    -54.1 1.504e+04 1.423e-08
  5.09416    -54.0 1.497e+04 1.269e-08
  5.10309    -53.4 1.501e+04 1.170e-08
  5.11302    -53.0 1.493e+04 7.600e-09
  5.12652    -52.4 1.508e+04 6.017e-09
  5.14639    -52.0 1.526e+04 4.778e-09
  5.16627    -51.6 1.541e+04 4.168e-09
  5.18614    -51.0 1.544e+04 4.065e-09
  5.19924    -50.4 1.542e+04 4.243e-09
  5.20918    -50.2 1.554e+04 3.432e-09
  5.22589    -49.6 1.548e+04 3.787e-09
  5.24576    -48.9 1.539e+04 4.196e-09
  5.26563    -48.2 1.535e+04 4.526e-09
  5.28551    -47.6 1.532e+04 4.729e-09
  5.30431    -47.0 1.530e+04 4.808e-09
  5.31425    -46.8 1.531e+04 4.627e-09
  5.32525    -46.1 1.530e+04 4.853e-09
  5.34513    -45.3 1.530e+04 4.932e-09
  5.36500    -44.6 1.522e+04 4.973e-09
  5.38487    -44.0 1.515e+04 5.011e-09
  5.40475    -43.3 1.521e+04 5.067e-09
  5.41933    -42.7 1.521e+04 5.298e-09
  5.42926    -42.6 1.521e+04 6.038e-09
  5.44449    -41.8 1.517e+04 6.224e-09
  5.45901    -41.0 1.509e+04 6.003e-09
  5.46894    -40.4 1.508e+04 5.442e-09
  5.48424    -39.5 1.503e+04 4.924e-09
  5.50411    -38.6 1.497e+04 4.467e-09
  5.52398    -37.8 1.488e+04 4.158e-09
  5.53434    -36.9 1.480e+04 4.041e-09
  5.54428    -37.0 1.481e+04 3.806e-09
  5.56373    -36.0 1.480e+04 3.787e-09
  5.58360    -35.2 1.471e+04 4.035e-09
  5.60348    -34.5 1.453e+04 4.444e-09
  5.62335    -33.7 1.437e+04 4.875e-09
  5.63941    -32.9 1.425e+04 5.259e-09
  5.64935    -33.0 1.426e+04 5.258e-09
  5.66310    -32.3 1.418e+04 5.519e-09
  5.68297    -31.7 1.414e+04 5.541e-09
  5.70284    -31.2 1.394e+04 5.471e-09
  5.73275    -30.3 1.382e+04 5.541e-09
  5.77260    -28.6 1.351e+04 4.985e-09
  5.81234    -26.6 1.334e+04 4.129e-09
  5.84976    -24.8 1.325e+04 3.137e-09
  5.86963    -24.8 1.325e+04 3.117e-09
  5.89184    -22.6 1.314e+04 2.285e-09
  5.93158    -20.3 1.308e+04 1.730e-09
  5.97133    -17.9 1.301e+04 1.385e-09
  6.01108    -15.4 1.294e+04 1.179e-09
  6.05082    -12.7 1.284e+04 1.041e-09
  6.07978     -9.9 1.273e+04 9.299e-10
  6.09966     -9.7 1.277e+04 1.059e-09
  6.13031     -6.7 1.269e+04 9.477e-10
  6.16111     -3.7 1.263e+04 8.442e-10
  6.18098     -3.7 1.258e+04 9.588e-10
  6.20981     -0.6 1.252e+04 8.383e-10
  6.24955      2.5 1.247e+04 7.442e-10
  6.28930      5.6 1.244e+04 6.691e-10
  6.30981      8.8 1.241e+04 6.004e-10
  6.32968      9.0 1.242e+04 6.931e-10
  6.36879     12.1 1.241e+04 6.134e-10
  6.40854     15.2 1.240e+04 5.519e-10
  6.44829     18.2 1.235e+04 5.304e-10
  6.48803     21.1 1.240e+04 5.578e-10
  6.51996     23.5 1.225e+04 7.285e-10
  6.53983     23.8 1.225e+04 8.467e-10
  6.56753     26.6 1.207e+04 1.135e-09
  6.60727     29.7 1.197e+04 1.389e-09
  6.64702     32.2 1.202e+04 1.295e-09
  6.68677     34.7 1.198e+04 1.029e-09
  6.72651     37.2 1.198e+04 7.833e-10
  6.74998     39.5 1.200e+04 6.834e-10
  6.76986     39.6 1.201e+04 7.926e-10
  6.80601     42.2 1.196e+04 8.128e-10
  6.84575     44.9 1.190e+04 8.764e-10
  6.87295     47.6 1.192e+04 9.201e-10
  6.89283     48.1 1.194e+04 6.560e-10
  6.92525     50.7 1.196e+04 6.837e-10
  6.96014     53.2 1.198e+04 7.022e-10
  6.98001     53.0 1.208e+04 7.989e-10
  7.00474     55.3 1.214e+04 8.240e-10
  7.04448     57.6 1.218e+04 8.745e-10
  7.08423     59.8 1.220e+04 9.488e-10
  7.12398     61.9 1.220e+04 1.013e-09
  7.16372     64.1 1.215e+04 1.010e-09
  7.19016     66.2 1.211e+04 9.178e-10
  7.21003     65.6 1.202e+04 8.664e-10
  7.24322     67.9 1.193e+04 7.276e-10
  7.28296     70.2 1.191e+04 5.875e-10
  7.32271     72.7 1.193e+04 4.651e-10
  7.36246     75.2 1.191e+04 3.955e-10
  7.40031     77.9 1.188e+04 3.910e-10
  7.42018     77.8 1.185e+04 3.997e-10
  7.44195     80.5 1.183e+04 4.127e-10
  7.48170     83.2 1.177e+04 4.557e-10
  7.52144     85.9 1.168e+04 5.235e-10
  7.56119     88.6 1.159e+04 6.140e-10
  7.58480     91.3 1.153e+04 7.317e-10
  7.60467     91.5 1.158e+04 7.698e-10
  7.63034     94.2 1.152e+04 9.226e-10
  7.65021     94.5 1.150e+04 9.485e-10
  7.68043     97.1 1.145e+04 1.240e-09
  7.72018     99.5 1.147e+04 1.631e-09
  7.75992    101.8 1.148e+04 2.031e-09
  7.79967    104.1 1.147e+04 2.326e-09
  7.83942    106.4 1.143e+04 2.547e-09
  7.86036    108.8 1.151e+04 3.095e-09
  7.87020    108.3 1.171e+04 3.736e-09
  7.88890    108.6 1.174e+04 3.850e-09
  7.90878    110.0 1.179e+04 4.339e-09
  7.92865    110.4 1.183e+04 4.490e-09
  7.95856    111.6 1.207e+04 5.617e-09
  7.98837    112.2 1.212e+04 5.701e-09
  8.00814    112.8 1.207e+04 5.442e-09
  8.02802    112.9 1.200e+04 5.188e-09
  8.04789    112.8 1.197e+04 5.094e-09
  8.06776    112.6 1.194e+04 5.103e-09
  8.08025    112.0 1.200e+04 5.277e-09
  8.09019    109.8 1.270e+04 7.225e-09
  8.10751    108.2 1.357e+04 1.076e-08
  8.12738    106.3 1.436e+04 1.636e-08
  8.14726    104.5 1.484e+04 2.253e-08
  8.16713    102.7 1.496e+04 2.669e-08
  8.18533    101.5 1.471e+04 2.773e-08
  8.19526    100.5 1.448e+04 2.844e-08
  8.20688    100.3 1.403e+04 2.335e-08
  8.22675    100.2 1.366e+04 1.861e-08
  8.24662    100.4 1.341e+04 1.517e-08
  8.26650    100.7 1.337e+04 1.419e-08
  8.28637    101.1 1.347e+04 1.482e-08
  8.29644    101.5 1.372e+04 1.739e-08
  8.30048     99.7 1.371e+04 1.599e-08
  8.32031    100.1 1.274e+04 7.791e-09
  8.34609    101.4 1.314e+04 1.159e-08
  8.36586    102.2 1.324e+04 1.296e-08
  8.38573    102.7 1.321e+04 1.303e-08
  8.40542    103.0 1.319e+04 1.345e-08
  8.41535    103.7 1.266e+04 9.296e-09
  8.42548    103.8 1.278e+04 1.033e-08
  8.44535    104.0 1.286e+04 1.133e-08
  8.46523    104.4 1.289e+04 1.201e-08
  8.48510    104.8 1.288e+04 1.199e-08
  8.50497    105.0 1.289e+04 1.156e-08
  8.52043    105.0 1.292e+04 1.111e-08
  8.53036    104.6 1.299e+04 1.128e-08
  8.54472    103.9 1.309e+04 1.114e-08
  8.56459    102.7 1.321e+04 1.114e-08
  8.58447    101.1 1.328e+04 1.135e-08
  8.60434     98.5 1.351e+04 1.226e-08
  8.62421     94.2 1.497e+04 1.878e-08
  8.63544     89.4 1.636e+04 3.230e-08
  8.64372     88.6 1.602e+04 3.115e-08
  8.65237     83.5 1.686e+04 4.430e-08
  8.66396     79.2 1.656e+04 3.925e-08
  8.68383     75.6 1.594e+04 2.596e-08
  8.70371     72.6 1.487e+04 1.259e-08
  8.72358     69.9 1.370e+04 5.447e-09
  8.74051     68.2 1.252e+04 2.858e-09
  8.75045     69.0 1.269e+04 2.963e-09
  8.76333     67.8 1.210e+04 2.152e-09
  8.78320     68.7 1.168e+04 1.664e-09
  8.80307     68.8 1.168e+04 1.620e-09
  8.83298     71.7 1.151e+04 1.380e-09
  8.87283     73.8 1.140e+04 1.087e-09
  8.91257     75.6 1.137e+04 9.051e-10
  8.95086     77.2 1.132e+04 8.182e-10
  8.97073     77.6 1.137e+04 8.491e-10
  8.98861     79.3 1.129e+04 7.980e-10
  9.00848     78.1 1.122e+04 6.894e-10
  9.03181     80.1 1.116e+04 6.289e-10
  9.07156     82.1 1.112e+04 5.543e-10
  9.11130     83.9 1.108e+04 4.910e-10
  9.15105     85.7 1.105e+04 4.542e-10
  9.18089     87.4 1.105e+04 4.521e-10
  9.20076     87.7 1.113e+04 4.748e-10
  9.23054     89.1 1.117e+04 5.031e-10
  9.27029     90.5 1.120e+04 5.777e-10
  9.31004     91.7 1.117e+04 7.207e-10
  9.34978     93.0 1.111e+04 8.808e-10
  9.38953     94.2 1.105e+04 1.005e-09
  9.41091     95.4 1.099e+04 1.072e-09
  9.43078     95.5 1.095e+04 1.131e-09
  9.46902     96.6 1.087e+04 1.120e-09
  9.50877     97.7 1.076e+04 1.105e-09
  9.54852     98.8 1.074e+04 1.114e-09
  9.58826     99.9 1.073e+04 1.179e-09
  9.62106    100.8 1.079e+04 1.397e-09
  9.64093    100.8 1.074e+04 1.417e-09
  9.66776    101.4 1.089e+04 1.958e-09
  9.70045    101.5 1.125e+04 3.022e-09
  9.72033     99.9 1.131e+04 3.648e-09
  9.74725    100.0 1.164e+04 4.910e-09
  9.77696    100.0 1.179e+04 5.803e-09
  9.79674     99.7 1.178e+04 6.382e-09
  9.81661     99.6 1.163e+04 6.166e-09
  9.83648     99.7 1.141e+04 5.339e-09
  9.85089     99.8 1.124e+04 4.214e-09
  9.87086     99.9 1.092e+04 3.325e-09
  9.90623    100.5 1.069e+04 2.773e-09
  9.94598    101.6 1.078e+04 2.930e-09
  9.98573    101.9 1.109e+04 3.713e-09
 10.01544    101.9 1.128e+04 4.328e-09
 10.03522    101.2 1.161e+04 6.014e-09
 10.05509    100.4 1.183e+04 8.364e-09
 10.06612     99.9 1.186e+04 1.009e-08
 10.07207    100.0 1.178e+04 9.956e-09
 10.08091    100.5 1.161e+04 8.399e-09
 10.09484    100.2 1.150e+04 8.948e-09
 10.11471     99.9 1.143e+04 8.816e-09
 10.13458     99.7 1.132e+04 8.499e-09
 10.15446     99.5 1.125e+04 8.189e-09
 10.17433     99.0 1.127e+04 7.796e-09
 10.18599     98.5 1.123e+04 7.410e-09
 10.19593     99.4 1.114e+04 7.349e-09
 10.21408     98.9 1.110e+04 7.180e-09
 10.23395     98.5 1.105e+04 7.025e-09
 10.25382     98.0 1.094e+04 7.050e-09
 10.27369     97.4 1.091e+04 7.090e-09
 10.29107     96.7 1.087e+04 7.216e-09
 10.30100     97.8 1.095e+04 7.742e-09
 10.31344     97.0 1.094e+04 8.002e-09
 10.33331     96.2 1.094e+04 8.342e-09
 10.35319     95.4 1.094e+04 8.652e-09
 10.37306     94.6 1.093e+04 8.849e-09
 10.39293     93.6 1.094e+04 9.041e-09
 10.40608     92.5 1.103e+04 9.584e-09
 10.41531     93.6 1.104e+04 9.864e-09
 10.42204     93.5 1.097e+04 9.596e-09
 10.43268     92.2 1.104e+04 1.031e-08
 10.45255     90.7 1.113e+04 1.098e-08
 10.47243     89.0 1.123e+04 1.130e-08
 10.49230     87.0 1.138e+04 1.159e-08
 10.51115     84.5 1.160e+04 1.228e-08
 10.52109     86.1 1.170e+04 1.378e-08
 10.53205     83.3 1.191e+04 1.467e-08
 10.55192     80.6 1.191e+04 1.458e-08
 10.57179     78.2 1.170e+04 1.290e-08
 10.59167     76.2 1.130e+04 9.168e-09
 10.61154     73.9 1.099e+04 5.496e-09
 10.62617     70.7 1.072e+04 3.507e-09
 10.63610     72.1 1.072e+04 3.507e-09
 10.65129     68.9 1.030e+04 2.957e-09
 10.67116     67.0 1.007e+04 2.931e-09
 10.70107     65.2 1.021e+04 2.936e-09
 10.73144     64.0 1.021e+04 2.761e-09
 10.75121     65.1 1.020e+04 3.083e-09
 10.76802     65.1 1.008e+04 3.148e-09
 10.77796     65.1 9.985e+03 3.118e-09
 10.79040     64.9 9.930e+03 3.110e-09
 10.81027     64.5 9.947e+03 3.173e-09
 10.83015     63.8 1.006e+04 3.359e-09
 10.84625     62.7 1.037e+04 4.025e-09
 10.85619     63.8 1.033e+04 4.243e-09
 10.86989     62.8 1.081e+04 5.927e-09
 10.88977     61.8 1.144e+04 9.004e-09
 10.90964     59.0 1.342e+04 1.938e-08
 10.92951     53.0 1.689e+04 6.172e-08
 10.94437     49.4 1.875e+04 1.033e-07
 10.95085     44.1 2.023e+04 2.563e-07
 10.95582     45.8 2.027e+04 4.802e-07
 10.96117     41.2 1.957e+04 1.410e-06
 10.96614     41.4 1.966e+04 1.241e-06
 10.97413     36.1 1.919e+04 2.033e-06
 10.98407     30.3 1.933e+04 1.667e-06
 10.99400     26.4 1.946e+04 1.099e-06
 11.00394     23.0 1.968e+04 6.535e-07
 11.01371     19.9 1.965e+04 3.810e-07
 11.01867     21.0 1.952e+04 5.276e-07
 11.02381     18.2 1.927e+04 2.901e-07
 11.03375     15.9 1.835e+04 1.681e-07
 11.04369     13.9 1.695e+04 9.812e-08
 11.05362     13.0 1.624e+04 6.723e-08
 11.06629     11.4 1.509e+04 4.269e-08
 11.07628     11.6 1.510e+04 4.155e-08
 11.08850     10.6 1.411e+04 2.008e-08
 11.10837      9.4 1.326e+04 1.269e-08
 11.12394      8.9 1.268e+04 9.623e-09
 11.13388      8.5 1.257e+04 8.627e-09
 11.14812      8.4 1.216e+04 7.873e-09
 11.16799      9.6 1.200e+04 7.714e-09
 11.18135     11.0 1.201e+04 7.599e-09
 11.19129     11.3 1.211e+04 1.009e-08
 11.20774     12.8 1.218e+04 9.385e-09
 11.22761     13.7 1.225e+04 7.718e-09
 11.24748     14.0 1.214e+04 6.340e-09
 11.26736     14.4 1.206e+04 5.858e-09
 11.28643     15.0 1.213e+04 6.035e-09
 11.29636     15.8 1.215e+04 7.543e-09
 11.30710     16.3 1.217e+04 7.334e-09
 11.32698     16.9 1.216e+04 7.361e-09
 11.34685     17.4 1.218e+04 7.341e-09
 11.36672     17.6 1.224e+04 7.031e-09
 11.38660     17.6 1.238e+04 6.685e-09
 11.40144     17.3 1.254e+04 6.470e-09
 11.41138     18.4 1.215e+04 5.749e-09
 11.42634     17.7 1.229e+04 5.493e-09
 11.44622     16.5 1.252e+04 5.705e-09
 11.46609     14.9 1.269e+04 6.765e-09
 11.47987     13.5 1.282e+04 8.474e-09
 11.48980     13.1 1.299e+04 9.937e-09
 11.50584     12.1 1.309e+04 1.392e-08
 11.51645     10.5 1.337e+04 1.819e-08
 11.52639     11.2 1.388e+04 2.246e-08
 11.54558      8.2 1.479e+04 3.074e-08
 11.56546      4.6 1.522e+04 4.300e-08
 11.58031      2.8 1.485e+04 4.580e-08
 11.59020      2.2 1.491e+04 4.719e-08
 11.60014      0.9 1.460e+04 4.718e-08
 11.61007      0.3 1.454e+04 4.597e-08
 11.62148     -0.8 1.407e+04 3.954e-08
 11.63142     -1.0 1.441e+04 4.319e-08
 11.64490     -2.6 1.358e+04 2.871e-08
 11.66482     -3.5 1.264e+04 1.767e-08
 11.68470     -4.7 1.207e+04 1.361e-08
 11.70457     -5.1 1.182e+04 1.269e-08
 11.72444     -5.1 1.176e+04 1.265e-08
 11.73654     -4.9 1.177e+04 1.360e-08
 11.74648     -5.6 1.186e+04 1.555e-08
 11.76419     -5.2 1.191e+04 1.705e-08
 11.78406     -4.7 1.192e+04 1.783e-08
 11.80394     -4.0 1.188e+04 1.782e-08
 11.82381     -3.4 1.176e+04 1.711e-08
 11.83579     -2.7 1.152e+04 1.620e-08
 11.84366     -3.0 1.131e+04 1.474e-08
 11.85155     -3.4 1.111e+04 1.351e-08
 11.86356     -2.9 1.101e+04 1.272e-08
 11.88343     -2.4 1.098e+04 1.225e-08
 11.90330     -2.0 1.101e+04 1.212e-08
 11.92318     -1.8 1.112e+04 1.253e-08
 11.94305     -1.6 1.122e+04 1.344e-08
 11.95663     -1.3 1.127e+04 1.451e-08
 11.96656     -1.5 1.105e+04 1.329e-08
 11.98280     -1.0 1.119e+04 1.487e-08
 12.00267     -0.4 1.131e+04 1.583e-08
 12.02254      0.1 1.132e+04 1.604e-08
 12.04242      0.3 1.126e+04 1.521e-08
 12.06170      0.2 1.123e+04 1.436e-08
 12.07164      0.4 1.192e+04 1.785e-08
 12.08216     -0.3 1.214e+04 1.810e-08
 12.10204     -1.7 1.256e+04 2.038e-08
 12.12191     -3.5 1.301e+04 2.539e-08
 12.14178     -5.4 1.350e+04 3.137e-08
 12.15664     -7.1 1.425e+04 3.924e-08
 12.16653     -8.4 1.460e+04 4.251e-08
 12.17646    -10.2 1.497e+04 4.767e-08
 12.18159    -11.7 1.514e+04 4.990e-08
 12.18655    -12.3 1.591e+04 5.625e-08
 12.19161    -13.9 1.594e+04 5.699e-08
 12.19658    -15.1 1.669e+04 6.447e-08
 12.20627    -16.6 1.667e+04 6.633e-08
 12.21621    -17.5 1.666e+04 6.756e-08
 12.22615    -18.2 1.663e+04 6.672e-08
 12.23412    -19.0 1.681e+04 6.743e-08
 12.23909    -22.6 1.861e+04 1.296e-07
 12.24602    -25.4 1.963e+04 1.730e-07
 12.25596    -29.3 2.039e+04 3.022e-07
 12.26589    -33.4 2.003e+04 7.085e-07
 12.27583    -36.6 1.874e+04 1.740e-06
 12.28577    -39.1 1.790e+04 4.136e-06
 12.29163    -42.5 1.747e+04 6.206e-06
 12.29660    -43.7 1.863e+04 1.936e-06
 12.30564    -47.6 1.982e+04 9.809e-07
 12.31558    -52.9 2.269e+04 2.289e-07
 12.32551    -58.7 2.299e+04 5.738e-08
 12.34047    -65.9 1.900e+04 3.315e-08
 12.36039    -75.3 1.412e+04 2.615e-08
 12.38026    -77.4 1.308e+04 2.360e-08
 12.39680    -77.6 1.276e+04 2.318e-08
 12.40674    -77.7 1.291e+04 2.558e-08
 12.42001    -77.5 1.264e+04 2.099e-08
 12.43988    -77.2 1.227e+04 1.538e-08
 12.45975    -77.1 1.186e+04 1.049e-08
 12.47963    -77.0 1.148e+04 7.254e-09
 12.49950    -76.8 1.117e+04 5.457e-09
 12.51182    -76.4 1.097e+04 4.602e-09
 12.52175    -77.2 1.080e+04 3.871e-09
 12.53769    -76.4 1.084e+04 4.125e-09
 12.54763    -76.9 1.105e+04 4.913e-09
 12.55912    -76.0 1.105e+04 4.989e-09
 12.57899    -75.1 1.105e+04 5.047e-09
 12.59887    -74.0 1.104e+04 5.000e-09
 12.61689    -72.8 1.102e+04 4.721e-09
 12.62683    -73.3 1.106e+04 5.377e-09
 12.63861    -72.1 1.104e+04 4.497e-09
 12.65849    -70.9 1.100e+04 3.692e-09
 12.67836    -69.9 1.096e+04 3.055e-09
 12.69823    -68.7 1.088e+04 2.638e-09
 12.72206    -66.8 1.087e+04 2.550e-09
 12.74203    -68.0 1.062e+04 2.022e-09
 12.76798    -64.1 1.042e+04 1.869e-09
 12.80773    -60.5 1.044e+04 1.894e-09
 12.84748    -57.6 1.087e+04 2.136e-09
 12.88722    -55.4 1.116e+04 2.391e-09
 12.92697    -53.3 1.137e+04 2.630e-09
 12.95209    -51.5 1.139e+04 2.476e-09
 12.97196    -51.1 1.139e+04 2.599e-09
 12.99643    -49.3 1.152e+04 2.647e-09
 13.01621    -48.9 1.154e+04 2.744e-09
 13.03608    -47.3 1.168e+04 3.053e-09
 13.05595    -46.6 1.173e+04 3.237e-09
 13.06700    -45.1 1.188e+04 3.660e-09
 13.07694    -45.1 1.179e+04 3.360e-09
 13.09570    -44.2 1.194e+04 3.641e-09
 13.12561    -42.3 1.217e+04 4.156e-09
 13.16234    -40.0 1.221e+04 4.268e-09
 13.18221    -40.1 1.215e+04 4.124e-09
 13.20520    -37.7 1.205e+04 4.123e-09
 13.23980    -35.4 1.191e+04 3.865e-09
 13.25967    -35.3 1.183e+04 2.987e-09
 13.28469    -32.8 1.176e+04 2.779e-09
 13.32444    -30.3 1.183e+04 2.491e-09
 13.36418    -27.8 1.199e+04 2.222e-09
 13.39236    -25.3 1.209e+04 2.011e-09
 13.41223    -25.6 1.207e+04 1.762e-09
 13.44368    -23.2 1.211e+04 1.685e-09
 13.48342    -20.6 1.213e+04 1.602e-09
 13.52317    -18.0 1.217e+04 1.516e-09
 13.56292    -15.3 1.224e+04 1.411e-09
 13.60251    -12.5 1.233e+04 1.309e-09
 13.64226     -9.9 1.234e+04 1.071e-09
 13.68216     -7.0 1.243e+04 1.008e-09
 13.72190     -4.2 1.250e+04 9.969e-10
 13.76165     -1.2 1.267e+04 1.024e-09
 13.80139      1.7 1.267e+04 1.148e-09
 13.83254      4.6 1.268e+04 1.322e-09
 13.85241      4.6 1.265e+04 1.180e-09
 13.88089      7.6 1.270e+04 1.384e-09
 13.92063     10.6 1.283e+04 1.539e-09
 13.95164     13.4 1.292e+04 1.705e-09
 13.97151     13.7 1.294e+04 1.614e-09
 14.00013     16.3 1.301e+04 1.962e-09
 14.03987     18.7 1.311e+04 2.653e-09
 14.06256     21.2 1.310e+04 4.090e-09
 14.07240     21.1 1.313e+04 4.238e-09
 14.08936     21.1 1.317e+04 4.305e-09
 14.11927     23.3 1.335e+04 5.113e-09
 14.15911     25.0 1.341e+04 4.793e-09
 14.19886     26.8 1.360e+04 4.081e-09
 14.22857     28.0 1.363e+04 4.730e-09
 14.24835     28.1 1.369e+04 4.829e-09
 14.26822     29.5 1.361e+04 6.084e-09
 14.28245     30.1 1.384e+04 6.599e-09
 14.29239     29.9 1.391e+04 6.739e-09
 14.30737     31.0 1.385e+04 6.810e-09
 14.31730     31.4 1.387e+04 6.890e-09
 14.32784     32.1 1.394e+04 7.059e-09
 14.34771     33.5 1.404e+04 5.932e-09
 14.36759     33.6 1.410e+04 5.430e-09
 14.39749     35.3 1.479e+04 3.657e-09
 14.43734     37.3 1.495e+04 2.629e-09
 14.47709     39.7 1.510e+04 2.157e-09
 14.50274     42.3 1.522e+04 1.954e-09
 14.52261     42.6 1.525e+04 2.645e-09
 14.55658     45.5 1.540e+04 2.576e-09
 14.59633     48.4 1.546e+04 2.530e-09
 14.63607     51.4 1.547e+04 2.380e-09
 14.66348     54.4 1.547e+04 2.167e-09
 14.68336     54.9 1.549e+04 2.335e-09
 14.71289     58.0 1.553e+04 2.112e-09
 14.73276     58.2 1.548e+04 2.712e-09
 14.75531     61.3 1.548e+04 2.528e-09
 14.79506     64.4 1.554e+04 2.408e-09
 14.83480     67.6 1.559e+04 2.417e-09
 14.87455     70.7 1.571e+04 2.446e-09
 14.90426     72.7 1.575e+04 2.551e-09
 14.92404     73.8 1.581e+04 2.682e-09
 14.94272     74.9 1.581e+04 3.022e-09
 14.95265     75.1 1.582e+04 3.965e-09
 14.96379     76.3 1.579e+04 4.804e-09
 14.98366     77.4 1.578e+04 5.908e-09
 15.00353     78.5 1.578e+04 7.323e-09
 15.01921     79.5 1.580e+04 9.037e-09
 15.02915     79.2 1.587e+04 1.252e-08
 15.04328     80.3 1.591e+04 1.515e-08
 15.05773     81.3 1.598e+04 1.821e-08
 15.06767     80.6 1.626e+04 2.805e-08
 15.08302     81.5 1.630e+04 3.167e-08
 15.10290     82.6 1.638e+04 3.538e-08
 15.12277     83.6 1.645e+04 3.929e-08
 15.14264     84.7 1.661e+04 4.324e-08
 15.16252     85.9 1.687e+04 4.774e-08
 15.17274     87.3 1.704e+04 5.167e-08
 15.17766     86.7 1.699e+04 5.445e-08
 15.18726     87.0 1.704e+04 5.548e-08
 15.19707     88.1 1.697e+04 5.674e-08
 15.20204     87.7 1.718e+04 5.947e-08
 15.20714     88.5 1.734e+04 6.478e-08
 15.21707     89.2 1.760e+04 7.297e-08
 15.22518     89.8 1.801e+04 8.764e-08
 15.23015     87.8 1.878e+04 1.372e-07
 15.23694     88.1 1.908e+04 1.871e-07
 15.24688     88.3 1.931e+04 2.612e-07
 15.25682     88.6 1.933e+04 3.657e-07
 15.26675     89.1 1.931e+04 5.387e-07
 15.27669     89.1 1.916e+04 8.336e-07
 15.28269     88.4 1.879e+04 1.369e-06
 15.28766     85.0 1.866e+04 1.284e-06
 15.29656     83.5 1.821e+04 1.920e-06
 15.30650     81.1 1.775e+04 2.422e-06
 15.31644     78.5 1.766e+04 2.145e-06
 15.32637     76.0 1.813e+04 1.381e-06
 15.33522     72.9 2.040e+04 4.354e-07
 15.34019     71.7 2.766e+04 2.958e-08
 15.34625     68.3 2.773e+04 1.739e-08
 15.36120     61.3 2.845e+04 2.225e-08
 15.37513     54.9 2.019e+04 1.887e-08
 15.38507     53.9 1.708e+04 1.933e-08
 15.39283     53.3 1.568e+04 1.939e-08
 15.40277     55.3 1.546e+04 1.809e-08
 15.42087     56.6 1.549e+04 1.869e-08
 15.44074     57.5 1.550e+04 1.781e-08
 15.47065     60.1 1.556e+04 1.512e-08
 15.51050     62.5 1.553e+04 1.115e-08
 15.55024     65.3 1.540e+04 8.772e-09
 15.58999     68.3 1.543e+04 8.656e-09
 15.61311     72.0 1.544e+04 9.336e-09
 15.63298     71.8 1.539e+04 6.248e-09
 15.66948     75.5 1.554e+04 7.543e-09
 15.70923     79.5 1.581e+04 9.849e-09
 15.73115     81.7 1.571e+04 9.300e-09
 15.74099     81.4 1.578e+04 1.042e-08
 15.75872     82.7 1.603e+04 1.436e-08
 15.77859     83.5 1.627e+04 2.105e-08
 15.79846     83.7 1.690e+04 4.597e-08
 15.81834     83.2 1.784e+04 1.115e-07
 15.83300     81.4 1.846e+04 2.265e-07
 15.84294     82.1 1.778e+04 1.264e-07
 15.85808     80.4 1.835e+04 2.261e-07
 15.87796     78.6 1.851e+04 3.039e-07
 15.89783     77.5 1.825e+04 2.940e-07
 15.90897     77.5 1.818e+04 2.727e-07
 15.91388     76.8 1.789e+04 2.104e-07
 15.92257     76.3 1.767e+04 1.896e-07
 15.93251     75.9 1.737e+04 1.428e-07
 15.94245     75.6 1.727e+04 1.308e-07
 15.94792     75.0 1.693e+04 9.108e-08
 15.95790     76.5 1.755e+04 1.412e-07
 15.97732     75.7 1.714e+04 9.102e-08
 15.99719     75.2 1.673e+04 5.961e-08
 16.01707     75.4 1.623e+04 3.965e-08
 16.03694     75.5 1.593e+04 3.266e-08
 16.05309     76.0 1.575e+04 2.966e-08
 16.06303     77.1 1.606e+04 3.286e-08
 16.07669     77.9 1.591e+04 3.249e-08
 16.08697     79.0 1.570e+04 3.153e-08
 16.09691     79.5 1.571e+04 2.758e-08
 16.11643     80.5 1.550e+04 2.646e-08
 16.13631     81.5 1.536e+04 2.359e-08
 16.15618     82.5 1.527e+04 2.009e-08
 16.16810     83.4 1.519e+04 1.673e-08
 16.17804     84.8 1.537e+04 2.406e-08
 16.19593     85.7 1.529e+04 1.972e-08
 16.21580     86.6 1.525e+04 1.546e-08
 16.23567     87.3 1.525e+04 1.190e-08
 16.25555     87.8 1.529e+04 9.293e-09
 16.27318     88.3 1.528e+04 7.704e-09
 16.28312     89.6 1.541e+04 9.035e-09
 16.29529     90.0 1.525e+04 7.747e-09
 16.31517     90.5 1.513e+04 7.597e-09
 16.33504     91.2 1.511e+04 7.769e-09
 16.35491     91.8 1.510e+04 8.418e-09
 16.37479     92.2 1.511e+04 9.366e-09
 16.38819     92.4 1.510e+04 1.012e-08
 16.39813     93.3 1.521e+04 1.127e-08
 16.41453     93.5 1.518e+04 1.174e-08
 16.43296     93.5 1.514e+04 1.130e-08
 16.44290     93.7 1.513e+04 1.112e-08
 16.45428     93.7 1.508e+04 1.037e-08
 16.47415     93.7 1.501e+04 8.468e-09
 16.49327     93.7 1.505e+04 6.090e-09
 16.50320     94.5 1.497e+04 9.321e-09
 16.51390     94.5 1.509e+04 6.390e-09
 16.53377     94.3 1.537e+04 4.230e-09
 16.55365     93.8 1.540e+04 3.277e-09
 16.57352     93.7 1.507e+04 3.156e-09
 16.59339     93.9 1.500e+04 3.180e-09
 16.60828     94.3 1.493e+04 3.280e-09
 16.61822     94.6 1.501e+04 3.654e-09
 16.63314     95.0 1.497e+04 3.890e-09
 16.65301     95.3 1.501e+04 4.451e-09
 16.67289     95.3 1.501e+04 5.410e-09
 16.69276     95.3 1.495e+04 6.823e-09
 16.71263     95.2 1.493e+04 8.347e-09
 16.72329     94.9 1.496e+04 9.489e-09
 16.73323     94.8 1.509e+04 1.397e-08
 16.75238     94.2 1.513e+04 1.590e-08
 16.77225     93.3 1.521e+04 1.689e-08
 16.78888     92.2 1.538e+04 1.797e-08
 16.79882     91.0 1.550e+04 1.856e-08
 16.81200     89.1 1.579e+04 2.210e-08
 16.82837     87.1 1.601e+04 2.675e-08
 16.83830     85.7 1.632e+04 3.063e-08
 16.85175     83.9 1.622e+04 2.728e-08
 16.87162     82.8 1.598e+04 2.043e-08
 16.89149     82.0 1.578e+04 1.270e-08
 16.91137     81.0 1.564e+04 8.080e-09
 16.93124     80.3 1.549e+04 7.028e-09
 16.94338     79.8 1.547e+04 7.343e-09
 16.95332     79.0 1.539e+04 8.429e-09
 16.97098     78.8 1.537e+04 1.044e-08
 16.99086     78.6 1.533e+04 1.387e-08
 17.01073     78.2 1.525e+04 1.829e-08
 17.03060     77.4 1.514e+04 1.921e-08
 17.04845     76.6 1.485e+04 1.789e-08
 17.05839     76.1 1.480e+04 1.812e-08
 17.07035     75.7 1.439e+04 1.339e-08
 17.09022     75.1 1.418e+04 8.513e-09
 17.11010     74.0 1.410e+04 5.603e-09
 17.12997     72.9 1.379e+04 5.094e-09
 17.14480     72.3 1.376e+04 5.132e-09
 17.15474     72.1 1.370e+04 5.055e-09
 17.16347     71.6 1.364e+04 5.431e-09
 17.17340     71.4 1.360e+04 5.393e-09
 17.18959     70.7 1.357e+04 6.286e-09
 17.20946     69.9 1.351e+04 7.496e-09
 17.22934     69.1 1.351e+04 8.678e-09
 17.24921     68.1 1.352e+04 1.004e-08
 17.26854     67.2 1.349e+04 1.131e-08
 17.27848     67.3 1.328e+04 9.150e-09
 17.28896     66.4 1.324e+04 9.717e-09
 17.30883     65.3 1.330e+04 1.108e-08
 17.32870     64.1 1.351e+04 1.414e-08
 17.34858     63.2 1.377e+04 1.904e-08
 17.36845     62.5 1.396e+04 2.319e-08
 17.38355     61.9 1.393e+04 2.306e-08
 17.39349     62.1 1.373e+04 2.070e-08
 17.40820     61.7 1.355e+04 1.878e-08
 17.42807     61.4 1.319e+04 1.441e-08
 17.44794     61.1 1.287e+04 1.078e-08
 17.46782     60.9 1.263e+04 8.169e-09
 17.48769     60.9 1.240e+04 6.435e-09
 17.49857     61.0 1.219e+04 5.268e-09
 17.50166     61.0 1.213e+04 5.315e-09
 17.51066     60.9 1.217e+04 6.459e-09
 17.52744     61.2 1.208e+04 5.790e-09
 17.54731     61.5 1.202e+04 5.434e-09
 17.56718     62.0 1.201e+04 5.409e-09
 17.58706     62.5 1.203e+04 5.636e-09
 17.60364     63.0 1.201e+04 6.079e-09
 17.61358     62.8 1.217e+04 7.947e-09
 17.62680     63.2 1.213e+04 8.443e-09
 17.64668     63.6 1.209e+04 8.717e-09
 17.66655     63.9 1.201e+04 8.595e-09
 17.68642     64.3 1.184e+04 8.038e-09
 17.70630     64.6 1.160e+04 6.988e-09
 17.71865     64.9 1.134e+04 5.807e-09
 17.72859     64.5 1.145e+04 6.516e-09
 17.74604     64.8 1.116e+04 5.267e-09
 17.76592     64.9 1.096e+04 4.431e-09
 17.78579     65.1 1.076e+04 3.986e-09
 17.80566     65.3 1.075e+04 3.966e-09
 17.82373     65.1 1.080e+04 4.097e-09
 17.83376     64.4 1.094e+04 4.421e-09
 17.85554     64.9 1.074e+04 4.329e-09
 17.89529     65.3 1.051e+04 4.151e-09
 17.93503     65.6 1.032e+04 3.674e-09
 17.97478     65.9 1.009e+04 3.057e-09
 18.01453     66.5 9.990e+03 2.690e-09
 18.04401     67.0 1.011e+04 2.717e-09
 18.06389     66.8 9.783e+03 2.270e-09
 18.09402     67.5 1.018e+04 2.941e-09
 18.12373     67.6 1.040e+04 3.780e-09
 18.14351     67.7 1.049e+04 4.494e-09
 18.15883     67.9 1.062e+04 4.911e-09
 18.16877     67.8 1.064e+04 4.883e-09
 18.18325     67.9 1.078e+04 4.964e-09
 18.20263     67.8 1.082e+04 4.958e-09
 18.21257     68.1 1.084e+04 5.029e-09
 18.22300     67.9 1.085e+04 5.007e-09
 18.24287     67.8 1.084e+04 4.941e-09
 18.26275     67.5 1.083e+04 4.907e-09
 18.27384     67.3 1.083e+04 4.937e-09
 18.28378     67.3 1.074e+04 4.908e-09
 18.30249     67.0 1.076e+04 5.044e-09
 18.32237     66.7 1.075e+04 5.032e-09
 18.34224     66.1 1.076e+04 4.945e-09
 18.36211     65.4 1.080e+04 4.842e-09
 18.37892     64.8 1.084e+04 4.621e-09
 18.38885     65.0 1.086e+04 5.034e-09
 18.40186     64.4 1.087e+04 4.486e-09
 18.42173     63.8 1.091e+04 3.803e-09
 18.44161     62.9 1.097e+04 3.353e-09
 18.46148     62.1 1.100e+04 3.366e-09
 18.48135     60.7 1.124e+04 3.733e-09
 18.49393     58.4 1.167e+04 5.304e-09
 18.50387     58.1 1.173e+04 5.867e-09
 18.52110     56.1 1.217e+04 1.041e-08
 18.54097     56.0 1.218e+04 1.088e-08
 18.57088     51.8 1.309e+04 1.490e-08
 18.59910     48.1 1.304e+04 1.361e-08
 18.60894     47.3 1.311e+04 1.379e-08
 18.62047     45.8 1.282e+04 1.256e-08
 18.64034     43.6 1.235e+04 8.969e-09
 18.66021     41.4 1.190e+04 6.832e-09
 18.68009     40.1 1.135e+04 4.940e-09
 18.69996     38.5 1.110e+04 3.801e-09
 18.71402     37.0 1.095e+04 3.259e-09
 18.72395     36.0 1.094e+04 3.260e-09
 18.73971     35.1 1.073e+04 3.112e-09
 18.75958     34.2 1.069e+04 3.200e-09
 18.77945     33.5 1.068e+04 3.329e-09
 18.79933     31.7 1.085e+04 4.219e-09
 18.81909     31.0 1.080e+04 4.906e-09
 18.82903     29.9 1.085e+04 5.369e-09
 18.83907     28.4 1.096e+04 6.525e-09
 18.85894     27.4 1.081e+04 6.581e-09
 18.87882     25.7 1.077e+04 6.531e-09
 18.89869     25.0 1.046e+04 6.075e-09
 18.91448     24.5 1.015e+04 4.921e-09
 18.92441     23.9 1.017e+04 4.986e-09
 18.93410     23.0 9.916e+03 4.401e-09
 18.94404     22.1 9.701e+03 4.140e-09
 18.96835     22.2 9.217e+03 2.673e-09
 19.00819     22.4 8.802e+03 1.773e-09
 19.04794     22.4 8.875e+03 1.437e-09
 19.08768     22.1 9.030e+03 1.917e-09
 19.12743     22.9 9.172e+03 2.925e-09
 19.15439     23.8 9.202e+03 2.997e-09
 19.17426     23.2 9.044e+03 2.886e-09
 19.20692     24.3 8.910e+03 2.187e-09
 19.24667     24.8 8.845e+03 1.574e-09
 19.28642     25.5 8.724e+03 1.414e-09
 19.32616     26.6 8.767e+03 1.514e-09
 19.36454     27.5 8.952e+03 1.868e-09
 19.38441     26.6 9.179e+03 2.580e-09
 19.40565     26.8 9.710e+03 3.727e-09
 19.44540     26.3 1.028e+04 5.342e-09
 19.48515     25.1 1.073e+04 7.174e-09
 19.52489     25.0 1.067e+04 6.506e-09
 19.55461     24.7 1.071e+04 6.055e-09
 19.57438     23.8 1.110e+04 5.669e-09
 19.59426     22.5 1.135e+04 5.536e-09
 19.60430     20.1 1.187e+04 6.660e-09
 19.61424     17.9 1.249e+04 1.221e-08
 19.62632     16.3 1.264e+04 1.927e-08
 19.63626     16.4 1.253e+04 1.867e-08
 19.65388     15.9 1.283e+04 2.033e-08
 19.67375     15.7 1.260e+04 1.816e-08
 19.69362     15.9 1.254e+04 1.119e-08
 19.72353     11.7 1.276e+04 4.655e-09
 19.76337      9.4 1.250e+04 6.457e-09
 19.79309      7.9 1.270e+04 1.106e-08
 19.81286      6.9 1.336e+04 1.419e-08
 19.82439      5.2 1.412e+04 1.995e-08
 19.83433      2.9 1.424e+04 2.185e-08
 19.85261      0.4 1.514e+04 3.410e-08
 19.87248     -1.6 1.558e+04 4.696e-08
 19.89235     -4.0 1.544e+04 4.396e-08
 19.91223     -5.9 1.471e+04 2.382e-08
 19.92947     -8.4 1.365e+04 1.067e-08
 19.93940     -9.1 1.335e+04 7.521e-09
 19.96201    -10.7 1.307e+04 4.347e-09
 20.00185    -13.1 1.252e+04 2.275e-09
 20.03474    -14.0 1.221e+04 1.985e-09
 20.05461    -14.0 1.219e+04 1.713e-09
 20.08135    -13.5 1.212e+04 1.727e-09
 20.12109    -12.9 1.202e+04 1.573e-09
 20.16084    -12.1 1.191e+04 1.465e-09
 20.20059    -11.0 1.181e+04 1.486e-09
 20.24033     -9.7 1.173e+04 1.524e-09
 20.26476     -8.6 1.172e+04 1.450e-09
 20.28464     -7.8 1.163e+04 1.036e-09
 20.31848     -6.6 1.161e+04 1.175e-09
 20.33836     -6.5 1.168e+04 1.035e-09
 20.35957     -5.6 1.186e+04 1.386e-09
 20.39932     -5.3 1.178e+04 2.807e-09
 20.43906     -4.6 1.198e+04 6.424e-09
 20.47491     -4.3 1.249e+04 1.127e-08
 20.49479     -3.3 1.249e+04 1.094e-08
 20.51856     -4.3 1.281e+04 1.384e-08
 20.55830     -6.0 1.263e+04 1.276e-08
 20.59805     -7.1 1.200e+04 8.004e-09
 20.63780     -7.6 1.135e+04 3.981e-09
 20.67754     -7.8 1.098e+04 2.233e-09
 20.70494     -7.2 1.076e+04 1.591e-09
 20.72481     -6.8 1.078e+04 1.598e-09
 20.75704     -5.8 1.073e+04 1.342e-09
 20.79678     -4.4 1.068e+04 1.304e-09
 20.83653     -3.1 1.067e+04 1.490e-09
 20.87628     -1.9 1.072e+04 1.949e-09
 20.91509     -0.5 1.091e+04 2.505e-09
 20.93496     -0.0 1.096e+04 2.439e-09
 20.95577      0.9 1.112e+04 2.547e-09
 20.99552      1.5 1.117e+04 1.956e-09
 21.03033      2.1 1.109e+04 1.257e-09
 21.05020      2.9 1.115e+04 1.396e-09
 21.07501      3.5 1.119e+04 8.029e-10
 21.11476      3.9 1.097e+04 5.999e-10
 21.14511      5.0 1.103e+04 5.700e-10
 21.16499      5.8 1.109e+04 6.903e-10
 21.19425      6.6 1.113e+04 8.456e-10
 21.23400      7.2 1.132e+04 1.220e-09
 21.27374      7.8 1.141e+04 2.033e-09
 21.31349      8.6 1.123e+04 2.876e-09
 21.35323      9.6 1.124e+04 2.157e-09
 21.37514     10.4 1.149e+04 1.163e-09
 21.39501     11.2 1.152e+04 1.754e-09
 21.43273     11.4 1.161e+04 1.103e-09
 21.47247     12.2 1.156e+04 1.036e-09
 21.51222     13.3 1.149e+04 1.192e-09
 21.55197     14.4 1.148e+04 1.473e-09
 21.58529     15.2 1.176e+04 2.039e-09
 21.60516     16.0 1.202e+04 2.331e-09
 21.63146     15.7 1.216e+04 3.988e-09
 21.67121     14.8 1.246e+04 6.253e-09
 21.70020     13.9 1.304e+04 7.602e-09
 21.71004     14.0 1.318e+04 7.555e-09
 21.72069     13.0 1.320e+04 1.035e-08
 21.74057     12.3 1.348e+04 9.268e-09
 21.75191     11.1 1.351e+04 7.872e-09
 21.76185     11.2 1.354e+04 8.685e-09
 21.78031      8.7 1.459e+04 6.950e-09
 21.80019      5.2 1.443e+04 9.537e-09
 21.81512      4.0 1.383e+04 1.475e-08
 21.82505      4.3 1.387e+04 1.392e-08
 21.83993      4.6 1.390e+04 1.804e-08
 21.85981      4.3 1.416e+04 1.174e-08
 21.87968      3.0 1.413e+04 6.128e-09
 21.89955      1.3 1.369e+04 3.726e-09
 21.91943      0.5 1.337e+04 2.969e-09
 21.93013     -0.0 1.332e+04 2.332e-09
 21.94007      0.6 1.342e+04 2.633e-09
 21.95917      0.2 1.336e+04 2.428e-09
 21.98908      0.0 1.328e+04 2.423e-09
 22.02546     -0.0 1.327e+04 2.698e-09
 22.04524      0.4 1.336e+04 3.124e-09
 22.05854      0.5 1.345e+04 2.943e-09
 22.07841      0.5 1.350e+04 2.741e-09
 22.10832      0.3 1.348e+04 2.007e-09
 22.14817      0.8 1.318e+04 1.470e-09
 22.18791      1.4 1.324e+04 1.123e-09
 22.22766      2.2 1.325e+04 1.099e-09
 22.25549      2.9 1.324e+04 1.197e-09
 22.27536      3.1 1.313e+04 1.536e-09
 22.30715      3.6 1.308e+04 1.964e-09
 22.34690      4.1 1.303e+04 2.539e-09
 22.38664      4.5 1.294e+04 3.077e-09
 22.42639      4.6 1.306e+04 3.456e-09
 22.45401      4.5 1.313e+04 4.001e-09
 22.47339      4.8 1.317e+04 3.940e-09
 22.48551      5.6 1.294e+04 3.066e-09
 22.50588      5.3 1.314e+04 3.842e-09
 22.54563      4.3 1.320e+04 7.215e-09
 22.57534      4.8 1.396e+04 1.548e-08
 22.59039      4.1 1.421e+04 1.710e-08
 22.60033      4.8 1.418e+04 1.649e-08
 22.61499      4.4 1.379e+04 1.661e-08
 22.63486      4.6 1.380e+04 1.040e-08
 22.65474      3.8 1.378e+04 5.161e-09
 22.67461      2.9 1.357e+04 3.278e-09
 22.69557      2.4 1.343e+04 2.245e-09
 22.71544      2.9 1.326e+04 2.420e-09
 22.74427      4.3 1.319e+04 2.215e-09
 22.78411      5.3 1.320e+04 1.827e-09
 22.82386      6.4 1.326e+04 1.498e-09
 22.86360      7.4 1.310e+04 1.355e-09
 22.90335      8.3 1.295e+04 1.429e-09
 22.92569      9.2 1.275e+04 2.030e-09
 22.94556      9.3 1.263e+04 2.391e-09
 22.98284     10.2 1.276e+04 3.071e-09
 23.02259     10.3 1.291e+04 3.306e-09
 23.06234     10.1 1.276e+04 3.537e-09
 23.10208      9.9 1.280e+04 3.441e-09
 23.13584     10.1 1.269e+04 2.795e-09
 23.15571      9.8 1.258e+04 2.336e-09
 23.16586     10.3 1.255e+04 1.645e-09
 23.18573     10.5 1.257e+04 1.721e-09
 23.22132     11.4 1.259e+04 1.319e-09
 23.26107     12.7 1.259e+04 1.140e-09
 23.30081     14.5 1.265e+04 9.548e-10
 23.34056     16.5 1.272e+04 7.687e-10
 23.36586     18.4 1.285e+04 6.643e-10
 23.38574     18.4 1.276e+04 7.683e-10
 23.42005     20.4 1.271e+04 8.194e-10
 23.45980     22.6 1.275e+04 9.190e-10
 23.49955     24.6 1.283e+04 1.046e-09
 23.53929     26.5 1.289e+04 1.216e-09
 23.57601     28.2 1.294e+04 1.480e-09
 23.59589     27.9 1.289e+04 1.489e-09
 23.61879     29.3 1.289e+04 1.910e-09
 23.65853     30.7 1.288e+04 2.431e-09
 23.69828     32.9 1.313e+04 2.609e-09
 23.73803     34.6 1.343e+04 2.592e-09
 23.76774     35.1 1.348e+04 2.695e-09
 23.78751     35.5 1.349e+04 2.834e-09
 23.80584     36.0 1.360e+04 3.056e-09
 23.81578     35.8 1.355e+04 2.829e-09
 23.82726     36.4 1.359e+04 2.922e-09
 23.84713     36.9 1.377e+04 3.087e-09
 23.86701     37.4 1.389e+04 3.377e-09
 23.87751     37.8 1.400e+04 3.907e-09
 23.88744     37.7 1.400e+04 3.983e-09
 23.90675     38.0 1.421e+04 5.279e-09
 23.92086     38.3 1.433e+04 7.535e-09
 23.93079     37.9 1.424e+04 7.328e-09
 23.94650     38.1 1.442e+04 1.054e-08
 23.96637     38.3 1.460e+04 1.424e-08
 23.98625     38.3 1.475e+04 1.712e-08
 24.00612     38.2 1.487e+04 1.733e-08
 24.02593     38.2 1.480e+04 1.580e-08
 24.04580     38.1 1.453e+04 1.145e-08
 24.06574     38.3 1.443e+04 9.008e-09
 24.08561     38.5 1.435e+04 7.148e-09
 24.10549     38.8 1.422e+04 5.797e-09
 24.12536     39.1 1.410e+04 4.972e-09
 24.14094     39.4 1.385e+04 4.855e-09
 24.15088     39.3 1.403e+04 5.578e-09
 24.16511     39.8 1.398e+04 5.839e-09
 24.18498     40.2 1.393e+04 6.633e-09
 24.20485     40.8 1.386e+04 7.649e-09
 24.22349     41.1 1.382e+04 8.238e-09
 24.23343     41.5 1.392e+04 8.832e-09
 24.24460     42.0 1.379e+04 8.532e-09
 24.25596     42.2 1.369e+04 7.953e-09
 24.26589     41.8 1.399e+04 1.007e-08
 24.28435     42.4 1.360e+04 8.141e-09
 24.30422     42.6 1.342e+04 6.747e-09
 24.32409     43.2 1.311e+04 5.487e-09
 24.34397     43.2 1.311e+04 5.199e-09
 24.37387     44.0 1.298e+04 4.926e-09
 24.41372     45.8 1.278e+04 4.941e-09
 24.45346     47.8 1.261e+04 5.172e-09
 24.47624     49.8 1.243e+04 5.611e-09
 24.49611     48.9 1.282e+04 6.211e-09
 24.53296     50.3 1.289e+04 7.938e-09
 24.56967     51.3 1.310e+04 1.063e-08
 24.58954     52.1 1.305e+04 9.409e-09
 24.61245     52.8 1.331e+04 1.242e-08
 24.64216     52.6 1.331e+04 1.335e-08
 24.66194     52.3 1.335e+04 1.354e-08
 24.68181     52.5 1.322e+04 1.268e-08
 24.69613     52.7 1.306e+04 1.115e-08
 24.70607     52.0 1.281e+04 9.258e-09
 24.72156     52.7 1.250e+04 6.642e-09
 24.74143     53.1 1.233e+04 4.695e-09
 24.77134     54.0 1.214e+04 2.513e-09
 24.81118     55.8 1.174e+04 1.703e-09
 24.85093     58.2 1.166e+04 1.710e-09
 24.89068     60.7 1.166e+04 1.937e-09
 24.91641     63.1 1.188e+04 2.438e-09
 24.93629     62.3 1.192e+04 2.037e-09
 24.97017     64.6 1.209e+04 2.485e-09
 24.99988     66.3 1.219e+04 2.730e-09
 25.01966     66.8 1.221e+04 2.898e-09
 25.03123     67.8 1.212e+04 3.444e-09
 25.04117     67.5 1.213e+04 3.105e-09
 25.05940     68.3 1.213e+04 3.625e-09
 25.07928     69.1 1.221e+04 4.100e-09
 25.09915     69.9 1.229e+04 4.480e-09
 25.11902     70.5 1.232e+04 4.754e-09
 25.13631     71.1 1.240e+04 4.834e-09
 25.14624     70.6 1.249e+04 4.935e-09
 25.15877     71.1 1.259e+04 4.941e-09
 25.17864     71.6 1.261e+04 4.895e-09
 25.19852     72.1 1.263e+04 4.706e-09
 25.21839     72.8 1.265e+04 4.343e-09
 25.23826     73.6 1.269e+04 3.875e-09
 25.25132     74.2 1.272e+04 3.372e-09
 25.26125     73.4 1.280e+04 3.245e-09
 25.28142     75.1 1.277e+04 2.560e-09
 25.30139     75.4 1.286e+04 2.548e-09
 25.32789     77.5 1.295e+04 2.139e-09
 25.35659     80.1 1.302e+04 2.103e-09
 25.36643     78.9 1.304e+04 2.164e-09
 25.37738     79.5 1.313e+04 2.236e-09
 25.39725     80.6 1.319e+04 2.419e-09
 25.41712     81.7 1.327e+04 2.785e-09
 25.43700     82.9 1.341e+04 3.459e-09
 25.45687     84.0 1.360e+04 4.484e-09
 25.47141     84.9 1.380e+04 6.011e-09
 25.48134     83.9 1.393e+04 8.435e-09
 25.49661     84.8 1.417e+04 1.109e-08
 25.51649     85.4 1.444e+04 1.425e-08
 25.53636     85.9 1.474e+04 1.762e-08
 25.55623     86.2 1.497e+04 2.091e-08
 25.57611     86.4 1.514e+04 2.351e-08
 25.58642     86.5 1.523e+04 2.435e-08
 25.59635     84.9 1.485e+04 1.924e-08
 25.61585     85.0 1.480e+04 1.854e-08
 25.63573     85.2 1.477e+04 1.810e-08
 25.64718     85.4 1.479e+04 1.818e-08
 25.65711     85.7 1.480e+04 1.706e-08
 25.67547     85.7 1.485e+04 1.702e-08
 25.69149     85.6 1.489e+04 1.689e-08
 25.70143     84.2 1.433e+04 1.087e-08
 25.71522     84.2 1.436e+04 1.160e-08
 25.73509     84.0 1.429e+04 1.249e-08
 25.75497     83.7 1.434e+04 1.395e-08
 25.77484     83.3 1.453e+04 1.627e-08
 25.79471     82.4 1.482e+04 2.133e-08
 25.80651     81.2 1.520e+04 2.928e-08
 25.81644     79.5 1.516e+04 3.123e-08
 25.83446     77.9 1.542e+04 3.673e-08
 25.85433     76.1 1.541e+04 3.771e-08
 25.87421     74.6 1.516e+04 3.402e-08
 25.89408     73.3 1.472e+04 2.544e-08
 25.91158     72.2 1.415e+04 1.512e-08
 25.92152     71.5 1.364e+04 1.038e-08
 25.93383     70.6 1.338e+04 7.511e-09
 25.95370     70.2 1.308e+04 5.136e-09
 25.97357     69.8 1.288e+04 3.721e-09
 25.99326     68.5 1.250e+04 2.593e-09
 26.01323     71.8 1.275e+04 2.993e-09
 26.02679     72.2 1.208e+04 1.890e-09
 26.04666     72.8 1.202e+04 1.806e-09
 26.08307     74.4 1.176e+04 1.600e-09
 26.12282     76.7 1.174e+04 1.641e-09
 26.16256     78.8 1.171e+04 1.981e-09
 26.20231     80.9 1.180e+04 3.409e-09
 26.23694     82.4 1.209e+04 5.670e-09
 26.25672     81.7 1.218e+04 6.861e-09
 26.27167     81.8 1.235e+04 8.856e-09
 26.29155     81.7 1.258e+04 1.157e-08
 26.31142     81.7 1.294e+04 1.525e-08
 26.33129     81.4 1.331e+04 1.964e-08
 26.34908     80.9 1.353e+04 2.300e-08
 26.35902     82.1 1.342e+04 2.169e-08
 26.36169     81.4 1.347e+04 2.235e-08
 26.37163     81.5 1.282e+04 1.597e-08
 26.39091     80.7 1.275e+04 1.516e-08
 26.41079     79.7 1.268e+04 1.440e-08
 26.43066     78.7 1.259e+04 1.374e-08
 26.45053     77.9 1.245e+04 1.271e-08
 26.46677     77.2 1.224e+04 1.097e-08
 26.47671     77.8 1.202e+04 9.843e-09
 26.49028     77.4 1.184e+04 8.707e-09
 26.51015     77.1 1.166e+04 7.056e-09
 26.53002     76.6 1.152e+04 5.644e-09
 26.54990     76.0 1.136e+04 5.275e-09
 26.56977     75.4 1.139e+04 5.385e-09
 26.58178     74.9 1.152e+04 6.227e-09
 26.59172     76.1 1.139e+04 5.867e-09
 26.60952     75.6 1.157e+04 7.201e-09
 26.62939     75.3 1.182e+04 9.323e-09
 26.64926     75.0 1.209e+04 1.160e-08
 26.66914     74.8 1.232e+04 1.311e-08
 26.68686     74.3 1.240e+04 1.293e-08
 26.69679     75.4 1.296e+04 1.990e-08
 26.70501     74.7 1.300e+04 1.943e-08
 26.71494     75.6 1.281e+04 1.733e-08
 26.72876     74.7 1.277e+04 1.667e-08
 26.74863     73.8 1.253e+04 1.462e-08
 26.76850     72.7 1.213e+04 1.155e-08
 26.78838     71.4 1.158e+04 8.713e-09
 26.80187     70.7 1.124e+04 7.539e-09
 26.81181     71.2 1.153e+04 8.780e-09
 26.83816     71.1 1.093e+04 6.986e-09
 26.87800     70.5 1.033e+04 5.395e-09
 26.90714     70.6 9.912e+03 4.089e-09
 26.92701     71.1 1.011e+04 4.689e-09
 26.95750     71.3 9.604e+03 3.024e-09
 26.99724     71.9 9.268e+03 1.960e-09
 27.03699     72.9 8.932e+03 1.514e-09
 27.07673     74.3 8.703e+03 1.457e-09
 27.11648     76.0 8.648e+03 1.459e-09
 27.13716     77.7 8.592e+03 1.447e-09
 27.15704     78.0 8.592e+03 1.449e-09
 27.19597     79.4 8.470e+03 1.347e-09
 27.23572     80.8 8.467e+03 1.347e-09
 27.27547     82.0 8.473e+03 1.411e-09
 27.31521     83.1 8.477e+03 1.627e-09
 27.34731     84.1 8.490e+03 1.945e-09
 27.36719     84.5 8.421e+03 1.671e-09
 27.39471     85.4 8.527e+03 2.114e-09
 27.41704     86.2 8.651e+03 2.506e-09
 27.43692     87.2 8.829e+03 2.731e-09
 27.47420     87.8 8.901e+03 2.930e-09
 27.51395     88.2 8.961e+03 3.078e-09
 27.55369     88.5 9.045e+03 3.285e-09
 27.57734     88.5 9.119e+03 3.514e-09
 27.58718     88.1 9.179e+03 3.830e-09
 27.60318     88.0 9.250e+03 4.160e-09
 27.62305     87.9 9.369e+03 4.651e-09
 27.64293     87.8 9.528e+03 5.215e-09
 27.66280     87.7 9.705e+03 5.835e-09
 27.68222     87.5 9.876e+03 6.470e-09
 27.69216     87.0 1.016e+04 7.844e-09
 27.70255     86.7 1.030e+04 8.521e-09
 27.72242     86.5 1.043e+04 9.150e-09
 27.74229     86.0 1.070e+04 1.011e-08
 27.76217     84.2 1.177e+04 1.382e-08
 27.77277     76.3 1.550e+04 4.484e-08
 27.78271     76.4 1.558e+04 4.384e-08
 27.79690     71.5 1.701e+04 9.071e-08
 27.80210     68.0 1.808e+04 1.473e-07
 27.80707     66.2 1.848e+04 1.780e-07
 27.81672     60.6 1.989e+04 2.573e-07
 27.82666     52.9 2.097e+04 3.247e-07
 27.83659     44.3 2.099e+04 3.223e-07
 27.84653     37.0 2.044e+04 2.745e-07
 27.85464     32.5 1.932e+04 1.880e-07
 27.85961     32.5 1.891e+04 1.723e-07
 27.86640     28.1 1.799e+04 9.999e-08
 27.88136     21.9 1.660e+04 5.076e-08
 27.90128     14.5 1.322e+04 1.734e-08
 27.91224     10.0 1.105e+04 9.264e-09
 27.92218      8.4 1.078e+04 9.096e-09
 27.94103      7.3 1.044e+04 7.243e-09
 27.96090      6.9 1.023e+04 6.848e-09
 27.98077      7.0 9.965e+03 6.946e-09
 28.00065      8.0 9.770e+03 6.731e-09
 28.01732      8.7 9.689e+03 6.098e-09
 28.02726      8.3 9.940e+03 7.055e-09
 28.04039      9.0 9.732e+03 6.675e-09
 28.06027      9.4 9.719e+03 6.193e-09
 28.08014      9.8 9.701e+03 6.334e-09
 28.10001     10.2 9.860e+03 7.086e-09
 28.11876     10.5 1.019e+04 8.233e-09
 28.12869     10.5 1.008e+04 8.172e-09
 28.13233     11.3 1.042e+04 9.933e-09
 28.14227     11.0 1.052e+04 1.049e-08
 28.15963     11.7 1.095e+04 1.254e-08
 28.17951     12.3 1.119e+04 1.401e-08
 28.19938     12.7 1.137e+04 1.466e-08
 28.21925     12.7 1.145e+04 1.412e-08
 28.23741     12.8 1.137e+04 1.348e-08
 28.24734     13.1 1.169e+04 1.603e-08
 28.25900     13.2 1.165e+04 1.424e-08
 28.27887     13.6 1.134e+04 1.286e-08
 28.29875     14.4 1.103e+04 9.483e-09
 28.31862     14.6 1.093e+04 8.876e-09
 28.34853     16.1 1.073e+04 5.779e-09
 28.38837     16.7 1.066e+04 3.590e-09
 28.42812     17.3 1.083e+04 3.975e-09
 28.45769     18.3 1.116e+04 6.475e-09
 28.47756     18.2 1.115e+04 6.349e-09
 28.50761     19.9 1.121e+04 7.319e-09
 28.54736     21.7 1.110e+04 6.621e-09
 28.58710     23.6 1.093e+04 6.148e-09
 28.62685     25.8 1.086e+04 6.235e-09
 28.65656     27.7 1.074e+04 6.177e-09
 28.67634     28.6 1.084e+04 6.503e-09
 28.68752     30.4 1.076e+04 6.761e-09
 28.69746     30.4 1.075e+04 6.376e-09
 28.71608     31.7 1.089e+04 7.132e-09
 28.73596     33.3 1.093e+04 7.698e-09
 28.75583     34.9 1.105e+04 8.369e-09
 28.77570     36.7 1.118e+04 9.127e-09
 28.79259     37.9 1.138e+04 9.974e-09
 28.80253     37.8 1.131e+04 9.346e-09
 28.81545     39.4 1.135e+04 9.860e-09
 28.83060     41.0 1.150e+04 1.061e-08
 28.84054     41.0 1.117e+04 9.279e-09
 28.85520     42.7 1.144e+04 1.014e-08
 28.87507     43.4 1.168e+04 1.105e-08
 28.89494     44.3 1.200e+04 1.322e-08
 28.90761     45.6 1.240e+04 1.675e-08
 28.91754     45.7 1.203e+04 1.249e-08
 28.93469     46.6 1.252e+04 1.642e-08
 28.95456     47.6 1.315e+04 2.261e-08
 28.97444     48.0 1.439e+04 3.778e-08
 28.99431     48.4 1.588e+04 7.360e-08
 29.00851     47.9 1.675e+04 1.075e-07
 29.01343     48.0 1.644e+04 9.195e-08
 29.01755     47.6 1.718e+04 1.238e-07
 29.02257     47.6 1.655e+04 9.636e-08
 29.02904     46.5 1.778e+04 1.634e-07
 29.03893     46.0 1.832e+04 2.883e-07
 29.04886     46.5 1.846e+04 4.922e-07
 29.05880     46.2 1.887e+04 6.544e-07
 29.06874     45.1 1.892e+04 5.952e-07
 29.07506     44.5 1.870e+04 3.956e-07
 29.08003     44.2 1.855e+04 3.525e-07
 29.09363     44.0 1.786e+04 1.684e-07
 29.11355     42.2 1.670e+04 6.878e-08
 29.12769     39.3 1.532e+04 4.022e-08
 29.13763     39.4 1.459e+04 3.307e-08
 29.15330     37.9 1.379e+04 2.710e-08
 29.17317     38.0 1.371e+04 2.701e-08
 29.18652     38.0 1.376e+04 2.858e-08
 29.19646     37.8 1.342e+04 2.601e-08
 29.21292     37.9 1.356e+04 2.873e-08
 29.23277     37.9 1.384e+04 3.358e-08
 29.25264     37.6 1.298e+04 2.116e-08
 29.27254     37.7 1.332e+04 2.506e-08
 29.29241     37.8 1.351e+04 2.780e-08
 29.31228     37.8 1.365e+04 2.910e-08
 29.33215     37.2 1.409e+04 3.180e-08
 29.34778     35.3 1.501e+04 4.092e-08
 29.35772     34.7 1.330e+04 2.403e-08
 29.37190     32.4 1.477e+04 4.340e-08
 29.39177     30.9 1.594e+04 8.148e-08
 29.41165     30.9 1.667e+04 1.228e-07
 29.43152     30.9 1.691e+04 1.319e-07
 29.45139     31.2 1.672e+04 1.181e-07
 29.46279     31.6 1.624e+04 8.874e-08
 29.47273     30.2 1.626e+04 9.077e-08
 29.49114     30.4 1.543e+04 6.303e-08
 29.51101     30.9 1.459e+04 4.585e-08
 29.53089     31.5 1.390e+04 3.428e-08
 29.54244     31.6 1.340e+04 2.703e-08
 29.55238     31.8 1.412e+04 3.641e-08
 29.56787     31.1 1.453e+04 3.907e-08
 29.57781     29.1 1.389e+04 3.413e-08
 29.59051     24.3 1.619e+04 5.513e-08
 29.60536     19.3 1.836e+04 8.985e-08
 29.61525     15.5 1.890e+04 1.740e-07
 29.62519     13.0 1.870e+04 3.165e-07
 29.63025     11.5 1.848e+04 4.628e-07
 29.63521     11.2 1.849e+04 4.405e-07
 29.64506      9.6 1.876e+04 4.774e-07
 29.65500      7.1 1.907e+04 4.218e-07
 29.66493      3.1 2.034e+04 2.210e-07
 29.67487     -2.1 1.929e+04 1.355e-07
 29.68283    -10.7 1.626e+04 4.735e-08
 29.69282     -9.6 1.665e+04 6.847e-08
 29.70975    -14.6 1.378e+04 3.915e-08
 29.72962    -15.8 1.315e+04 2.836e-08
 29.74949    -18.0 1.211e+04 1.890e-08
 29.76937    -19.7 1.140e+04 1.591e-08
 29.78796    -20.0 1.166e+04 1.762e-08
 29.79789    -18.6 1.257e+04 2.810e-08
 29.80911    -18.8 1.311e+04 3.587e-08
 29.82899    -18.4 1.358e+04 4.516e-08
 29.84886    -16.9 1.398e+04 5.350e-08
 29.86873    -15.6 1.423e+04 5.655e-08
 29.88843    -14.8 1.421e+04 5.017e-08
 29.89836    -14.8 1.462e+04 5.877e-08
 29.90297    -14.8 1.447e+04 4.890e-08
 29.91291    -14.8 1.509e+04 5.954e-08
 29.92835    -16.3 1.454e+04 4.687e-08
 29.94823    -17.3 1.389e+04 3.996e-08
 29.96810    -17.4 1.346e+04 3.654e-08
 29.98797    -17.1 1.301e+04 3.211e-08
 30.00785    -16.4 1.233e+04 2.486e-08
 30.01798    -15.8 1.150e+04 1.743e-08
 30.02792    -15.9 1.114e+04 1.517e-08
 30.04759    -15.1 1.042e+04 1.087e-08
 30.06747    -14.2 9.894e+03 7.755e-09
 30.08734    -13.2 9.576e+03 5.892e-09
 30.10721    -12.2 9.387e+03 4.806e-09
 30.12306    -11.3 9.131e+03 4.044e-09
 30.13299    -10.8 9.193e+03 4.173e-09
 30.14696     -9.5 9.053e+03 3.775e-09
 30.16683     -7.8 9.094e+03 3.681e-09
 30.18671     -6.6 9.091e+03 3.636e-09
 30.20658     -5.1 9.236e+03 3.848e-09
 30.22645     -3.9 9.196e+03 3.936e-09
 30.23807     -2.2 9.438e+03 4.624e-09
 30.24603     -1.8 9.480e+03 4.746e-09
 30.25429     -1.9 9.523e+03 4.814e-09
 30.26620     -1.0 9.554e+03 4.997e-09
 30.29611      1.1 9.862e+03 6.116e-09
 30.32592      3.5 1.029e+04 7.768e-09
 30.34314      3.8 1.033e+04 7.856e-09
 30.35308      4.1 1.030e+04 7.634e-09
 30.36556      5.7 1.036e+04 8.215e-09
 30.38544      6.9 1.041e+04 8.361e-09
 30.40531      8.6 1.050e+04 8.194e-09
 30.42518      9.5 1.050e+04 8.219e-09
 30.44506     11.4 1.059e+04 7.716e-09
 30.45816     12.4 1.074e+04 7.900e-09
 30.46809     12.6 1.062e+04 7.473e-09
 30.49484     14.5 1.069e+04 7.254e-09
 30.53468     17.1 1.110e+04 9.315e-09
 30.57443     20.1 1.150e+04 1.175e-08
 30.60037     21.9 1.188e+04 1.298e-08
 30.61021     22.0 1.180e+04 1.233e-08
 30.62392     23.0 1.193e+04 1.260e-08
 30.64379     24.4 1.200e+04 1.276e-08
 30.66366     25.5 1.235e+04 1.378e-08
 30.67824     26.3 1.276e+04 1.546e-08
 30.68818     25.8 1.355e+04 2.311e-08
 30.70341     26.1 1.429e+04 3.264e-08
 30.72328     26.2 1.518e+04 5.105e-08
 30.74316     26.6 1.594e+04 7.607e-08
 30.76303     27.2 1.642e+04 9.679e-08
 30.78290     27.6 1.642e+04 9.345e-08
 30.79326     27.7 1.609e+04 8.192e-08
 30.80319     27.6 1.590e+04 6.041e-08
 30.82265     27.3 1.529e+04 4.410e-08
 30.84252     27.2 1.454e+04 3.370e-08
 30.86240     27.4 1.385e+04 2.713e-08
 30.88227     28.0 1.348e+04 2.390e-08
 30.89833     28.6 1.327e+04 2.242e-08
 30.90827     28.2 1.318e+04 1.829e-08
 30.92202     28.9 1.323e+04 2.027e-08
 30.94189     29.7 1.334e+04 2.262e-08
 30.95619     30.4 1.340e+04 2.481e-08
 30.96613     30.1 1.359e+04 2.790e-08
 30.98164     31.0 1.360e+04 2.964e-08
 31.00151     31.8 1.353e+04 2.994e-08
 31.01334     32.7 1.342e+04 2.887e-08
 31.02328     32.2 1.344e+04 2.972e-08
 31.04126     33.0 1.332e+04 2.878e-08
 31.06113     33.8 1.306e+04 2.610e-08
 31.08100     34.6 1.271e+04 2.197e-08
 31.10088     35.2 1.230e+04 1.774e-08
 31.11842     35.7 1.193e+04 1.464e-08
 31.12836     35.4 1.272e+04 2.059e-08
 31.14062     35.9 1.237e+04 1.686e-08
 31.16050     36.0 1.200e+04 1.373e-08
 31.18037     35.8 1.172e+04 1.210e-08
 31.20024     35.3 1.172e+04 1.217e-08
 31.22011     34.6 1.189e+04 1.315e-08
 31.23343     34.0 1.205e+04 1.494e-08
 31.24337     32.8 1.280e+04 2.146e-08
 31.25986     32.9 1.269e+04 2.330e-08
 31.27973     33.6 1.240e+04 2.203e-08
 31.29961     34.0 1.201e+04 1.834e-08
 31.31211     34.7 1.141e+04 1.259e-08
 31.32205     35.9 1.152e+04 1.341e-08
 31.33851     35.9 1.119e+04 1.056e-08
 31.34844     35.4 1.124e+04 1.018e-08
 31.35923     35.6 1.050e+04 6.092e-09
 31.37910     35.5 1.023e+04 4.952e-09
 31.39897     35.9 9.736e+03 3.542e-09
 31.41885     35.9 9.588e+03 2.977e-09
 31.43872     36.3 9.611e+03 2.878e-09
 31.45352     36.4 9.852e+03 3.068e-09
 31.46346     31.4 1.295e+04 8.015e-09
 31.47847     30.9 1.425e+04 1.728e-08
 31.49834     31.3 1.517e+04 3.521e-08
 31.51821     31.8 1.578e+04 6.094e-08
 31.53809     31.7 1.619e+04 9.143e-08
 31.55796     30.8 1.700e+04 1.333e-07
 31.56848     29.3 1.766e+04 2.135e-07
 31.57842     29.5 1.708e+04 1.543e-07
 31.59771     28.3 1.733e+04 1.767e-07
 31.61758     27.1 1.716e+04 1.496e-07
 31.63745     25.7 1.644e+04 1.002e-07
 31.65733     24.2 1.546e+04 6.607e-08
 31.66804     23.3 1.455e+04 4.746e-08
 31.67438     22.5 1.457e+04 4.678e-08
 31.68354     22.5 1.311e+04 3.320e-08
 31.69707     23.1 1.307e+04 3.251e-08
 31.71695     23.9 1.305e+04 3.018e-08
 31.73682     24.6 1.295e+04 2.683e-08
 31.75669     25.3 1.292e+04 2.513e-08
 31.77657     26.0 1.299e+04 2.529e-08
 31.78862     26.7 1.304e+04 2.549e-08
 31.79856     27.2 1.274e+04 2.358e-08
 31.81631     27.9 1.298e+04 2.547e-08
 31.83619     28.4 1.332e+04 2.872e-08
 31.85606     28.7 1.370e+04 3.333e-08
 31.87593     29.0 1.412e+04 3.895e-08
 31.89369     29.3 1.433e+04 4.212e-08
 31.90363     29.8 1.376e+04 3.425e-08
 31.91568     30.4 1.366e+04 3.104e-08
 31.93555     30.7 1.338e+04 2.319e-08
 31.95543     30.4 1.303e+04 1.582e-08
 31.97530     29.5 1.241e+04 1.101e-08
 31.99517     28.7 1.186e+04 8.583e-09
 32.00871     28.2 1.132e+04 6.587e-09
 32.01762     28.8 1.144e+04 6.098e-09
 32.02396     29.5 1.153e+04 6.242e-09
 32.04495     27.7 1.097e+04 5.134e-09
 32.07476     26.3 1.106e+04 5.491e-09
 32.09454     23.5 1.157e+04 6.989e-09
 32.11378     19.4 1.292e+04 1.516e-08
 32.12372     22.5 1.193e+04 1.029e-08
 32.13429     20.1 1.305e+04 2.019e-08
 32.15416     18.0 1.455e+04 2.861e-08
 32.17403     14.5 1.571e+04 3.075e-08
 32.19390     10.6 1.499e+04 2.911e-08
 32.21378      8.6 1.337e+04 2.517e-08
 32.22879      8.4 1.231e+04 1.611e-08
 32.23873      9.4 1.285e+04 2.341e-08
 32.25352     10.0 1.204e+04 1.519e-08
 32.27340     10.2 1.177e+04 6.532e-09
 32.29327      9.0 1.106e+04 3.119e-09
 32.31314      8.0 1.035e+04 1.863e-09
 32.33302      7.7 1.013e+04 1.566e-09
 32.36010      9.3 9.947e+03 1.971e-09
 32.37998      9.7 1.001e+04 2.155e-09
 32.39264     11.0 1.014e+04 2.515e-09
 32.41251     11.3 1.026e+04 2.636e-09
 32.43238     11.9 1.014e+04 3.121e-09
 32.44888     12.7 1.020e+04 3.600e-09
 32.45882     13.3 1.028e+04 3.522e-09
 32.47213     13.8 1.036e+04 3.928e-09
 32.49200     14.1 1.045e+04 4.281e-09
 32.51188     14.3 1.049e+04 4.714e-09
 32.53175     14.5 1.053e+04 5.027e-09
 32.55162     14.7 1.052e+04 5.270e-09
 32.56389     14.8 1.049e+04 5.206e-09
 32.57383     15.3 1.052e+04 5.522e-09
 32.59137     15.5 1.047e+04 5.445e-09
 32.61124     15.7 1.037e+04 5.180e-09
 32.63112     15.7 1.039e+04 4.887e-09
 32.65099     15.7 1.051e+04 4.722e-09
 32.66897     14.5 1.088e+04 5.860e-09
 32.67891     14.8 1.089e+04 5.851e-09
 32.69074     13.1 1.157e+04 7.531e-09
 32.71061     12.2 1.165e+04 1.337e-08
 32.72586     12.0 1.218e+04 1.685e-08
 32.73580     12.9 1.220e+04 1.636e-08
 32.75036     13.0 1.248e+04 2.063e-08
 32.77023     12.9 1.241e+04 1.955e-08
 32.78398     12.0 1.255e+04 1.264e-08
 32.79392     12.5 1.241e+04 1.164e-08
 32.80998      9.7 1.198e+04 9.074e-09
 32.82985      7.1 1.166e+04 7.962e-09
 32.84972      5.5 1.146e+04 8.811e-09
 32.86960      4.5 1.140e+04 9.204e-09
 32.88906      4.1 1.138e+04 9.018e-09
 32.89899      4.4 1.162e+04 1.102e-08
 32.90934      3.4 1.124e+04 7.197e-09
 32.92922      3.1 1.097e+04 5.605e-09
 32.94909      1.1 1.050e+04 2.810e-09
 32.96896      0.9 1.044e+04 2.485e-09
 32.99887     -1.5 1.010e+04 1.714e-09
 33.03871     -2.6 9.998e+03 1.552e-09
 33.07204     -3.5 1.015e+04 1.897e-09
 33.09192     -1.5 1.018e+04 1.478e-09
 33.10934     -3.2 1.044e+04 1.764e-09
 33.12921     -3.3 1.045e+04 1.747e-09
 33.15795     -4.8 1.057e+04 2.339e-09
 33.19770     -5.5 1.071e+04 2.870e-09
 33.23745     -6.3 1.061e+04 2.880e-09
 33.27719     -6.5 1.023e+04 2.169e-09
 33.31694     -6.5 9.924e+03 1.561e-09
 33.33937     -6.1 9.712e+03 1.189e-09
 33.35924     -5.9 9.835e+03 1.233e-09
 33.39643     -5.2 9.794e+03 1.182e-09
 33.43618     -4.6 9.746e+03 1.327e-09
 33.47593     -3.8 9.719e+03 1.696e-09
 33.51567     -2.7 9.723e+03 2.102e-09
 33.54952     -1.6 9.725e+03 2.267e-09
 33.56939     -2.0 9.957e+03 2.606e-09
 33.59517     -1.2 9.939e+03 2.264e-09
 33.63491     -0.7 1.001e+04 2.052e-09
 33.67466     -0.5 1.016e+04 2.411e-09
 33.71440      0.1 1.034e+04 3.452e-09
 33.75415      1.4 1.052e+04 4.180e-09
 33.77944      1.8 1.073e+04 3.710e-09
 33.78921      0.8 1.093e+04 3.630e-09
 33.80366      0.4 1.098e+04 3.562e-09
 33.82361      0.8 1.089e+04 2.997e-09
 33.84339      0.9 1.099e+04 3.001e-09
 33.86326      0.3 1.140e+04 3.450e-09
 33.88313     -0.2 1.161e+04 3.705e-09
 33.91304     -2.5 1.222e+04 7.105e-09
 33.95288     -3.4 1.280e+04 1.374e-08
 33.98260     -3.8 1.281e+04 1.367e-08
 33.99943     -4.2 1.275e+04 1.264e-08
 34.00937     -4.7 1.258e+04 9.577e-09
 34.02225     -6.2 1.194e+04 5.873e-09
 34.04212     -6.2 1.178e+04 5.276e-09
 34.06199     -7.4 1.135e+04 3.986e-09
 34.08186     -7.0 1.127e+04 3.652e-09
 34.11177     -7.6 1.079e+04 2.552e-09
 34.15162     -5.8 1.021e+04 1.511e-09
 34.19136     -4.1 1.010e+04 9.515e-10
 34.21972     -2.5 9.941e+03 8.184e-10
 34.23959     -2.4 9.827e+03 6.030e-10
 34.27086     -0.0 9.882e+03 5.811e-10
 34.31060      2.3 9.885e+03 7.035e-10
 34.35035      5.3 9.971e+03 9.026e-10
 34.39010      8.2 1.004e+04 1.027e-09
 34.42984     11.1 1.019e+04 1.073e-09
 34.46959     13.6 1.026e+04 9.974e-10
 34.49573     16.3 1.040e+04 1.502e-09
 34.51560     15.8 1.042e+04 1.803e-09
 34.54908     17.5 1.068e+04 2.620e-09
 34.57879     18.8 1.085e+04 3.247e-09
 34.59857     19.9 1.105e+04 3.922e-09
 34.61844     20.8 1.126e+04 4.628e-09
 34.63832     21.5 1.146e+04 5.043e-09
 34.65819     22.0 1.170e+04 5.226e-09
 34.66963     22.1 1.181e+04 5.282e-09
 34.67957     22.1 1.179e+04 5.396e-09
 34.69794     22.2 1.178e+04 5.391e-09
 34.71781     22.0 1.184e+04 5.644e-09
 34.73768     21.3 1.209e+04 6.734e-09
 34.75756     20.7 1.234e+04 9.415e-09
 34.77471     20.4 1.266e+04 1.436e-08
 34.78464     19.9 1.272e+04 1.470e-08
 34.79730     20.3 1.304e+04 2.084e-08
 34.81718     20.8 1.340e+04 2.468e-08
 34.83705     20.8 1.348e+04 2.433e-08
 34.85146     20.4 1.346e+04 2.278e-08
 34.86139     20.5 1.348e+04 2.225e-08
 34.87680     19.4 1.358e+04 2.154e-08
 34.88972     18.1 1.375e+04 2.282e-08
 34.89966     16.5 1.412e+04 3.150e-08
 34.91654     16.0 1.420e+04 3.546e-08
 34.93642     16.1 1.396e+04 3.189e-08
 34.95629     16.2 1.331e+04 2.277e-08
 34.97616     16.1 1.256e+04 1.406e-08
 34.99480     15.5 1.192e+04 8.993e-09
 35.00473     15.2 1.207e+04 9.825e-09
 35.01591     14.8 1.154e+04 6.706e-09
 35.03578     14.3 1.131e+04 5.276e-09
 35.05565     13.9 1.098e+04 5.031e-09
 35.07553     13.8 1.093e+04 5.112e-09
 35.09540     13.1 1.105e+04 5.978e-09
 35.10981     12.4 1.130e+04 7.467e-09
 35.11974     12.1 1.175e+04 9.863e-09
 35.13515     11.2 1.202e+04 1.386e-08
 35.15502     11.1 1.226e+04 1.771e-08
 35.17489     10.8 1.222e+04 1.842e-08
 35.19477     11.3 1.187e+04 1.617e-08
 35.20738     11.4 1.140e+04 1.168e-08
 35.21732     11.2 1.145e+04 1.186e-08
 35.22482     11.5 1.064e+04 8.345e-09
 35.23476     11.3 1.072e+04 8.034e-09
 35.25439     11.5 1.030e+04 4.778e-09
 35.27426     11.2 1.002e+04 3.649e-09
 35.29413     11.6 9.679e+03 2.776e-09
 35.31401     12.1 9.560e+03 2.518e-09
 35.32999     13.2 9.431e+03 2.337e-09
 35.33993     12.6 9.561e+03 2.723e-09
 35.35375     13.1 9.515e+03 2.717e-09
 35.37363     14.6 9.455e+03 2.695e-09
 35.39350     15.1 9.496e+03 2.723e-09
 35.41337     16.4 9.455e+03 2.834e-09
 35.43325     16.9 9.517e+03 2.960e-09
 35.44491     17.9 9.571e+03 3.290e-09
 35.45484     17.9 9.687e+03 3.663e-09
 35.47299     18.9 9.699e+03 3.878e-09
 35.49287     20.0 9.800e+03 4.248e-09
 35.51274     20.9 9.960e+03 4.719e-09
 35.53261     21.9 1.007e+04 5.195e-09
 35.54998     23.0 1.021e+04 5.724e-09
 35.55992     22.9 1.038e+04 6.422e-09
 35.56330     23.9 1.058e+04 7.355e-09
 35.57324     24.3 1.053e+04 6.634e-09
 35.59223     25.3 1.074e+04 7.842e-09
 35.61211     26.4 1.105e+04 9.443e-09
 35.63198     27.4 1.139e+04 1.127e-08
 35.65185     28.3 1.170e+04 1.253e-08
 35.66500     29.1 1.200e+04 1.254e-08
 35.67493     27.7 1.418e+04 3.098e-08
 35.69160     28.2 1.485e+04 3.640e-08
 35.70646     29.5 1.443e+04 2.785e-08
 35.71634     29.8 1.415e+04 2.454e-08
 35.72240     29.6 1.436e+04 2.607e-08
 35.72737     27.7 1.729e+04 4.899e-08
 35.73620     24.8 2.026e+04 9.562e-08
 35.74613     19.7 2.221e+04 4.264e-07
 35.75358     14.2 1.992e+04 1.852e-06
 35.75852     13.0 1.778e+04 5.492e-06
 35.76349     13.0 1.626e+04 1.523e-05
 35.76846     13.7 1.587e+04 2.340e-05
 35.77343     14.6 1.595e+04 2.237e-05
 35.77738     14.5 1.604e+04 2.092e-05
 35.77986     13.4 1.701e+04 6.699e-06
 35.78588      9.6 1.924e+04 2.047e-06
 35.79584     -2.2 2.591e+04 4.569e-07
 35.80577    -10.1 2.464e+04 2.758e-07
 35.81571    -12.3 2.522e+04 1.250e-07
 35.83066    -33.0 2.092e+04 7.980e-09
 35.85059    -39.9 1.147e+04 6.739e-09
 35.87046    -39.9 1.160e+04 7.860e-09
 35.88508    -39.7 1.166e+04 8.132e-09
 35.89502    -38.8 1.143e+04 7.087e-09
 35.90929    -38.7 1.141e+04 7.199e-09
 35.91922    -40.1 1.160e+04 7.891e-09
 35.93008    -40.0 1.138e+04 7.604e-09
 35.94995    -39.7 1.136e+04 7.212e-09
 35.96982    -39.6 1.127e+04 7.056e-09
 35.98970    -39.2 1.127e+04 7.070e-09
 36.00010    -38.8 1.131e+04 7.359e-09
 36.01003    -38.5 1.103e+04 8.442e-09
 36.02944    -38.1 1.104e+04 8.661e-09
 36.05935    -37.8 1.117e+04 9.738e-09
 36.09920    -37.0 1.062e+04 8.666e-09
 36.13894    -35.4 1.003e+04 5.627e-09
 36.17869    -34.0 9.444e+03 3.317e-09
 36.21044    -32.2 9.114e+03 2.324e-09
 36.23031    -32.6 8.524e+03 1.504e-09
 36.25818    -30.5 8.308e+03 1.137e-09
 36.29793    -28.3 8.102e+03 9.051e-10
 36.33768    -25.9 7.984e+03 7.404e-10
 36.37742    -23.3 7.887e+03 6.134e-10
 36.41717    -20.5 7.838e+03 5.247e-10
 36.44047    -18.0 7.814e+03 4.773e-10
 36.46034    -18.2 7.808e+03 4.482e-10
 36.49666    -16.2 8.118e+03 4.924e-10
 36.53641    -14.8 8.375e+03 7.430e-10
 36.57615    -13.2 8.651e+03 1.281e-09
 36.61139    -11.7 9.043e+03 2.228e-09
 36.63126    -14.1 9.558e+03 3.411e-09
 36.65062    -13.0 1.039e+04 6.152e-09
 36.67049    -15.2 1.136e+04 1.013e-08
 36.69539    -14.9 1.150e+04 1.115e-08
 36.73514    -14.4 1.156e+04 1.216e-08
 36.77489    -14.2 1.156e+04 1.106e-08
 36.81463    -14.3 1.148e+04 8.760e-09
 36.85438    -14.6 1.133e+04 7.755e-09
 36.88064    -15.2 1.132e+04 7.253e-09
 36.90051    -17.4 1.154e+04 9.122e-09
 36.93387    -18.5 1.168e+04 9.930e-09
 36.97362    -19.0 1.186e+04 1.358e-08
 37.01337    -19.5 1.191e+04 1.508e-08
 37.05311    -19.7 1.168e+04 1.288e-08
 37.08283    -21.5 1.116e+04 9.020e-09
 37.10053    -21.9 1.076e+04 7.458e-09
 37.11047    -22.2 1.085e+04 8.321e-09
 37.12247    -22.3 1.048e+04 6.499e-09
 37.14235    -22.2 1.010e+04 5.208e-09
 37.16222    -22.5 9.737e+03 3.888e-09
 37.18209    -22.1 9.381e+03 3.313e-09
 37.20197    -21.5 9.263e+03 2.639e-09
 37.21555    -21.4 9.207e+03 2.589e-09
 37.22548    -21.6 9.190e+03 2.530e-09
 37.25175    -19.8 9.220e+03 2.468e-09
 37.29159    -18.6 9.232e+03 2.379e-09
 37.32082    -17.7 9.240e+03 2.527e-09
 37.33258    -17.5 9.115e+03 1.933e-09
 37.34310    -18.7 8.972e+03 1.861e-09
 37.37109    -17.6 9.334e+03 2.249e-09
 37.40080    -17.3 9.398e+03 2.969e-09
 37.42057    -17.4 9.746e+03 3.766e-09
 37.43563    -17.0 9.778e+03 5.545e-09
 37.44557    -17.3 9.700e+03 5.267e-09
 37.46032    -16.8 1.022e+04 6.616e-09
 37.48019    -16.2 1.044e+04 8.829e-09
 37.50007    -15.7 1.073e+04 9.904e-09
 37.51994    -15.7 1.096e+04 1.015e-08
 37.53981    -15.9 1.102e+04 1.024e-08
 37.55065    -16.3 1.100e+04 1.014e-08
 37.56058    -16.8 1.105e+04 1.023e-08
 37.57956    -17.1 1.108e+04 1.022e-08
 37.59943    -17.4 1.112e+04 1.042e-08
 37.61931    -17.5 1.122e+04 1.054e-08
 37.63918    -17.8 1.126e+04 1.074e-08
 37.65572    -18.0 1.132e+04 1.085e-08
 37.66566    -18.7 1.131e+04 1.090e-08
 37.67893    -18.9 1.114e+04 1.082e-08
 37.69880    -18.9 1.087e+04 9.825e-09
 37.71867    -18.6 1.081e+04 7.718e-09
 37.73855    -18.5 1.063e+04 7.322e-09
 37.75842    -18.1 1.046e+04 5.165e-09
 37.77073    -18.0 1.038e+04 5.071e-09
 37.78067    -18.9 1.016e+04 3.888e-09
 37.80820    -18.6 9.995e+03 2.769e-09
 37.84804    -18.7 9.805e+03 2.154e-09
 37.88779    -18.3 9.655e+03 1.798e-09
 37.92754    -18.0 9.705e+03 1.599e-09
 37.96728    -18.0 9.755e+03 1.721e-09
 37.99102    -18.2 9.879e+03 2.355e-09
 38.01089    -18.7 9.950e+03 2.256e-09
 38.03507    -18.8 1.033e+04 2.838e-09
 38.05495    -20.2 1.060e+04 3.769e-09
 38.08652    -20.9 1.083e+04 3.271e-09
 38.12627    -21.6 1.072e+04 2.609e-09
 38.16602    -22.2 1.063e+04 2.147e-09
 38.20117    -22.6 1.054e+04 1.962e-09
 38.22104    -22.3 1.043e+04 1.828e-09
 38.24551    -22.3 1.033e+04 1.742e-09
 38.28526    -22.1 1.014e+04 1.749e-09
 38.32500    -21.1 9.954e+03 1.621e-09
 38.36475    -19.5 9.840e+03 1.243e-09
 38.40450    -18.2 9.925e+03 8.195e-10
 38.43119    -17.7 9.926e+03 6.290e-10
 38.45106    -16.6 9.961e+03 6.240e-10
 38.48399    -15.4 9.805e+03 6.232e-10
 38.52373    -14.0 9.788e+03 6.891e-10
 38.56348    -12.6 9.998e+03 7.955e-10
 38.60323    -11.3 1.013e+04 1.010e-09
 38.64134    -10.0 1.014e+04 1.290e-09
 38.66122     -9.5 1.021e+04 1.473e-09
 38.68272     -8.3 1.023e+04 1.723e-09
 38.72247     -7.2 1.030e+04 1.821e-09
 38.74692     -6.4 1.035e+04 1.932e-09
 38.76679     -7.4 1.036e+04 1.922e-09
 38.80196     -6.8 1.048e+04 2.128e-09
 38.84171     -6.4 1.065e+04 2.587e-09
 38.87137     -6.0 1.059e+04 2.911e-09
 38.89124     -5.6 1.066e+04 3.091e-09
 38.92120     -5.0 1.053e+04 2.880e-09
 38.96095     -4.5 1.036e+04 2.327e-09
 39.00069     -4.1 1.024e+04 2.025e-09
 39.04044     -3.5 1.008e+04 1.825e-09
 39.08019     -2.8 9.959e+03 1.579e-09
 39.10139     -2.1 9.845e+03 1.394e-09
 39.12126     -1.4 9.903e+03 1.133e-09
 39.15968     -0.7 9.867e+03 1.226e-09
 39.19943      0.2 9.833e+03 1.520e-09
 39.23917      1.2 9.854e+03 1.882e-09
 39.27892      2.2 9.963e+03 2.154e-09
 39.31154      3.0 1.012e+04 2.352e-09
 39.33142      4.3 9.969e+03 1.832e-09
 39.35841      5.0 1.008e+04 2.034e-09
 39.39816      5.5 1.020e+04 2.341e-09
 39.43790      5.8 1.027e+04 2.794e-09
 39.45876      5.8 1.034e+04 3.352e-09
 39.47863      6.1 1.019e+04 2.938e-09
 39.51740      6.7 1.001e+04 2.822e-09
 39.54157      7.7 9.729e+03 2.167e-09
 39.56144      9.3 9.908e+03 2.559e-09
 39.59689      9.7 9.773e+03 1.814e-09
 39.63664      9.6 9.797e+03 1.380e-09
 39.67638      9.3 9.832e+03 1.444e-09
 39.71613      9.3 9.881e+03 1.666e-09
 39.75172      9.6 9.943e+03 1.815e-09
 39.77159     11.3 1.010e+04 1.852e-09
 39.79562     11.6 1.015e+04 1.862e-09
 39.83537     11.7 1.027e+04 2.011e-09
 39.87512     11.5 1.033e+04 2.790e-09
 39.91486     11.5 1.046e+04 4.159e-09
 39.95461     11.7 1.059e+04 4.729e-09
 39.98174     11.6 1.073e+04 4.612e-09
 40.00162     11.6 1.123e+04 8.120e-09
 40.03410     11.6 1.109e+04 7.398e-09
 40.07385     11.7 1.094e+04 6.389e-09
 40.11360     11.9 1.082e+04 5.474e-09
 40.15073     12.1 1.074e+04 5.186e-09
 40.17060     10.5 1.098e+04 5.617e-09
 40.19189      9.9 1.115e+04 6.162e-09
 40.21177      9.3 1.111e+04 5.838e-09
 40.23284      8.6 1.130e+04 7.381e-09
 40.26255      9.1 1.137e+04 7.962e-09
 40.28232      8.9 1.134e+04 7.602e-09
 40.30220      9.1 1.121e+04 6.340e-09
 40.31665      8.8 1.120e+04 5.108e-09
 40.32658      8.6 1.117e+04 4.732e-09
 40.34194      8.3 1.108e+04 3.488e-09
 40.36182      7.9 1.099e+04 2.994e-09
 40.39172      7.4 1.082e+04 2.473e-09
 40.42192      7.4 1.065e+04 2.553e-09
 40.44179      7.2 1.069e+04 2.807e-09
 40.47131      7.2 1.063e+04 2.973e-09
 40.51106      7.8 1.045e+04 2.614e-09
 40.55081      8.6 1.024e+04 1.664e-09
 40.59055      9.0 1.026e+04 1.123e-09
 40.63030      9.4 1.039e+04 1.182e-09
 40.65194      8.9 1.064e+04 1.759e-09
 40.67181      8.8 1.077e+04 2.653e-09
 40.69976      8.4 1.127e+04 3.661e-09
 40.71953      7.5 1.167e+04 5.515e-09
 40.73941      5.8 1.242e+04 9.464e-09
 40.75682      3.9 1.327e+04 1.881e-08
 40.76676      3.9 1.337e+04 2.062e-08
 40.77915      2.4 1.349e+04 2.533e-08
 40.79903      2.1 1.303e+04 2.152e-08
 40.81890      1.0 1.263e+04 1.395e-08
 40.83877     -1.7 1.224e+04 9.165e-09
 40.85865     -3.9 1.151e+04 7.307e-09
 40.87183     -4.7 1.111e+04 6.809e-09
 40.87557     -4.5 1.165e+04 9.471e-09
 40.88225     -4.3 1.148e+04 8.296e-09
 40.90843     -4.2 1.120e+04 7.671e-09
 40.94827     -4.4 1.075e+04 5.562e-09
 40.98802     -5.2 1.043e+04 4.465e-09
 41.02777     -5.7 1.011e+04 4.240e-09
 41.06751     -5.7 9.776e+03 3.814e-09
 41.09212     -5.7 9.524e+03 2.865e-09
 41.11199     -5.2 9.441e+03 2.440e-09
 41.14701     -5.7 9.292e+03 1.915e-09
 41.18675     -5.9 9.108e+03 1.927e-09
 41.22650     -6.1 9.048e+03 2.246e-09
 41.26624     -6.4 9.222e+03 2.989e-09
 41.30227     -6.6 9.427e+03 3.933e-09
 41.32214     -5.4 9.485e+03 3.644e-09
 41.34574     -5.3 9.416e+03 3.810e-09
 41.38548     -4.7 9.187e+03 3.357e-09
 41.42523     -4.1 8.843e+03 2.613e-09
 41.46498     -3.4 8.593e+03 2.085e-09
 41.50472     -2.6 8.504e+03 1.685e-09
 41.53229     -2.2 8.465e+03 1.395e-09
 41.55217     -1.2 8.636e+03 2.065e-09
 41.57442     -0.7 8.637e+03 1.872e-09
 41.59429     -0.7 8.762e+03 2.015e-09
 41.62396     -0.3 8.764e+03 1.996e-09
 41.66371      0.7 8.674e+03 1.779e-09
 41.70346      1.6 8.643e+03 1.315e-09
 41.74244      2.0 8.539e+03 1.033e-09
 41.76232      3.2 8.727e+03 1.532e-09
 41.78295      3.5 8.801e+03 1.246e-09
 41.82270      3.7 8.894e+03 1.257e-09
 41.86244      4.0 8.807e+03 1.522e-09
 41.90219      5.0 8.754e+03 1.825e-09
 41.94194      6.2 8.794e+03 1.738e-09
 41.97247      7.1 8.906e+03 1.537e-09
 41.99234      7.8 8.896e+03 1.538e-09
 42.02143      8.6 8.988e+03 1.453e-09
 42.06118      9.5 9.048e+03 1.457e-09
 42.10092     10.7 9.178e+03 1.523e-09
 42.14067     11.9 9.335e+03 1.626e-09
 42.18042     13.3 9.498e+03 1.707e-09
 42.20249     14.7 9.710e+03 1.803e-09
 42.22237     15.4 9.576e+03 1.631e-09
 42.25991     17.0 9.772e+03 1.889e-09
 42.28626     18.6 1.025e+04 2.257e-09
 42.30613     18.3 1.026e+04 2.271e-09
 42.32937     19.2 1.048e+04 2.469e-09
 42.34914     20.0 1.067e+04 2.633e-09
 42.36902     20.3 1.097e+04 2.998e-09
 42.38889     20.8 1.126e+04 3.689e-09
 42.40876     21.1 1.145e+04 4.838e-09
 42.42238     21.3 1.163e+04 6.393e-09
 42.43232     22.2 1.164e+04 4.248e-09
 42.44851     22.5 1.179e+04 5.311e-09
 42.46838     22.2 1.258e+04 7.324e-09
 42.48826     20.9 1.392e+04 1.328e-08
 42.50813     19.4 1.505e+04 3.037e-08
 42.52746     18.2 1.610e+04 6.985e-08
 42.53740     20.4 1.510e+04 2.832e-08
 42.54788     19.2 1.607e+04 6.734e-08
 42.56775     18.3 1.711e+04 1.253e-07
 42.58762     17.5 1.792e+04 1.809e-07
 42.60749     16.0 1.847e+04 1.758e-07
 42.62737     14.2 1.824e+04 1.141e-07
 42.64199     11.4 1.625e+04 5.684e-08
 42.64715     11.2 1.548e+04 4.931e-08
 42.65241     14.1 1.800e+04 1.131e-07
 42.66711     12.7 1.586e+04 5.433e-08
 42.68699     11.1 1.374e+04 2.834e-08
 42.70686      9.8 1.242e+04 1.608e-08
 42.72673      8.6 1.160e+04 9.548e-09
 42.74661      7.7 1.118e+04 7.076e-09
 42.75748      7.2 1.098e+04 6.505e-09
 42.76742      8.0 1.115e+04 7.154e-09
 42.78635      7.4 1.109e+04 6.977e-09
 42.80623      5.8 1.146e+04 7.734e-09
 42.82610      3.6 1.223e+04 1.074e-08
 42.84597      1.2 1.321e+04 1.648e-08
 42.86256      0.1 1.344e+04 2.317e-08
 42.87250      1.8 1.273e+04 1.462e-08
 42.88572      0.5 1.262e+04 1.473e-08
 42.90559     -1.0 1.262e+04 1.125e-08
 42.92547     -4.0 1.250e+04 8.968e-09
 42.94534     -6.1 1.196e+04 9.479e-09
 42.96521     -6.7 1.177e+04 1.163e-08
 42.97757     -6.2 1.200e+04 1.362e-08
 42.98751     -4.8 1.170e+04 1.058e-08
 42.99791     -4.2 1.174e+04 1.225e-08
 43.00785     -3.9 1.150e+04 1.061e-08
 43.02483     -3.1 1.166e+04 1.084e-08
 43.04471     -2.6 1.198e+04 9.000e-09
 43.06458     -3.0 1.198e+04 7.828e-09
 43.08265     -3.7 1.199e+04 7.168e-09
 43.09258     -1.6 1.199e+04 7.046e-09
 43.10433     -2.5 1.206e+04 7.508e-09
 43.12420     -3.3 1.201e+04 8.771e-09
 43.14407     -3.5 1.203e+04 9.959e-09
 43.16395     -3.6 1.210e+04 9.840e-09
 43.18382     -4.0 1.209e+04 8.389e-09
 43.19766     -4.9 1.190e+04 7.038e-09
 43.20760     -3.1 1.210e+04 7.464e-09
 43.22357     -4.2 1.167e+04 6.447e-09
 43.24344     -4.9 1.146e+04 5.839e-09
 43.26331     -5.4 1.135e+04 5.801e-09
 43.29290     -5.3 1.162e+04 7.229e-09
 43.31277     -4.8 1.141e+04 6.038e-09
 43.33297     -3.9 1.177e+04 7.249e-09
 43.37281     -5.3 1.231e+04 1.068e-08
 43.40252     -5.8 1.269e+04 1.522e-08
 43.41775     -6.7 1.298e+04 1.757e-08
 43.42768     -6.2 1.287e+04 1.692e-08
 43.44217     -6.8 1.331e+04 2.164e-08
 43.46205     -7.3 1.349e+04 2.432e-08
 43.48192     -7.4 1.343e+04 2.121e-08
 43.50179     -7.7 1.315e+04 1.346e-08
 43.52167     -8.3 1.274e+04 8.472e-09
 43.53276     -9.0 1.247e+04 6.317e-09
 43.54270     -8.4 1.263e+04 7.398e-09
 43.57145     -8.8 1.218e+04 5.789e-09
 43.61129     -8.6 1.192e+04 5.113e-09
 43.65104     -7.5 1.184e+04 5.649e-09
 43.69008     -6.1 1.190e+04 6.720e-09
 43.70995     -5.6 1.242e+04 9.553e-09
 43.73053     -4.2 1.237e+04 9.721e-09
 43.75304     -3.0 1.227e+04 9.677e-09
 43.77292     -1.7 1.254e+04 1.124e-08
 43.81002     -0.8 1.224e+04 1.095e-08
 43.84977      0.2 1.198e+04 9.703e-09
 43.88952      1.2 1.174e+04 7.794e-09
 43.92926      1.7 1.146e+04 5.806e-09
 43.96319      1.7 1.131e+04 4.715e-09
 43.98307      2.6 1.161e+04 6.450e-09
 44.00876      1.8 1.150e+04 8.356e-09
 44.04850      1.2 1.154e+04 9.856e-09
 44.08825     -0.2 1.120e+04 9.061e-09
 44.12799     -1.3 1.080e+04 7.722e-09
 44.16774     -1.6 1.082e+04 6.044e-09
 44.19322     -1.7 1.066e+04 4.701e-09
 44.21309     -1.5 1.000e+04 3.425e-09
 44.24723     -1.0 1.018e+04 3.989e-09
 44.28698     -0.1 1.043e+04 4.578e-09
 44.32673      0.9 1.062e+04 5.274e-09
 44.36647      1.6 1.078e+04 6.204e-09
 44.39619      2.3 1.114e+04 7.247e-09
 44.41166      2.2 1.118e+04 7.395e-09
 44.41884      3.1 1.119e+04 6.995e-09
 44.42324      3.3 1.122e+04 8.134e-09
 44.44597      3.1 1.147e+04 9.859e-09
 44.47568      3.2 1.141e+04 1.062e-08
 44.49546      3.2 1.161e+04 1.128e-08
 44.51533      2.8 1.189e+04 1.233e-08
 44.52812      2.2 1.196e+04 1.403e-08
 44.53806      1.2 1.198e+04 1.448e-08
 44.55507      0.8 1.245e+04 1.707e-08
 44.57495      0.7 1.290e+04 2.118e-08
 44.59482      0.6 1.325e+04 2.480e-08
 44.61469      0.6 1.371e+04 2.931e-08
 44.63320      0.5 1.429e+04 3.614e-08
 44.64313      0.2 1.386e+04 3.184e-08
 44.65444     -0.3 1.475e+04 4.031e-08
 44.67431     -2.4 1.673e+04 6.794e-08
 44.68917     -4.9 1.818e+04 1.347e-07
 44.69557     -5.9 1.859e+04 2.009e-07
 44.70054     -5.4 1.832e+04 1.572e-07
 44.70899     -6.2 1.885e+04 2.622e-07
 44.71893     -7.6 1.882e+04 4.631e-07
 44.72887     -7.9 1.888e+04 6.720e-07
 44.73880     -8.8 1.897e+04 7.335e-07
 44.74811     -9.9 1.901e+04 6.373e-07
 44.75308     -9.3 1.893e+04 6.183e-07
 44.75868    -10.2 1.882e+04 5.482e-07
 44.76748    -11.0 1.891e+04 4.315e-07
 44.77245    -12.0 1.895e+04 5.926e-07
 44.77855    -13.5 1.918e+04 5.027e-07
 44.78849    -15.6 1.958e+04 3.185e-07
 44.79842    -18.9 1.980e+04 1.575e-07
 44.80562    -23.5 1.804e+04 8.969e-08
 44.81059    -21.5 1.956e+04 1.316e-07
 44.81830    -24.9 1.782e+04 8.996e-08
 44.83325    -28.1 1.651e+04 7.015e-08
 44.85317    -29.6 1.566e+04 5.421e-08
 44.86322    -30.0 1.490e+04 3.646e-08
 44.87316    -29.7 1.525e+04 4.038e-08
 44.89292    -30.4 1.425e+04 2.206e-08
 44.91279    -31.6 1.347e+04 1.363e-08
 44.93267    -32.3 1.297e+04 1.126e-08
 44.95254    -32.3 1.280e+04 1.107e-08
 44.96830    -32.0 1.275e+04 1.135e-08
 44.97823    -32.0 1.270e+04 1.066e-08
 44.99229    -31.7 1.266e+04 1.088e-08
 45.01216    -31.5 1.259e+04 1.067e-08
 45.03203    -31.3 1.245e+04 1.013e-08
 45.05191    -31.1 1.226e+04 9.195e-09
 45.07178    -30.7 1.201e+04 7.962e-09
 45.08331    -30.2 1.175e+04 6.596e-09
 45.09325    -30.0 1.175e+04 6.518e-09
 45.11153    -29.4 1.150e+04 5.163e-09
 45.12350    -28.8 1.128e+04 4.007e-09
 45.13344    -28.8 1.127e+04 3.967e-09
 45.15127    -28.1 1.108e+04 3.103e-09
 45.17115    -27.3 1.101e+04 2.526e-09
 45.20105    -26.5 1.100e+04 2.167e-09
 45.24090    -24.9 1.089e+04 2.028e-09
 45.28064    -23.1 1.091e+04 2.167e-09
 45.30349    -21.5 1.103e+04 2.395e-09
 45.32337    -20.4 1.096e+04 2.226e-09
 45.35010    -19.7 1.092e+04 3.075e-09
 45.36988    -19.4 1.100e+04 3.992e-09
 45.38975    -19.0 1.114e+04 5.117e-09
 45.40847    -18.6 1.133e+04 6.317e-09
 45.41841    -18.3 1.172e+04 7.939e-09
 45.42950    -18.5 1.215e+04 1.129e-08
 45.44937    -18.5 1.252e+04 1.427e-08
 45.46924    -18.6 1.264e+04 1.521e-08
 45.47942    -18.9 1.260e+04 1.488e-08
 45.48936    -19.0 1.244e+04 1.383e-08
 45.50899    -19.1 1.215e+04 1.188e-08
 45.52348    -19.2 1.196e+04 1.076e-08
 45.53342    -19.4 1.253e+04 1.422e-08
 45.54874    -19.6 1.232e+04 1.275e-08
 45.56861    -19.5 1.232e+04 1.257e-08
 45.58848    -19.2 1.267e+04 1.440e-08
 45.60836    -19.2 1.319e+04 1.904e-08
 45.62823    -19.1 1.383e+04 2.691e-08
 45.63850    -19.0 1.456e+04 3.906e-08
 45.64843    -19.0 1.444e+04 3.385e-08
 45.66798    -18.5 1.512e+04 4.783e-08
 45.68785    -17.9 1.576e+04 6.328e-08
 45.70772    -17.4 1.609e+04 7.035e-08
 45.72760    -17.6 1.611e+04 6.970e-08
 45.74357    -18.1 1.585e+04 6.244e-08
 45.75351    -18.1 1.534e+04 4.922e-08
 45.76734    -19.4 1.571e+04 5.191e-08
 45.78722    -21.8 1.629e+04 6.325e-08
 45.80103    -23.4 1.682e+04 8.492e-08
 45.80595    -23.7 1.678e+04 7.789e-08
 45.81196    -24.8 1.727e+04 9.284e-08
 45.82190    -26.5 1.773e+04 1.170e-07
 45.83028    -27.5 1.797e+04 1.334e-07
 45.83525    -28.0 1.810e+04 1.451e-07
 45.84177    -28.6 1.810e+04 1.562e-07
 45.85171    -29.2 1.814e+04 1.584e-07
 45.85849    -30.3 1.862e+04 1.558e-07
 45.86346    -34.3 2.027e+04 4.008e-07
 45.87158    -38.7 2.068e+04 7.016e-07
 45.88152    -43.6 2.022e+04 1.268e-06
 45.89145    -47.8 1.921e+04 1.877e-06
 45.90139    -50.3 1.867e+04 2.112e-06
 45.91102    -51.3 1.843e+04 2.068e-06
 45.91599    -51.5 1.827e+04 1.789e-06
 45.92126    -51.8 1.825e+04 1.516e-06
 45.93120    -52.1 1.833e+04 1.240e-06
 45.94114    -52.8 1.853e+04 9.822e-07
 45.95107    -53.8 1.902e+04 6.687e-07
 45.96101    -55.3 2.015e+04 3.204e-07
 45.96853    -56.9 2.225e+04 1.205e-07
 45.97350    -58.0 2.722e+04 3.999e-08
 45.98590    -67.9 2.449e+04 1.245e-08
 46.00582    -72.9 1.756e+04 1.313e-08
 46.02570    -75.8 1.418e+04 1.487e-08
 46.04557    -77.6 1.317e+04 1.741e-08
 46.06544    -79.3 1.330e+04 2.036e-08
 46.07867    -80.9 1.368e+04 2.430e-08
 46.08861    -80.3 1.301e+04 2.074e-08
 46.10519    -81.1 1.350e+04 2.470e-08
 46.12506    -81.6 1.400e+04 2.866e-08
 46.14494    -81.8 1.436e+04 3.167e-08
 46.16481    -81.7 1.461e+04 3.424e-08
 46.18133    -81.4 1.480e+04 3.616e-08
 46.19033    -80.4 1.482e+04 3.869e-08
 46.19368    -79.0 1.411e+04 3.286e-08
 46.20456    -78.7 1.479e+04 3.897e-08
 46.22443    -78.2 1.545e+04 4.918e-08
 46.24430    -77.6 1.620e+04 6.345e-08
 46.26418    -77.0 1.704e+04 8.300e-08
 46.28405    -76.5 1.773e+04 1.041e-07
 46.29876    -76.3 1.812e+04 1.184e-07
 46.30870    -74.9 1.824e+04 1.278e-07
 46.32380    -74.8 1.881e+04 1.674e-07
 46.33865    -74.5 1.889e+04 1.746e-07
 46.34854    -74.1 1.898e+04 1.907e-07
 46.35617    -73.7 1.910e+04 1.955e-07
 46.36114    -73.6 1.956e+04 3.536e-07
 46.36416    -73.5 1.946e+04 4.821e-07
 46.36913    -74.2 1.950e+04 5.602e-07
 46.37835    -73.9 1.923e+04 7.816e-07
 46.38829    -73.0 1.902e+04 1.078e-06
 46.39822    -72.5 1.893e+04 1.424e-06
 46.40816    -72.9 1.879e+04 1.686e-06
 46.41367    -73.6 1.865e+04 1.844e-06
 46.41864    -73.4 1.745e+04 5.422e-06
 46.42803    -74.1 1.736e+04 6.381e-06
 46.43797    -75.4 1.729e+04 7.542e-06
 46.44791    -76.6 1.714e+04 8.711e-06
 46.45784    -77.4 1.716e+04 9.543e-06
 46.46621    -79.5 1.728e+04 9.325e-06
 46.47118    -81.1 1.736e+04 9.005e-06
 46.47772    -83.3 1.771e+04 6.041e-06
 46.48765    -83.6 1.816e+04 3.268e-06
 46.49759    -82.9 1.856e+04 1.706e-06
 46.50753    -81.4 1.883e+04 9.177e-07
 46.51746    -80.2 1.893e+04 5.398e-07
 46.52372    -79.3 1.889e+04 3.405e-07
 46.52869    -79.7 1.866e+04 2.610e-07
 46.53716    -79.0 1.854e+04 1.938e-07
 46.54212    -78.5 1.872e+04 3.257e-07
 46.54727    -78.1 1.861e+04 2.617e-07
 46.55721    -77.7 1.853e+04 2.216e-07
 46.56715    -77.5 1.843e+04 1.840e-07
 46.57626    -77.4 1.838e+04 1.646e-07
 46.58122    -77.9 1.821e+04 1.550e-07
 46.58702    -78.0 1.815e+04 1.432e-07
 46.59695    -78.1 1.812e+04 1.379e-07
 46.60689    -78.6 1.807e+04 1.292e-07
 46.62185    -79.0 1.824e+04 1.469e-07
 46.63386    -79.3 1.784e+04 1.104e-07
 46.64380    -79.4 1.755e+04 1.092e-07
 46.66164    -79.1 1.686e+04 7.882e-08
 46.68151    -78.1 1.596e+04 5.047e-08
 46.70139    -77.0 1.508e+04 3.137e-08
 46.72126    -75.8 1.439e+04 2.036e-08
 46.73894    -74.6 1.392e+04 1.424e-08
 46.74887    -74.2 1.382e+04 1.777e-08
 46.76101    -72.9 1.352e+04 1.346e-08
 46.78088    -71.5 1.324e+04 1.077e-08
 46.80075    -70.0 1.302e+04 9.340e-09
 46.82063    -68.5 1.296e+04 8.818e-09
 46.84050    -67.1 1.294e+04 8.682e-09
 46.85395    -65.7 1.295e+04 8.699e-09
 46.86388    -65.2 1.313e+04 1.103e-08
 46.88025    -63.9 1.320e+04 1.162e-08
 46.89317    -62.6 1.331e+04 1.246e-08
 46.90311    -62.5 1.388e+04 1.932e-08
 46.91999    -61.2 1.407e+04 2.103e-08
 46.93987    -60.1 1.418e+04 2.191e-08
 46.95902    -58.9 1.421e+04 2.163e-08
 46.96896    -58.6 1.469e+04 3.193e-08
 46.97961    -57.4 1.479e+04 3.333e-08
 46.99949    -56.3 1.485e+04 3.325e-08
 47.01936    -55.2 1.484e+04 3.124e-08
 47.03923    -54.0 1.478e+04 2.778e-08
 47.05911    -52.6 1.473e+04 2.409e-08
 47.07404    -51.3 1.481e+04 2.090e-08
 47.08397    -50.9 1.532e+04 3.937e-08
 47.09885    -49.6 1.521e+04 3.117e-08
 47.11873    -48.3 1.534e+04 2.646e-08
 47.13860    -47.2 1.583e+04 2.554e-08
 47.15847    -46.9 1.639e+04 2.642e-08
 47.17835    -47.9 1.706e+04 3.148e-08
 47.18905    -49.5 1.791e+04 5.030e-08
 47.19898    -47.8 1.739e+04 4.728e-08
 47.21809    -49.1 1.787e+04 7.307e-08
 47.23797    -50.4 1.802e+04 9.400e-08
 47.24910    -51.7 1.802e+04 1.045e-07
 47.25903    -53.5 1.832e+04 1.527e-07
 47.27771    -54.7 1.796e+04 1.313e-07
 47.29412    -55.5 1.749e+04 1.086e-07
 47.30406    -54.6 1.750e+04 1.013e-07
 47.31746    -54.9 1.693e+04 7.984e-08
 47.33733    -54.8 1.632e+04 6.074e-08
 47.35720    -54.5 1.575e+04 4.371e-08
 47.37708    -53.9 1.522e+04 3.155e-08
 47.39695    -53.1 1.497e+04 2.372e-08
 47.40914    -52.2 1.486e+04 1.870e-08
 47.41907    -52.3 1.493e+04 1.823e-08
 47.43670    -51.7 1.481e+04 1.504e-08
 47.45657    -50.9 1.474e+04 1.400e-08
 47.47644    -50.1 1.477e+04 1.405e-08
 47.49632    -49.4 1.485e+04 1.550e-08
 47.51421    -48.8 1.492e+04 1.823e-08
 47.52415    -50.1 1.464e+04 1.807e-08
 47.53606    -49.6 1.460e+04 2.025e-08
 47.55594    -49.4 1.465e+04 2.138e-08
 47.57581    -49.4 1.467e+04 2.177e-08
 47.59067    -49.7 1.472e+04 1.859e-08
 47.59995    -49.8 1.475e+04 1.859e-08
 47.60497    -49.8 1.531e+04 1.521e-08
 47.61054    -51.3 1.602e+04 1.544e-08
 47.62043    -53.2 1.770e+04 1.946e-08
 47.62913    -55.0 1.901e+04 3.388e-08
 47.63911    -52.2 1.707e+04 1.603e-08
 47.65029    -54.3 1.943e+04 3.353e-08
 47.66017    -55.1 1.954e+04 8.932e-08
 47.67011    -55.5 1.895e+04 2.503e-07
 47.68005    -55.9 1.882e+04 4.820e-07
 47.68663    -56.2 1.880e+04 8.094e-07
 47.69160    -55.0 1.875e+04 3.163e-07
 47.69992    -55.1 1.879e+04 5.706e-07
 47.70986    -55.4 1.883e+04 9.225e-07
 47.71979    -55.8 1.882e+04 1.208e-06
 47.72973    -56.4 1.875e+04 1.442e-06
 47.73917    -57.5 1.880e+04 1.463e-06
 47.74414    -55.2 1.865e+04 1.755e-06
 47.74960    -57.1 1.859e+04 1.912e-06
 47.75954    -58.9 1.869e+04 1.411e-06
 47.76948    -60.5 1.892e+04 7.349e-07
 47.77791    -62.0 1.881e+04 3.554e-07
 47.78288    -62.1 1.862e+04 2.577e-07
 47.78935    -63.2 1.781e+04 1.566e-07
 47.79668    -63.8 1.718e+04 1.088e-07
 47.80164    -63.1 1.780e+04 1.450e-07
 47.80922    -63.8 1.715e+04 9.993e-08
 47.81916    -64.1 1.687e+04 7.757e-08
 47.82910    -64.3 1.673e+04 6.492e-08
 47.83903    -64.3 1.663e+04 5.737e-08
 47.84897    -64.3 1.658e+04 5.299e-08
 47.85418    -64.0 1.656e+04 5.057e-08
 47.85915    -64.0 1.666e+04 5.047e-08
 47.86884    -63.7 1.666e+04 4.908e-08
 47.87878    -63.6 1.664e+04 4.859e-08
 47.88872    -63.3 1.658e+04 4.805e-08
 47.89865    -63.2 1.654e+04 4.772e-08
 47.90672    -63.0 1.646e+04 4.731e-08
 47.91169    -62.9 1.646e+04 4.708e-08
 47.91853    -62.8 1.643e+04 4.662e-08
 47.93348    -62.8 1.640e+04 4.925e-08
 47.95100    -62.5 1.620e+04 4.242e-08
 47.96094    -61.7 1.600e+04 3.271e-08
 47.96432    -61.1 1.585e+04 2.745e-08
 47.97426    -60.4 1.607e+04 2.885e-08
 47.99315    -59.8 1.596e+04 2.356e-08
 48.01302    -59.1 1.582e+04 1.866e-08
 48.03290    -58.3 1.564e+04 1.474e-08
 48.05277    -57.5 1.544e+04 1.161e-08
 48.06940    -56.6 1.526e+04 9.147e-09
 48.07933    -55.9 1.541e+04 1.135e-08
 48.09252    -54.9 1.524e+04 9.391e-09
 48.11239    -53.9 1.513e+04 7.912e-09
 48.13226    -53.0 1.500e+04 6.887e-09
 48.15214    -52.0 1.489e+04 6.303e-09
 48.17201    -51.0 1.483e+04 6.119e-09
 48.18441    -50.0 1.482e+04 6.093e-09
 48.19435    -49.7 1.472e+04 6.965e-09
 48.21176    -48.9 1.465e+04 6.964e-09
 48.23163    -48.2 1.457e+04 7.179e-09
 48.25150    -47.6 1.449e+04 7.513e-09
 48.27138    -47.0 1.439e+04 7.829e-09
 48.28949    -46.5 1.433e+04 8.062e-09
 48.29942    -46.2 1.429e+04 8.057e-09
 48.30692    -45.7 1.425e+04 8.231e-09
 48.31686    -45.1 1.431e+04 8.030e-09
 48.33099    -44.6 1.428e+04 8.054e-09
 48.35087    -44.0 1.421e+04 8.032e-09
 48.37074    -43.5 1.414e+04 7.925e-09
 48.39061    -43.0 1.404e+04 8.005e-09
 48.40460    -42.6 1.406e+04 8.195e-09
 48.42457    -42.0 1.391e+04 9.604e-09
 48.45033    -40.3 1.399e+04 8.879e-09
 48.47011    -39.8 1.400e+04 9.244e-09
 48.48998    -38.6 1.409e+04 9.907e-09
 48.50957    -37.9 1.425e+04 1.120e-08
 48.51951    -37.6 1.461e+04 2.064e-08
 48.52973    -36.8 1.507e+04 2.800e-08
 48.54960    -36.5 1.551e+04 3.757e-08
 48.56947    -36.5 1.593e+04 5.030e-08
 48.58935    -36.7 1.633e+04 6.764e-08
 48.60922    -36.9 1.662e+04 8.593e-08
 48.62459    -36.9 1.679e+04 9.673e-08
 48.63452    -37.5 1.762e+04 1.334e-07
 48.64897    -37.8 1.750e+04 1.238e-07
 48.66285    -38.0 1.707e+04 9.907e-08
 48.67278    -36.3 1.736e+04 1.165e-07
 48.68871    -36.4 1.707e+04 9.622e-08
 48.70859    -36.6 1.648e+04 6.680e-08
 48.72846    -36.8 1.576e+04 4.310e-08
 48.73960    -37.3 1.514e+04 3.189e-08
 48.74953    -38.0 1.496e+04 2.993e-08
 48.76821    -38.1 1.467e+04 2.688e-08
 48.78808    -37.9 1.460e+04 2.567e-08
 48.80795    -37.7 1.460e+04 2.491e-08
 48.82783    -37.7 1.465e+04 2.436e-08
 48.84467    -37.9 1.468e+04 2.363e-08
 48.85461    -37.4 1.438e+04 2.000e-08
 48.86757    -37.5 1.443e+04 2.006e-08
 48.88745    -37.5 1.436e+04 1.888e-08
 48.90732    -37.5 1.416e+04 1.594e-08
 48.92719    -37.3 1.384e+04 1.249e-08
 48.94707    -37.1 1.346e+04 9.478e-09
 48.97697    -36.2 1.319e+04 7.255e-09
 49.01682    -35.0 1.290e+04 5.392e-09
 49.04653    -32.9 1.294e+04 4.714e-09
 49.06476    -32.7 1.295e+04 4.521e-09
 49.07470    -32.1 1.284e+04 5.840e-09
 49.08618    -30.9 1.284e+04 5.796e-09
 49.10605    -30.3 1.290e+04 5.485e-09
 49.12593    -29.9 1.299e+04 5.352e-09
 49.14580    -29.7 1.308e+04 5.314e-09
 49.16567    -30.0 1.330e+04 5.670e-09
 49.17977    -30.7 1.354e+04 6.684e-09
 49.18971    -30.5 1.396e+04 1.265e-08
 49.20542    -31.8 1.434e+04 1.633e-08
 49.22529    -32.8 1.461e+04 2.091e-08
 49.24517    -33.6 1.474e+04 2.503e-08
 49.26504    -34.3 1.476e+04 2.642e-08
 49.28485    -35.2 1.468e+04 2.468e-08
 49.30472    -36.8 1.416e+04 1.769e-08
 49.32466    -38.0 1.396e+04 1.551e-08
 49.34453    -39.2 1.386e+04 1.415e-08
 49.36440    -40.5 1.378e+04 1.306e-08
 49.37469    -41.7 1.363e+04 1.186e-08
 49.38463    -41.0 1.379e+04 1.339e-08
 49.39986    -42.1 1.359e+04 1.099e-08
 49.40980    -41.4 1.357e+04 1.182e-08
 49.42402    -42.2 1.334e+04 9.916e-09
 49.44390    -42.5 1.314e+04 8.230e-09
 49.46377    -42.6 1.298e+04 6.845e-09
 49.48364    -42.5 1.284e+04 5.786e-09
 49.50352    -42.2 1.268e+04 5.025e-09
 49.51487    -41.9 1.257e+04 4.630e-09
 49.52481    -41.5 1.249e+04 4.407e-09
 49.54326    -41.2 1.244e+04 4.210e-09
 49.56314    -40.8 1.247e+04 4.217e-09
 49.58301    -40.6 1.256e+04 4.655e-09
 49.60288    -40.3 1.261e+04 5.591e-09
 49.61995    -39.7 1.265e+04 6.790e-09
 49.62989    -39.3 1.257e+04 6.014e-09
 49.64263    -38.6 1.264e+04 7.243e-09
 49.66250    -38.1 1.267e+04 7.812e-09
 49.69241    -37.5 1.268e+04 8.437e-09
 49.72077    -37.4 1.277e+04 1.047e-08
 49.73061    -36.6 1.270e+04 9.360e-09
 49.73496    -36.8 1.268e+04 1.015e-08
 49.74490    -36.4 1.289e+04 1.181e-08
 49.76187    -36.8 1.296e+04 1.453e-08
 49.78174    -37.4 1.296e+04 1.618e-08
 49.80162    -38.1 1.291e+04 1.580e-08
 49.82149    -39.3 1.275e+04 1.331e-08
 49.84004    -40.7 1.238e+04 1.041e-08
 49.84997    -41.6 1.281e+04 1.578e-08
 49.86124    -42.8 1.216e+04 1.160e-08
 49.88111    -43.7 1.169e+04 8.901e-09
 49.90098    -44.3 1.137e+04 7.171e-09
 49.92086    -44.8 1.112e+04 6.265e-09
 49.94073    -45.0 1.097e+04 6.006e-09
 49.95505    -45.2 1.093e+04 5.976e-09
 49.96499    -45.7 1.078e+04 5.948e-09
 49.98048    -45.8 1.078e+04 6.092e-09
 50.00035    -46.0 1.085e+04 6.973e-09
 50.02022    -46.1 1.097e+04 8.395e-09
 50.04010    -46.3 1.111e+04 1.016e-08
 50.05997    -46.4 1.118e+04 1.176e-08
 50.07006    -46.5 1.120e+04 1.241e-08
 50.07675    -46.6 1.104e+04 1.192e-08
 50.08653    -47.3 1.071e+04 9.694e-09
 50.09972    -47.3 1.049e+04 8.997e-09
 50.11959    -47.4 1.020e+04 7.612e-09
 50.13946    -47.6 9.887e+03 6.105e-09
 50.15934    -47.9 9.542e+03 4.782e-09
 50.17514    -48.2 9.189e+03 3.699e-09
 50.18507    -48.6 9.054e+03 3.494e-09
 50.19908    -48.8 8.862e+03 2.933e-09
 50.21895    -49.0 8.792e+03 2.600e-09
 50.24886    -49.2 8.831e+03 2.471e-09
 50.28871    -49.2 8.821e+03 2.469e-09
 50.32845    -49.1 8.860e+03 2.617e-09
 50.36820    -48.9 9.062e+03 2.889e-09
 50.39542    -48.7 9.274e+03 3.292e-09
 50.40526    -50.2 9.363e+03 4.143e-09
 50.41769    -50.3 9.494e+03 4.701e-09
 50.43252    -50.5 9.633e+03 5.396e-09
 50.44245    -50.1 9.620e+03 4.925e-09
 50.45743    -49.9 9.677e+03 5.045e-09
 50.47731    -49.7 9.795e+03 4.715e-09
 50.49718    -49.7 9.870e+03 3.996e-09
 50.52709    -50.3 9.820e+03 3.261e-09
 50.56693    -50.0 9.622e+03 2.267e-09
 50.60557    -49.1 9.297e+03 1.556e-09
 50.62544    -50.7 9.209e+03 1.365e-09
 50.64643    -49.5 9.076e+03 1.201e-09
 50.68617    -48.2 9.028e+03 1.186e-09
 50.72592    -46.9 9.024e+03 1.320e-09
 50.76567    -45.9 9.207e+03 1.670e-09
 50.78864    -45.1 9.516e+03 2.141e-09
 50.80851    -44.2 9.279e+03 1.998e-09
 50.83512    -44.1 9.547e+03 2.591e-09
 50.84534    -44.7 9.812e+03 3.167e-09
 50.85527    -46.7 1.027e+04 4.646e-09
 50.87477    -47.8 1.096e+04 7.366e-09
 50.89465    -49.4 1.193e+04 1.179e-08
 50.91452    -51.6 1.293e+04 1.855e-08
 50.93439    -54.0 1.364e+04 2.583e-08
 50.95041    -56.4 1.389e+04 2.798e-08
 50.96035    -59.0 1.380e+04 2.669e-08
 50.97414    -61.1 1.345e+04 2.098e-08
 50.99401    -63.2 1.281e+04 1.245e-08
 51.01389    -65.3 1.194e+04 6.470e-09
 51.03376    -67.5 1.115e+04 3.832e-09
 51.05363    -69.0 1.071e+04 3.007e-09
 51.06542    -69.8 1.053e+04 2.775e-09
 51.08539    -70.9 1.057e+04 2.243e-09
 51.12338    -71.4 1.047e+04 2.208e-09
 51.16313    -72.2 1.045e+04 2.238e-09
 51.19284    -73.3 1.045e+04 2.583e-09
 51.21262    -74.8 1.074e+04 3.295e-09
 51.23249    -77.1 1.124e+04 4.855e-09
 51.25236    -79.7 1.194e+04 7.619e-09
 51.27224    -82.3 1.263e+04 1.162e-08
 51.28551    -84.7 1.313e+04 1.463e-08
 51.29545    -85.7 1.321e+04 1.417e-08
 51.31198    -88.3 1.328e+04 1.444e-08
 51.33186    -90.6 1.316e+04 1.179e-08
 51.35173    -92.6 1.279e+04 8.002e-09
 51.37160    -94.1 1.234e+04 5.993e-09
 51.39059    -94.8 1.212e+04 5.267e-09
 51.40052    -95.3 1.225e+04 5.706e-09
 51.41135    -95.5 1.220e+04 5.605e-09
 51.43122    -95.7 1.217e+04 5.599e-09
 51.45110    -96.0 1.214e+04 5.640e-09
 51.47097    -96.3 1.208e+04 5.766e-09
 51.49035    -96.5 1.204e+04 5.900e-09
 51.50028    -97.1 1.219e+04 7.497e-09
 51.50560    -97.2 1.215e+04 7.517e-09
 51.51554    -97.7 1.250e+04 9.772e-09
 51.53059    -97.6 1.231e+04 9.549e-09
 51.55046    -97.4 1.213e+04 8.397e-09
 51.57034    -97.1 1.196e+04 7.022e-09
 51.59021    -96.7 1.175e+04 5.768e-09
 51.61008    -96.2 1.152e+04 4.690e-09
 51.62061    -95.5 1.129e+04 3.830e-09
 51.63055    -96.2 1.135e+04 4.170e-09
 51.64983    -95.4 1.118e+04 3.454e-09
 51.67974    -94.4 1.108e+04 2.886e-09
 51.71595    -93.5 1.096e+04 2.530e-09
 51.73582    -94.3 1.101e+04 2.697e-09
 51.75933    -92.8 1.076e+04 2.210e-09
 51.79907    -91.0 1.044e+04 1.810e-09
 51.83882    -89.2 1.024e+04 1.539e-09
 51.87857    -87.4 1.019e+04 1.424e-09
 51.91831    -85.5 1.018e+04 1.405e-09
 51.94597    -83.7 1.027e+04 1.460e-09
 51.96584    -84.6 1.028e+04 1.761e-09
 51.99781    -83.0 1.050e+04 2.281e-09
 52.03755    -81.5 1.080e+04 2.743e-09
 52.07730    -80.1 1.095e+04 3.002e-09
 52.11705    -78.8 1.106e+04 3.038e-09
 52.15612    -77.6 1.122e+04 2.830e-09
 52.17599    -79.0 1.116e+04 2.644e-09
 52.19245    -77.9 1.124e+04 2.516e-09
 52.21232    -77.8 1.118e+04 2.994e-09
 52.23629    -77.1 1.138e+04 3.066e-09
 52.27603    -76.6 1.158e+04 3.213e-09
 52.31578    -76.3 1.167e+04 3.212e-09
 52.35553    -76.0 1.180e+04 2.986e-09
 52.38614    -75.4 1.184e+04 2.587e-09
 52.40602    -76.1 1.153e+04 1.953e-09
 52.43502    -75.1 1.161e+04 1.836e-09
 52.47477    -74.1 1.172e+04 1.815e-09
 52.51451    -73.2 1.199e+04 2.049e-09
 52.55426    -72.4 1.220e+04 2.500e-09
 52.58397    -72.3 1.217e+04 3.037e-09
 52.60375    -72.1 1.206e+04 3.510e-09
 52.61607    -71.9 1.207e+04 4.126e-09
 52.63604    -73.2 1.191e+04 4.778e-09
 52.67350    -73.5 1.210e+04 6.262e-09
 52.71324    -73.9 1.229e+04 8.333e-09
 52.75299    -74.9 1.243e+04 9.926e-09
 52.79274    -76.2 1.247e+04 1.022e-08
 52.82632    -77.3 1.220e+04 8.887e-09
 52.84619    -77.9 1.192e+04 6.309e-09
 52.87223    -78.6 1.163e+04 3.760e-09
 52.90429    -79.3 1.143e+04 1.717e-09
 52.92417    -78.2 1.174e+04 3.477e-09
 52.95172    -79.2 1.144e+04 1.718e-09
 52.99147    -79.8 1.130e+04 1.334e-09
 53.03122    -79.6 1.124e+04 1.298e-09
 53.05634    -79.2 1.117e+04 1.328e-09
 53.07622    -80.3 1.106e+04 1.248e-09
 53.11071    -79.7 1.104e+04 1.242e-09
 53.15046    -78.7 1.104e+04 1.237e-09
 53.19020    -77.5 1.109e+04 1.194e-09
 53.22995    -76.0 1.112e+04 1.081e-09
 53.26650    -74.3 1.118e+04 9.274e-10
 53.28637    -74.9 1.118e+04 7.848e-10
 53.30944    -73.1 1.127e+04 6.466e-10
 53.34919    -71.1 1.132e+04 5.683e-10
 53.38894    -69.0 1.127e+04 5.443e-10
 53.42868    -67.1 1.139e+04 5.425e-10
 53.46843    -65.6 1.151e+04 6.393e-10
 53.49652    -64.5 1.152e+04 1.011e-09
 53.51639    -66.1 1.157e+04 1.795e-09
 53.54792    -64.9 1.175e+04 3.569e-09
 53.58767    -63.9 1.206e+04 5.321e-09
 53.61614    -63.5 1.216e+04 5.743e-09
 53.63601    -63.3 1.218e+04 6.121e-09
 53.66716    -62.8 1.204e+04 5.596e-09
 53.70667    -61.5 1.182e+04 3.563e-09
 53.72654    -62.5 1.186e+04 1.827e-09
 53.74665    -61.0 1.187e+04 1.086e-09
 53.78640    -59.3 1.190e+04 7.596e-10
 53.82615    -57.4 1.189e+04 6.073e-10
 53.86589    -55.3 1.183e+04 5.515e-10
 53.90564    -53.2 1.179e+04 5.367e-10
 53.93670    -51.0 1.184e+04 5.388e-10
 53.95657    -51.6 1.192e+04 5.770e-10
 53.98513    -49.7 1.195e+04 7.162e-10
 54.02488    -47.8 1.193e+04 9.716e-10
 54.06463    -46.0 1.192e+04 1.409e-09
 54.10437    -44.3 1.188e+04 2.050e-09
 54.14412    -42.8 1.188e+04 2.715e-09
 54.16672    -41.5 1.190e+04 3.239e-09
 54.18659    -41.9 1.156e+04 1.789e-09
 54.22361    -41.0 1.163e+04 1.674e-09
 54.26336    -40.3 1.165e+04 1.777e-09
 54.30311    -39.4 1.168e+04 2.086e-09
 54.32798    -38.6 1.182e+04 2.202e-09
 54.34785    -39.1 1.192e+04 2.484e-09
 54.37687    -38.8 1.219e+04 2.544e-09
 54.39674    -40.8 1.235e+04 3.453e-09
 54.42235    -41.6 1.250e+04 7.061e-09
 54.46209    -41.7 1.265e+04 1.356e-08
 54.50184    -42.0 1.271e+04 1.667e-08
 54.54159    -42.1 1.224e+04 1.319e-08
 54.58133    -41.6 1.168e+04 5.703e-09
 54.60689    -41.4 1.117e+04 2.583e-09
 54.62677    -42.3 1.050e+04 1.394e-09
 54.66082    -40.8 1.042e+04 1.179e-09
 54.70057    -38.8 1.054e+04 1.178e-09
 54.74032    -37.6 1.079e+04 1.662e-09
 54.78006    -36.1 1.076e+04 3.357e-09
 54.81705    -33.9 1.103e+04 6.375e-09
 54.83692    -33.6 1.080e+04 4.812e-09
 54.85956    -31.9 1.137e+04 8.633e-09
 54.88927    -31.1 1.178e+04 1.070e-08
 54.90905    -30.9 1.173e+04 1.093e-08
 54.92892    -30.1 1.177e+04 1.091e-08
 54.94180    -29.5 1.180e+04 9.188e-09
 54.95174    -29.3 1.183e+04 9.620e-09
 54.96866    -28.8 1.180e+04 7.935e-09
 54.98854    -28.4 1.174e+04 6.724e-09
 55.01845    -27.9 1.151e+04 5.786e-09
 55.03982    -26.7 1.116e+04 4.596e-09
 55.04848    -26.9 1.097e+04 3.745e-09
 55.06694    -26.1 1.085e+04 3.395e-09
 55.09804    -24.4 1.079e+04 3.126e-09
 55.13778    -22.5 1.079e+04 3.120e-09
 55.17753    -20.6 1.090e+04 3.286e-09
 55.21728    -18.6 1.098e+04 3.254e-09
 55.25702    -16.4 1.102e+04 2.766e-09
 55.27709    -14.3 1.098e+04 2.103e-09
 55.29697    -13.6 1.088e+04 2.839e-09
 55.33652    -11.8 1.078e+04 2.024e-09
 55.37626     -9.6 1.071e+04 1.679e-09
 55.41601     -7.2 1.065e+04 1.462e-09
 55.45576     -4.7 1.063e+04 1.289e-09
 55.48725     -2.2 1.065e+04 1.253e-09
 55.50712     -2.1 1.047e+04 1.149e-09
 55.53525      0.4 1.050e+04 1.279e-09
 55.57499      2.9 1.056e+04 1.480e-09
 55.61474      5.5 1.056e+04 1.731e-09
 55.65449      8.2 1.068e+04 1.844e-09
 55.69423     10.7 1.076e+04 1.834e-09
 55.71727     13.3 1.082e+04 1.706e-09
 55.73495     13.6 1.077e+04 1.650e-09
 55.75167     13.3 1.075e+04 1.554e-09
 55.77373     15.8 1.082e+04 1.532e-09
 55.81347     18.2 1.089e+04 1.492e-09
 55.85322     20.6 1.101e+04 1.461e-09
 55.89297     22.8 1.111e+04 1.479e-09
 55.92742     24.9 1.124e+04 1.589e-09
 55.94729     24.9 1.121e+04 2.143e-09
 55.97246     26.7 1.132e+04 2.602e-09
 56.01221     28.5 1.155e+04 3.329e-09
 56.05195     29.8 1.188e+04 4.021e-09
 56.08167     29.8 1.232e+04 5.198e-09
 56.09746     29.9 1.258e+04 6.038e-09
 56.10739     29.4 1.262e+04 5.551e-09
 56.12131     29.7 1.275e+04 5.837e-09
 56.14119     30.3 1.269e+04 5.774e-09
 56.15725     31.4 1.245e+04 5.217e-09
 56.16719     30.8 1.227e+04 5.122e-09
 56.18093     31.8 1.221e+04 3.670e-09
 56.20081     32.1 1.247e+04 2.142e-09
 56.22068     31.9 1.254e+04 1.894e-09
 56.25059     33.3 1.266e+04 1.446e-09
 56.29043     35.1 1.280e+04 1.384e-09
 56.32014     35.3 1.302e+04 1.650e-09
 56.33992     35.8 1.270e+04 2.069e-09
 56.35979     36.5 1.240e+04 2.941e-09
 56.37734     37.4 1.211e+04 4.043e-09
 56.38737     36.6 1.193e+04 8.269e-09
 56.39964     37.8 1.197e+04 9.227e-09
 56.41941     38.8 1.213e+04 9.694e-09
 56.43929     39.7 1.217e+04 9.522e-09
 56.45338     40.8 1.220e+04 8.462e-09
 56.46331     40.7 1.216e+04 7.600e-09
 56.47903     41.5 1.204e+04 5.906e-09
 56.49235     42.2 1.187e+04 4.458e-09
 56.50229     40.8 1.130e+04 3.233e-09
 56.51878     41.5 1.108e+04 2.519e-09
 56.53865     42.0 1.088e+04 2.136e-09
 56.56856     43.7 1.096e+04 2.249e-09
 56.59762     45.7 1.091e+04 2.248e-09
 56.61749     45.2 1.049e+04 1.459e-09
 56.64815     47.4 1.047e+04 1.576e-09
 56.68790     49.5 1.042e+04 1.758e-09
 56.72764     51.6 1.036e+04 1.806e-09
 56.76739     53.8 1.029e+04 1.785e-09
 56.80714     56.0 1.017e+04 1.708e-09
 56.82764     58.2 1.006e+04 1.617e-09
 56.84752     58.2 9.912e+03 1.378e-09
 56.88663     60.5 9.878e+03 1.417e-09
 56.92638     62.7 9.856e+03 1.513e-09
 56.96612     64.9 9.900e+03 1.723e-09
 57.00587     67.0 1.006e+04 2.110e-09
 57.03780     68.8 1.022e+04 2.684e-09
 57.05767     68.9 9.921e+03 2.596e-09
 57.08536     70.4 1.004e+04 3.123e-09
 57.11508     71.4 1.009e+04 3.484e-09
 57.13485     72.2 1.015e+04 3.914e-09
 57.15261     72.9 1.021e+04 4.180e-09
 57.16255     72.9 9.990e+03 3.120e-09
 57.16522     73.3 9.991e+03 3.091e-09
 57.17516     73.4 9.982e+03 3.115e-09
 57.19447     73.5 1.001e+04 3.166e-09
 57.21434     73.5 1.008e+04 3.319e-09
 57.23422     73.2 1.018e+04 3.702e-09
 57.25409     72.6 1.031e+04 4.458e-09
 57.26762     72.1 1.044e+04 5.662e-09
 57.27756     72.6 1.026e+04 4.501e-09
 57.29384     72.2 1.043e+04 6.115e-09
 57.31371     71.9 1.055e+04 7.625e-09
 57.33358     71.6 1.053e+04 8.032e-09
 57.35346     71.3 1.042e+04 7.687e-09
 57.37270     71.1 1.012e+04 6.543e-09
 57.38264     71.7 1.017e+04 6.774e-09
 57.39320     71.4 9.982e+03 5.785e-09
 57.41308     69.6 1.036e+04 5.901e-09
 57.43295     63.4 1.295e+04 1.027e-08
 57.45282     56.5 1.540e+04 3.697e-08
 57.47270     52.5 1.611e+04 8.963e-08
 57.48771     50.7 1.592e+04 1.066e-07
 57.49765     50.7 1.633e+04 1.148e-07
 57.50743     50.2 1.602e+04 9.973e-08
 57.51608     49.3 1.564e+04 7.261e-08
 57.52104     48.6 1.522e+04 5.462e-08
 57.53227     44.4 1.466e+04 3.020e-08
 57.55219     36.9 1.309e+04 1.717e-08
 57.57206     30.8 1.119e+04 1.431e-08
 57.59194     28.3 1.077e+04 1.426e-08
 57.60272     27.1 1.077e+04 1.390e-08
 57.61266     26.4 1.066e+04 1.301e-08
 57.63168     24.9 1.048e+04 1.084e-08
 57.65156     22.8 1.008e+04 8.312e-09
 57.67143     20.7 9.549e+03 6.656e-09
 57.69130     19.6 9.281e+03 6.279e-09
 57.70780     19.0 9.308e+03 6.359e-09
 57.71774     18.6 9.333e+03 6.269e-09
 57.73105     18.2 9.483e+03 6.613e-09
 57.75092     17.9 9.635e+03 7.229e-09
 57.77080     17.9 9.724e+03 7.812e-09
 57.79067     18.2 9.656e+03 8.144e-09
 57.81054     18.8 9.513e+03 7.708e-09
 57.82281     19.6 9.405e+03 6.844e-09
 57.83275     18.2 9.856e+03 8.001e-09
 57.85029     17.8 1.011e+04 8.424e-09
 57.86713     17.2 1.051e+04 9.524e-09
 57.87706     17.0 1.044e+04 8.561e-09
 57.89003     16.5 1.068e+04 1.065e-08
 57.90991     16.4 1.091e+04 1.356e-08
 57.92789     16.6 1.111e+04 1.750e-08
 57.93782     16.3 1.184e+04 2.208e-08
 57.94965     16.9 1.217e+04 2.240e-08
 57.96953     17.4 1.231e+04 2.043e-08
 57.98940     17.2 1.221e+04 1.616e-08
 58.00927     16.7 1.169e+04 1.184e-08
 58.02915     16.0 1.093e+04 8.725e-09
 58.04290     15.8 1.032e+04 6.529e-09
 58.05284     14.6 9.754e+03 5.458e-09
 58.06889     15.2 9.558e+03 4.115e-09
 58.08877     15.1 9.422e+03 3.072e-09
 58.10864     14.9 9.299e+03 2.412e-09
 58.12851     14.7 9.113e+03 2.121e-09
 58.14798     14.7 9.044e+03 2.108e-09
 58.15791     14.3 9.030e+03 2.108e-09
 58.16826     14.3 9.111e+03 2.214e-09
 58.18813     14.0 9.302e+03 2.549e-09
 58.20801     13.6 9.552e+03 3.235e-09
 58.22305     12.8 9.883e+03 4.529e-09
 58.23299     12.8 9.748e+03 4.392e-09
 58.24775     12.2 1.003e+04 6.254e-09
 58.26299     11.8 1.035e+04 8.611e-09
 58.27292     11.6 1.046e+04 9.311e-09
 58.28750     11.4 1.074e+04 1.067e-08
 58.30737     10.6 1.099e+04 1.065e-08
 58.32725      9.2 1.116e+04 1.066e-08
 58.34712      6.8 1.148e+04 1.135e-08
 58.36699      4.6 1.176e+04 1.349e-08
 58.37800      2.8 1.174e+04 1.381e-08
 58.38794      2.5 1.198e+04 1.605e-08
 58.40674      1.7 1.178e+04 1.390e-08
 58.42661      0.4 1.160e+04 9.890e-09
 58.44649     -1.5 1.138e+04 6.842e-09
 58.46636     -3.3 1.111e+04 5.380e-09
 58.48308     -4.3 1.088e+04 4.785e-09
 58.49301     -4.8 1.098e+04 4.809e-09
 58.50611     -5.4 1.091e+04 4.402e-09
 58.52598     -5.7 1.088e+04 4.073e-09
 58.54585     -5.9 1.092e+04 3.636e-09
 58.56573     -6.2 1.103e+04 3.310e-09
 58.57907     -6.9 1.123e+04 2.998e-09
 58.59165     -5.4 1.118e+04 3.328e-09
 58.60822     -6.8 1.132e+04 3.632e-09
 58.63548     -7.8 1.153e+04 4.115e-09
 58.66519     -8.4 1.168e+04 4.621e-09
 58.68497     -8.8 1.180e+04 5.183e-09
 58.70316     -9.1 1.183e+04 5.922e-09
 58.71310    -10.1 1.163e+04 5.205e-09
 58.72471    -10.4 1.160e+04 5.174e-09
 58.74459    -11.1 1.158e+04 5.204e-09
 58.76446    -11.6 1.153e+04 5.156e-09
 58.78433    -12.7 1.155e+04 5.788e-09
 58.80420    -13.0 1.161e+04 5.898e-09
 58.81818    -14.6 1.179e+04 6.970e-09
 58.82811    -14.7 1.152e+04 5.845e-09
 58.84395    -15.3 1.159e+04 5.987e-09
 58.86382    -16.6 1.147e+04 7.242e-09
 58.88370    -17.0 1.140e+04 7.258e-09
 58.90357    -17.9 1.194e+04 5.205e-09
 58.92325    -19.0 1.160e+04 4.639e-09
 58.93319    -18.7 1.150e+04 4.651e-09
 58.93489    -20.5 1.187e+04 3.046e-09
 58.94483    -20.0 1.211e+04 3.143e-09
 58.96319    -20.8 1.195e+04 3.069e-09
 58.99310    -22.5 1.160e+04 3.137e-09
 59.02852    -22.9 1.142e+04 4.044e-09
 59.04839    -23.2 1.130e+04 3.646e-09
 59.07269    -22.8 1.112e+04 2.880e-09
 59.11244    -22.3 1.108e+04 1.549e-09
 59.15218    -22.4 1.079e+04 1.036e-09
 59.19193    -21.3 1.072e+04 1.050e-09
 59.23168    -21.0 1.091e+04 1.392e-09
 59.25855    -21.6 1.159e+04 2.731e-09
 59.27813    -23.3 1.192e+04 4.826e-09
 59.29101    -23.4 1.221e+04 5.551e-09
 59.31117    -26.1 1.319e+04 1.512e-08
 59.34088    -25.7 1.342e+04 2.573e-08
 59.36066    -26.8 1.376e+04 2.485e-08
 59.39056    -30.4 1.324e+04 1.291e-08
 59.43041    -35.4 1.201e+04 5.026e-09
 59.46870    -38.5 1.124e+04 3.085e-09
 59.48857    -41.1 1.110e+04 3.228e-09
 59.50990    -42.1 1.071e+04 2.525e-09
 59.54965    -42.5 1.038e+04 1.734e-09
 59.58939    -43.1 1.020e+04 1.223e-09
 59.62914    -43.2 1.010e+04 1.044e-09
 59.66889    -43.0 1.005e+04 1.242e-09
 59.69872    -42.8 1.028e+04 1.950e-09
 59.71859    -44.3 1.042e+04 3.118e-09
 59.74838    -43.4 1.075e+04 3.998e-09
 59.78813    -42.9 1.114e+04 5.337e-09
 59.82787    -43.2 1.171e+04 7.425e-09
 59.86762    -44.6 1.254e+04 1.262e-08
 59.89733    -47.0 1.356e+04 2.359e-08
 59.91711    -48.3 1.397e+04 3.208e-08
 59.92855    -48.9 1.457e+04 4.131e-08
 59.93849    -50.5 1.414e+04 3.698e-08
 59.95685    -51.2 1.379e+04 3.158e-08
 59.97673    -51.8 1.299e+04 2.093e-08
 59.99272    -52.9 1.199e+04 1.188e-08
 60.00266    -53.3 1.175e+04 1.111e-08
 60.01647    -54.2 1.100e+04 6.862e-09
 60.03363    -54.9 1.046e+04 4.716e-09
 60.04356    -55.7 9.914e+03 3.660e-09
 60.05622    -55.8 9.636e+03 2.919e-09
 60.07609    -55.7 9.595e+03 2.687e-09
 60.10600    -54.3 9.873e+03 2.446e-09
 60.13890    -53.5 9.777e+03 1.808e-09
 60.15877    -54.6 9.138e+03 1.568e-09
 60.18559    -54.0 9.159e+03 1.491e-09
 60.22534    -53.2 9.417e+03 1.492e-09
 60.26509    -52.5 9.552e+03 1.544e-09
 60.30483    -51.8 9.594e+03 1.553e-09
 60.34458    -50.9 9.563e+03 1.440e-09
 60.36892    -50.0 9.484e+03 1.202e-09
 60.38879    -50.4 9.521e+03 1.098e-09
 60.42407    -49.5 9.474e+03 9.015e-10
 60.46382    -48.5 9.433e+03 7.961e-10
 60.50356    -47.3 9.397e+03 7.440e-10
 60.54331    -46.0 9.393e+03 7.035e-10
 60.57907    -44.6 9.460e+03 6.580e-10
 60.59895    -44.6 9.559e+03 7.087e-10
 60.62280    -43.8 9.709e+03 7.808e-10
 60.66255    -43.3 9.872e+03 1.107e-09
 60.69482    -42.9 1.017e+04 1.870e-09
 60.71470    -43.2 1.028e+04 1.867e-09
 60.74204    -43.4 1.066e+04 3.160e-09
 60.77176    -43.5 1.127e+04 5.250e-09
 60.79153    -44.7 1.144e+04 7.072e-09
 60.80890    -45.1 1.167e+04 9.454e-09
 60.81884    -45.3 1.173e+04 9.709e-09
 60.83128    -45.6 1.204e+04 1.103e-08
 60.85115    -46.0 1.219e+04 1.151e-08
 60.87102    -46.4 1.224e+04 1.076e-08
 60.89090    -46.8 1.204e+04 9.346e-09
 60.91077    -47.0 1.187e+04 8.092e-09
 60.92391    -47.3 1.158e+04 6.945e-09
 60.93385    -47.2 1.149e+04 6.193e-09
 60.95052    -47.0 1.138e+04 5.996e-09
 60.97039    -46.7 1.139e+04 6.048e-09
 60.99026    -46.6 1.147e+04 6.620e-09
 61.01014    -46.6 1.168e+04 8.162e-09
 61.02899    -46.8 1.186e+04 1.039e-08
 61.03893    -46.3 1.186e+04 1.060e-08
 61.04988    -46.0 1.240e+04 1.444e-08
 61.06049    -47.3 1.317e+04 2.052e-08
 61.07042    -47.1 1.304e+04 2.052e-08
 61.08963    -48.9 1.423e+04 3.386e-08
 61.10950    -51.8 1.553e+04 5.518e-08
 61.12938    -54.7 1.621e+04 8.020e-08
 61.14400    -57.3 1.620e+04 8.856e-08
 61.15394    -57.2 1.662e+04 1.092e-07
 61.16912    -59.1 1.556e+04 7.325e-08
 61.18900    -60.7 1.422e+04 4.072e-08
 61.20887    -62.3 1.306e+04 2.476e-08
 61.22874    -63.1 1.234e+04 1.839e-08
 61.24862    -63.2 1.199e+04 1.574e-08
 61.25901    -62.6 1.167e+04 1.420e-08
 61.26895    -62.8 1.154e+04 1.337e-08
 61.28836    -61.8 1.140e+04 1.283e-08
 61.30824    -60.5 1.133e+04 1.228e-08
 61.32811    -59.2 1.127e+04 1.166e-08
 61.34798    -58.0 1.118e+04 1.100e-08
 61.36409    -56.6 1.113e+04 1.058e-08
 61.37403    -56.8 1.118e+04 1.064e-08
 61.38773    -55.4 1.117e+04 1.046e-08
 61.40647    -53.8 1.130e+04 1.066e-08
 61.41641    -54.4 1.103e+04 9.447e-09
 61.42748    -53.0 1.102e+04 9.359e-09
 61.44735    -51.4 1.148e+04 1.067e-08
 61.46722    -50.6 1.221e+04 1.370e-08
 61.47910    -50.3 1.387e+04 2.393e-08
 61.48904    -48.7 1.244e+04 1.504e-08
 61.50697    -48.7 1.425e+04 2.465e-08
 61.52684    -49.1 1.669e+04 6.248e-08
 61.54672    -48.8 1.857e+04 1.720e-07
 61.56157    -47.3 1.931e+04 2.982e-07
 61.57146    -47.4 1.910e+04 5.475e-07
 61.58140    -46.9 1.892e+04 1.050e-06
 61.58905    -47.6 1.856e+04 1.765e-06
 61.59198    -47.4 1.848e+04 1.878e-06
 61.59427    -48.8 1.839e+04 1.876e-06
 61.60127    -49.3 1.822e+04 2.175e-06
 61.61121    -49.8 1.850e+04 1.653e-06
 61.62114    -50.5 1.962e+04 9.160e-07
 61.63108    -52.7 2.131e+04 3.784e-07
 61.64102    -55.8 2.224e+04 1.489e-07
 61.64655    -59.0 2.139e+04 6.965e-08
 61.65152    -54.6 2.296e+04 1.659e-07
 61.66089    -58.9 2.350e+04 6.981e-08
 61.67083    -64.4 2.053e+04 3.486e-08
 61.68076    -69.4 1.605e+04 3.101e-08
 61.69070    -72.5 1.519e+04 2.803e-08
 61.69909    -76.7 1.481e+04 2.572e-08
 61.70406    -75.4 1.906e+04 2.771e-08
 61.71057    -80.3 1.501e+04 2.769e-08
 61.72051    -82.7 1.425e+04 2.723e-08
 61.73045    -83.8 1.421e+04 2.958e-08
 61.74038    -84.6 1.406e+04 3.131e-08
 61.75032    -85.2 1.432e+04 3.474e-08
 61.76234    -86.1 1.469e+04 4.042e-08
 61.77233    -83.2 1.363e+04 3.261e-08
 61.78519    -82.7 1.377e+04 3.531e-08
 61.80426    -81.9 1.381e+04 3.601e-08
 61.81420    -81.8 1.445e+04 4.452e-08
 61.82494    -81.1 1.497e+04 4.960e-08
 61.84481    -80.7 1.531e+04 5.134e-08
 61.86469    -80.8 1.539e+04 5.040e-08
 61.88456    -81.7 1.527e+04 4.924e-08
 61.90443    -83.0 1.519e+04 4.868e-08
 61.91928    -84.2 1.500e+04 4.683e-08
 61.92921    -83.3 1.685e+04 1.025e-07
 61.94418    -84.4 1.628e+04 8.464e-08
 61.96405    -85.0 1.541e+04 5.226e-08
 61.98393    -85.9 1.387e+04 2.444e-08
 62.00380    -87.0 1.281e+04 1.572e-08
 62.02367    -87.7 1.268e+04 1.410e-08
 62.03429    -88.1 1.265e+04 1.390e-08
 62.04422    -87.3 1.291e+04 1.427e-08
 62.06342    -87.7 1.300e+04 1.503e-08
 62.08329    -88.3 1.323e+04 1.709e-08
 62.10317    -89.1 1.344e+04 1.885e-08
 62.11831    -90.0 1.346e+04 1.961e-08
 62.12825    -88.9 1.338e+04 1.985e-08
 62.13936    -89.7 1.338e+04 1.971e-08
 62.14930    -89.0 1.357e+04 2.122e-08
 62.16279    -89.6 1.337e+04 1.815e-08
 62.18266    -90.1 1.314e+04 1.368e-08
 62.20253    -90.4 1.294e+04 1.016e-08
 62.22241    -90.5 1.282e+04 7.827e-09
 62.24228    -90.4 1.276e+04 6.243e-09
 62.25438    -90.2 1.271e+04 5.137e-09
 62.26431    -90.1 1.282e+04 5.337e-09
 62.28203    -89.7 1.282e+04 4.811e-09
 62.30190    -89.2 1.284e+04 4.684e-09
 62.32177    -88.8 1.287e+04 4.721e-09
 62.34165    -88.7 1.314e+04 5.171e-09
 62.35945    -88.9 1.333e+04 6.917e-09
 62.36939    -89.3 1.357e+04 9.205e-09
 62.38139    -89.4 1.401e+04 1.441e-08
 62.40127    -89.4 1.455e+04 2.255e-08
 62.42114    -89.4 1.508e+04 3.189e-08
 62.44101    -90.5 1.529e+04 3.550e-08
 62.46089    -91.5 1.484e+04 3.228e-08
 62.47424    -91.6 1.391e+04 1.886e-08
 62.47788    -91.2 1.414e+04 2.394e-08
 62.48440    -91.7 1.407e+04 2.372e-08
 62.50063    -91.6 1.331e+04 1.246e-08
 62.52051    -91.4 1.278e+04 6.226e-09
 62.54038    -91.2 1.247e+04 3.415e-09
 62.56025    -91.0 1.228e+04 2.272e-09
 62.57954    -90.9 1.207e+04 1.878e-09
 62.58948    -90.9 1.211e+04 1.958e-09
 62.61003    -90.5 1.198e+04 1.813e-09
 62.64988    -88.9 1.177e+04 1.733e-09
 62.68962    -87.0 1.164e+04 1.749e-09
 62.72937    -85.5 1.144e+04 2.007e-09
 62.76912    -84.0 1.124e+04 2.284e-09
 62.79982    -82.5 1.108e+04 2.537e-09
 62.81970    -83.0 1.101e+04 2.975e-09
 62.83035    -81.3 1.084e+04 2.801e-09
 62.85023    -80.5 1.086e+04 2.817e-09
 62.88836    -79.1 1.077e+04 2.661e-09
 62.92810    -77.8 1.072e+04 2.500e-09
 62.96785    -76.5 1.061e+04 2.291e-09
 63.00760    -75.2 1.041e+04 1.949e-09
 63.02985    -73.9 1.022e+04 1.608e-09
 63.04972    -73.5 1.012e+04 1.508e-09
 63.08709    -72.1 9.992e+03 1.376e-09
 63.12684    -70.5 9.863e+03 1.282e-09
 63.16658    -68.8 9.762e+03 1.245e-09
 63.20633    -67.0 9.711e+03 1.223e-09
 63.24000    -65.1 9.682e+03 1.189e-09
 63.25987    -64.7 9.611e+03 1.203e-09
 63.28582    -62.7 9.528e+03 1.103e-09
 63.32557    -60.8 9.499e+03 9.486e-10
 63.36531    -58.8 9.475e+03 8.010e-10
 63.40506    -57.0 9.442e+03 6.972e-10
 63.44481    -55.1 9.405e+03 6.430e-10
 63.47002    -53.2 9.383e+03 6.269e-10
 63.48989    -52.6 9.274e+03 5.852e-10
 63.52232    -50.7 9.288e+03 5.892e-10
 63.54220    -49.9 9.355e+03 5.954e-10
 63.56405    -48.3 9.375e+03 6.497e-10
 63.60379    -46.7 9.374e+03 7.744e-10
 63.64354    -45.0 9.439e+03 9.336e-10
 63.68017    -43.1 9.508e+03 1.048e-09
 63.70005    -42.1 9.386e+03 1.015e-09
 63.72303    -40.2 9.449e+03 1.068e-09
 63.76278    -38.3 9.501e+03 1.086e-09
 63.80253    -36.6 9.593e+03 1.130e-09
 63.84227    -35.2 9.669e+03 1.335e-09
 63.88202    -33.4 9.721e+03 1.824e-09
 63.91020    -31.4 1.002e+04 2.219e-09
 63.93007    -30.5 1.003e+04 2.671e-09
 63.96151    -29.1 1.042e+04 2.958e-09
 64.00126    -28.3 1.068e+04 2.851e-09
 64.02511    -28.3 1.061e+04 3.244e-09
 64.03495    -27.7 1.059e+04 3.031e-09
 64.05075    -27.7 1.070e+04 3.468e-09
 64.07062    -27.7 1.090e+04 4.342e-09
 64.09049    -27.8 1.121e+04 5.225e-09
 64.11037    -28.4 1.154e+04 6.869e-09
 64.13009    -29.1 1.184e+04 9.549e-09
 64.14003    -29.3 1.164e+04 9.256e-09
 64.15011    -29.5 1.174e+04 1.278e-08
 64.16999    -29.1 1.178e+04 1.487e-08
 64.18986    -28.6 1.142e+04 1.231e-08
 64.20973    -28.4 1.107e+04 8.914e-09
 64.23407    -29.3 1.043e+04 5.321e-09
 64.25404    -27.2 1.057e+04 6.320e-09
 64.27948    -26.9 9.944e+03 3.672e-09
 64.31923    -26.2 9.583e+03 3.022e-09
 64.35037    -24.9 9.406e+03 2.848e-09
 64.37025    -24.2 9.133e+03 2.025e-09
 64.39872    -22.5 9.021e+03 2.108e-09
 64.43847    -20.5 9.006e+03 2.247e-09
 64.47822    -18.8 9.109e+03 2.252e-09
 64.51796    -17.3 9.179e+03 2.379e-09
 64.55771    -15.6 9.171e+03 2.824e-09
 64.58040    -13.7 9.260e+03 2.943e-09
 64.60027    -12.9 8.999e+03 2.685e-09
 64.63720    -11.0 9.150e+03 2.758e-09
 64.67695     -9.1 9.284e+03 2.638e-09
 64.71670     -7.2 9.471e+03 2.358e-09
 64.75644     -5.3 9.712e+03 2.230e-09
 64.79055     -4.3 1.007e+04 2.354e-09
 64.81032     -3.4 9.984e+03 3.898e-09
 64.82580     -2.9 1.025e+04 4.732e-09
 64.84568     -3.0 1.080e+04 6.234e-09
 64.86555     -4.3 1.163e+04 1.026e-08
 64.88542     -4.7 1.215e+04 1.738e-08
 64.90530     -4.4 1.246e+04 2.293e-08
 64.92517     -4.4 1.308e+04 2.381e-08
 64.94504     -6.7 1.356e+04 2.254e-08
 64.95575     -9.3 1.364e+04 2.739e-08
 64.96569     -8.2 1.292e+04 1.592e-08
 64.98479    -10.4 1.306e+04 2.150e-08
 65.00466    -12.0 1.357e+04 2.941e-08
 65.02038    -13.1 1.388e+04 3.607e-08
 65.03031    -13.2 1.343e+04 3.314e-08
 65.04441    -13.4 1.353e+04 3.447e-08
 65.06428    -13.8 1.373e+04 2.441e-08
 65.08416    -15.4 1.341e+04 1.610e-08
 65.10403    -17.4 1.271e+04 1.241e-08
 65.12390    -18.3 1.246e+04 1.229e-08
 65.13539    -18.8 1.238e+04 1.324e-08
 65.14533    -18.1 1.194e+04 9.978e-09
 65.16365    -18.3 1.208e+04 1.044e-08
 65.19356    -18.4 1.230e+04 1.409e-08
 65.23072    -18.0 1.205e+04 8.728e-09
 65.25060    -16.3 1.171e+04 8.742e-09
 65.27315    -15.6 1.139e+04 5.070e-09
 65.31289    -14.9 1.109e+04 3.165e-09
 65.35264    -13.5 1.104e+04 2.051e-09
 65.39239    -12.6 1.117e+04 1.435e-09
 65.43213    -11.4 1.099e+04 1.372e-09
 65.46075     -9.6 1.086e+04 1.414e-09
 65.48062     -8.4 1.073e+04 1.319e-09
 65.51163     -6.5 1.084e+04 1.062e-09
 65.55137     -5.2 1.109e+04 8.594e-10
 65.59112     -3.8 1.107e+04 8.733e-10
 65.63087     -2.1 1.105e+04 8.945e-10
 65.65785     -0.2 1.107e+04 8.296e-10
 65.67773      0.6 1.110e+04 8.084e-10
 65.69077      2.7 1.130e+04 6.164e-10
 65.71064      3.8 1.132e+04 4.893e-10
 65.75011      5.5 1.155e+04 3.759e-10
 65.78985      7.0 1.177e+04 3.367e-10
 65.82960      8.5 1.177e+04 3.733e-10
 65.86935     10.1 1.174e+04 4.817e-10
 65.90092     11.9 1.168e+04 6.464e-10
 65.92080     12.9 1.164e+04 6.499e-10
 65.94884     14.6 1.164e+04 9.057e-10
 65.98858     16.2 1.161e+04 1.229e-09
 66.02833     17.8 1.176e+04 1.346e-09
 66.06808     19.3 1.191e+04 1.268e-09
 66.10782     20.8 1.204e+04 1.116e-09
 66.13095     22.1 1.210e+04 9.854e-10
 66.15082     22.9 1.206e+04 1.541e-09
 66.18732     24.0 1.211e+04 1.583e-09
 66.22706     25.2 1.209e+04 1.827e-09
 66.26681     26.3 1.211e+04 2.000e-09
 66.30656     27.4 1.212e+04 1.993e-09
 66.34110     28.4 1.221e+04 1.793e-09
 66.36087     28.9 1.252e+04 3.553e-09
 66.36960     29.5 1.254e+04 2.956e-09
 66.38957     30.0 1.242e+04 3.868e-09
 66.42580     30.8 1.269e+04 3.742e-09
 66.46554     31.4 1.289e+04 3.312e-09
 66.50529     32.2 1.293e+04 3.145e-09
 66.54504     32.7 1.301e+04 3.800e-09
 66.57112     33.1 1.314e+04 7.079e-09
 66.59100     33.3 1.336e+04 7.610e-09
 66.62453     33.8 1.359e+04 1.351e-08
 66.66428     33.8 1.359e+04 1.447e-08
 66.70402     34.3 1.323e+04 1.175e-08
 66.74377     35.4 1.265e+04 6.469e-09
 66.78127     36.6 1.230e+04 3.021e-09
 66.80115     37.1 1.248e+04 4.067e-09
 66.82326     38.4 1.244e+04 2.658e-09
 66.86301     39.9 1.216e+04 2.401e-09
 66.90276     41.8 1.212e+04 2.411e-09
 66.94250     43.6 1.212e+04 2.508e-09
 66.98225     45.1 1.217e+04 2.861e-09
 67.01130     46.4 1.227e+04 3.653e-09
 67.03117     46.9 1.253e+04 4.102e-09
 67.06167     48.0 1.267e+04 5.555e-09
 67.10141     50.2 1.281e+04 6.642e-09
 67.14123     50.7 1.289e+04 6.822e-09
 67.18098     51.1 1.287e+04 6.582e-09
 67.22073     51.7 1.287e+04 6.516e-09
 67.24132     52.5 1.297e+04 6.946e-09
 67.26120     52.6 1.311e+04 5.354e-09
 67.30022     53.3 1.307e+04 6.018e-09
 67.33997     53.8 1.300e+04 6.119e-09
 67.37971     54.6 1.275e+04 5.481e-09
 67.41946     55.9 1.247e+04 3.698e-09
 67.45147     57.7 1.237e+04 2.007e-09
 67.47135     57.8 1.226e+04 2.496e-09
 67.49895     59.6 1.225e+04 1.637e-09
 67.53870     61.5 1.240e+04 1.079e-09
 67.57845     63.4 1.245e+04 8.295e-10
 67.61819     65.7 1.241e+04 8.099e-10
 67.65794     68.1 1.241e+04 8.285e-10
 67.68150     70.5 1.242e+04 9.148e-10
 67.70137     70.6 1.240e+04 1.818e-09
 67.73743     72.8 1.251e+04 2.040e-09
 67.77351     75.1 1.272e+04 2.407e-09
 67.79338     75.1 1.264e+04 2.389e-09
 67.81693     76.6 1.271e+04 2.744e-09
 67.84664     77.4 1.266e+04 3.532e-09
 67.86641     78.5 1.267e+04 4.581e-09
 67.88629     79.5 1.279e+04 5.801e-09
 67.90139     80.2 1.295e+04 7.144e-09
 67.91133     80.0 1.305e+04 8.930e-09
 67.92603     80.6 1.317e+04 1.047e-08
 67.94591     81.0 1.334e+04 1.170e-08
 67.96578     81.0 1.359e+04 1.218e-08
 67.98565     80.9 1.376e+04 1.224e-08
 68.00553     80.6 1.383e+04 1.231e-08
 68.01640     80.3 1.388e+04 1.256e-08
 68.02634     79.2 1.396e+04 1.106e-08
 68.04527     78.8 1.394e+04 1.098e-08
 68.06515     78.5 1.386e+04 1.058e-08
 68.09505     78.6 1.378e+04 1.061e-08
 68.12167     78.3 1.350e+04 8.517e-09
 68.14155     76.9 1.314e+04 3.937e-09
 68.17464     76.8 1.315e+04 2.237e-09
 68.21439     77.0 1.285e+04 1.603e-09
 68.25414     78.4 1.281e+04 1.675e-09
 68.28385     79.0 1.275e+04 1.934e-09
 68.30362     79.6 1.268e+04 2.294e-09
 68.32350     80.3 1.263e+04 2.902e-09
 68.34157     80.9 1.267e+04 3.827e-09
 68.35150     80.5 1.278e+04 5.450e-09
 68.36324     81.0 1.288e+04 7.147e-09
 68.38312     81.6 1.303e+04 9.116e-09
 68.40299     81.9 1.318e+04 1.110e-08
 68.42286     82.2 1.331e+04 1.305e-08
 68.44274     82.5 1.342e+04 1.461e-08
 68.45658     82.6 1.349e+04 1.547e-08
 68.46651     82.1 1.347e+04 1.585e-08
 68.48248     82.3 1.350e+04 1.628e-08
 68.49509     82.2 1.354e+04 1.688e-08
 68.50503     82.4 1.379e+04 2.144e-08
 68.52223     82.1 1.393e+04 2.440e-08
 68.54210     81.7 1.408e+04 2.809e-08
 68.56165     81.0 1.427e+04 3.228e-08
 68.57159     79.8 1.462e+04 4.001e-08
 68.58185     78.5 1.504e+04 4.787e-08
 68.60172     77.0 1.544e+04 5.682e-08
 68.62160     75.3 1.550e+04 5.971e-08
 68.64147     73.8 1.535e+04 5.695e-08
 68.66134     73.3 1.480e+04 4.817e-08
 68.67666     73.2 1.411e+04 3.637e-08
 68.68660     72.2 1.407e+04 3.763e-08
 68.70109     72.1 1.346e+04 2.612e-08
 68.72096     71.8 1.304e+04 1.970e-08
 68.74084     71.7 1.273e+04 1.694e-08
 68.76071     72.0 1.250e+04 1.605e-08
 68.78058     72.5 1.237e+04 1.568e-08
 68.79168     73.1 1.231e+04 1.512e-08
 68.80161     72.2 1.192e+04 1.061e-08
 68.82033     72.7 1.183e+04 9.498e-09
 68.84020     73.1 1.172e+04 8.291e-09
 68.85102     73.4 1.160e+04 7.122e-09
 68.86095     73.7 1.147e+04 6.330e-09
 68.87995     74.1 1.135e+04 5.490e-09
 68.89675     74.4 1.125e+04 4.835e-09
 68.90669     73.6 1.089e+04 3.110e-09
 68.91970     74.2 1.084e+04 2.787e-09
 68.93957     74.6 1.083e+04 2.589e-09
 68.95944     75.3 1.082e+04 2.407e-09
 68.97932     75.8 1.076e+04 2.248e-09
 69.00193     76.9 1.061e+04 2.448e-09
 69.02190     76.5 1.052e+04 1.475e-09
 69.04907     77.8 1.029e+04 1.391e-09
 69.08881     79.3 1.023e+04 1.412e-09
 69.12856     80.6 1.011e+04 1.549e-09
 69.16831     81.9 1.006e+04 1.929e-09
 69.19720     83.2 1.014e+04 2.559e-09
 69.21707     83.6 1.027e+04 2.855e-09
 69.23205     84.5 1.040e+04 3.792e-09
 69.25192     83.3 1.069e+04 2.946e-09
 69.28755     84.1 1.089e+04 3.328e-09
 69.32729     84.8 1.111e+04 3.488e-09
 69.36704     85.5 1.119e+04 3.420e-09
 69.40679     86.4 1.128e+04 3.134e-09
 69.44220     87.5 1.128e+04 2.690e-09
 69.46207     86.9 1.138e+04 2.422e-09
 69.48628     88.1 1.137e+04 2.233e-09
 69.52603     89.3 1.127e+04 2.192e-09
 69.56577     90.7 1.124e+04 2.262e-09
 69.60552     92.0 1.124e+04 2.455e-09
 69.64527     93.4 1.120e+04 2.649e-09
 69.67222     94.8 1.117e+04 2.752e-09
 69.69210     93.9 1.134e+04 3.002e-09
 69.72476     95.1 1.137e+04 3.019e-09
 69.75447     95.9 1.134e+04 3.045e-09
 69.77425     96.6 1.134e+04 3.123e-09
 69.78704     97.2 1.142e+04 3.523e-09
 69.79698     96.5 1.143e+04 3.581e-09
 69.81399     96.9 1.149e+04 4.041e-09
 69.83387     97.3 1.159e+04 4.922e-09
 69.85374     97.5 1.161e+04 5.390e-09
 69.88228     98.4 1.170e+04 6.575e-09
 69.90225     96.8 1.170e+04 7.241e-09
 69.90904     96.8 1.181e+04 8.775e-09
 69.92891     96.8 1.202e+04 1.017e-08
 69.96324     96.8 1.196e+04 9.954e-09
 70.00298     97.0 1.177e+04 9.283e-09
 70.04273     97.4 1.156e+04 8.471e-09
 70.08248     97.9 1.141e+04 7.887e-09
 70.11240     98.4 1.133e+04 7.540e-09
 70.13217     97.8 1.140e+04 7.863e-09
 70.15184     97.9 1.147e+04 8.525e-09
 70.17171     97.9 1.156e+04 9.331e-09
 70.19158     97.8 1.171e+04 1.030e-08
 70.21146     97.3 1.200e+04 1.189e-08
 70.22722     96.4 1.246e+04 1.484e-08
 70.23715     94.6 1.312e+04 2.186e-08
 70.25120     93.3 1.375e+04 3.027e-08
 70.26477     91.7 1.418e+04 3.679e-08
 70.27470     91.7 1.367e+04 2.722e-08
 70.29095     89.9 1.400e+04 3.168e-08
 70.31082     87.9 1.424e+04 3.330e-08
 70.33070     85.6 1.428e+04 3.272e-08
 70.34223     83.1 1.424e+04 3.189e-08
 70.35216     79.8 1.380e+04 2.418e-08
 70.37044     77.6 1.318e+04 1.741e-08
 70.39032     75.8 1.257e+04 1.140e-08
 70.41019     73.8 1.217e+04 7.046e-09
 70.43006     71.7 1.191e+04 4.897e-09
 70.44730     69.9 1.164e+04 4.227e-09
 70.45724     67.4 1.157e+04 4.226e-09
 70.46981     66.7 1.149e+04 4.567e-09
 70.48968     66.2 1.154e+04 5.637e-09
 70.50956     65.8 1.175e+04 7.202e-09
 70.52943     65.4 1.203e+04 9.102e-09
 70.54930     64.9 1.235e+04 1.127e-08
 70.56232     64.1 1.268e+04 1.370e-08
 70.57225     61.9 1.287e+04 1.572e-08
 70.58905     60.9 1.296e+04 1.784e-08
 70.60892     59.8 1.290e+04 1.848e-08
 70.62069     58.7 1.281e+04 1.827e-08
 70.63062     59.3 1.253e+04 1.533e-08
 70.64867     58.4 1.238e+04 1.461e-08
 70.66739     57.6 1.211e+04 1.306e-08
 70.67733     55.9 1.189e+04 1.156e-08
 70.68842     55.0 1.161e+04 1.018e-08
 70.70829     54.2 1.142e+04 9.665e-09
 70.72816     53.5 1.141e+04 9.719e-09
 70.74804     52.8 1.143e+04 1.008e-08
 70.76791     51.8 1.155e+04 1.138e-08
 70.78240     50.7 1.175e+04 1.400e-08
 70.79234     49.6 1.170e+04 1.463e-08
 70.80766     48.8 1.180e+04 1.641e-08
 70.82753     48.1 1.178e+04 1.640e-08
 70.84740     47.5 1.160e+04 1.507e-08
 70.86728     47.0 1.123e+04 1.133e-08
 70.88715     46.3 1.085e+04 7.172e-09
 70.89741     44.9 1.054e+04 4.264e-09
 70.90735     43.7 1.054e+04 4.088e-09
 70.92690     42.3 9.871e+03 3.123e-09
 70.94677     41.8 9.686e+03 3.130e-09
 70.96664     41.8 9.615e+03 3.154e-09
 70.98652     42.4 9.726e+03 3.596e-09
 71.00249     42.5 9.679e+03 3.585e-09
 71.01243     42.1 9.742e+03 3.807e-09
 71.02626     42.3 9.731e+03 3.816e-09
 71.04614     42.5 9.749e+03 3.900e-09
 71.06601     42.4 9.879e+03 4.333e-09
 71.08588     42.3 1.005e+04 5.062e-09
 71.11579     41.8 1.039e+04 6.623e-09
 71.15563     41.6 1.079e+04 8.300e-09
 71.19538     40.4 1.091e+04 8.467e-09
 71.22277     39.1 1.077e+04 7.642e-09
 71.24265     38.2 1.117e+04 9.340e-09
 71.27487     37.2 1.091e+04 7.000e-09
 71.30459     37.0 1.080e+04 6.433e-09
 71.32259     36.4 1.087e+04 6.497e-09
 71.33253     36.5 1.108e+04 6.960e-09
 71.33759     35.3 1.134e+04 7.788e-09
 71.34753     34.5 1.148e+04 8.677e-09
 71.36411     33.5 1.162e+04 1.052e-08
 71.38398     32.8 1.175e+04 1.261e-08
 71.40385     32.3 1.191e+04 1.419e-08
 71.42373     31.6 1.203e+04 1.416e-08
 71.44267     30.6 1.201e+04 1.337e-08
 71.45260     30.1 1.177e+04 1.136e-08
 71.47351     29.5 1.140e+04 9.735e-09
 71.51335     29.4 1.080e+04 7.177e-09
 71.55310     29.2 1.026e+04 5.281e-09
 71.59285     29.1 9.781e+03 4.823e-09
 71.63259     29.4 9.713e+03 4.913e-09
 71.66295     29.7 9.626e+03 5.129e-09
 71.68282     29.5 9.482e+03 4.515e-09
 71.71208     29.7 9.328e+03 4.418e-09
 71.75183     29.9 9.096e+03 4.026e-09
 71.79158     30.2 8.862e+03 3.561e-09
 71.83132     30.3 8.652e+03 3.199e-09
 71.87107     30.2 8.473e+03 2.934e-09
 71.89297     29.9 8.584e+03 3.105e-09
 71.91285     29.0 9.051e+03 4.010e-09
 71.95056     28.4 9.089e+03 4.275e-09
 71.99031     27.8 8.992e+03 4.050e-09
 72.02470     27.4 8.747e+03 3.423e-09
 72.04457     25.6 8.569e+03 2.818e-09
 72.06980     24.8 8.444e+03 2.368e-09
 72.10312     23.7 8.278e+03 2.086e-09
 72.12300     21.2 8.295e+03 2.067e-09
 72.13926     21.5 8.287e+03 2.081e-09
 72.15904     19.6 8.796e+03 2.472e-09
 72.17891     15.2 9.948e+03 4.540e-09
 72.19878     10.8 1.115e+04 1.072e-08
 72.21794      7.5 1.216e+04 2.038e-08
 72.22788      5.1 1.272e+04 2.555e-08
 72.23853      1.7 1.308e+04 2.622e-08
 72.25840     -2.4 1.295e+04 2.095e-08
 72.27828     -8.4 1.265e+04 1.444e-08
 72.29815    -14.4 1.203e+04 1.138e-08
 72.31802    -17.6 1.123e+04 9.440e-09
 72.33295    -18.4 1.068e+04 6.971e-09
 72.34289    -19.2 1.055e+04 6.118e-09
 72.35777    -20.3 1.059e+04 4.060e-09
 72.37764    -22.5 1.050e+04 2.881e-09
 72.39036    -24.5 1.015e+04 2.767e-09
 72.40030    -23.9 1.007e+04 2.634e-09
 72.41739    -25.2 9.927e+03 2.794e-09
 72.43726    -25.9 9.839e+03 3.183e-09
 72.44797    -26.5 9.967e+03 3.755e-09
 72.45790    -26.4 9.921e+03 3.630e-09
 72.47701    -26.9 1.005e+04 4.162e-09
 72.49688    -27.5 1.022e+04 4.837e-09
 72.51676    -28.2 1.033e+04 5.524e-09
 72.53663    -28.8 1.044e+04 6.226e-09
 72.55304    -29.3 1.041e+04 6.529e-09
 72.56298    -29.2 1.050e+04 6.608e-09
 72.57638    -29.7 1.064e+04 6.460e-09
 72.59625    -30.3 1.066e+04 6.208e-09
 72.61612    -31.0 1.064e+04 5.992e-09
 72.63600    -31.7 1.071e+04 5.947e-09
 72.65587    -32.3 1.079e+04 6.323e-09
 72.66805    -32.8 1.089e+04 7.018e-09
 72.67799    -33.3 1.114e+04 8.714e-09
 72.69562    -33.5 1.114e+04 9.292e-09
 72.71549    -33.6 1.115e+04 1.023e-08
 72.73536    -33.5 1.126e+04 1.096e-08
 72.74628    -32.9 1.112e+04 1.202e-08
 72.75622    -32.2 1.097e+04 1.143e-08
 72.77313    -31.2 1.107e+04 1.170e-08
 72.78307    -31.9 1.089e+04 1.043e-08
 72.79498    -32.3 1.083e+04 9.857e-09
 72.82489    -31.8 1.055e+04 8.758e-09
 72.86473    -31.8 1.086e+04 1.082e-08
 72.90448    -31.6 1.116e+04 1.305e-08
 72.94423    -31.8 1.121e+04 1.297e-08
 72.98347    -32.1 1.096e+04 1.064e-08
 73.00325    -34.0 1.066e+04 8.868e-09
 73.01359    -34.6 1.058e+04 8.023e-09
 73.03346    -34.8 1.045e+04 8.298e-09
 73.05333    -34.6 1.047e+04 7.454e-09
 73.07321    -35.4 1.076e+04 8.097e-09
 73.09227    -37.4 1.159e+04 1.066e-08
 73.10220    -35.7 1.122e+04 1.015e-08
 73.10823    -39.9 1.323e+04 1.816e-08
 73.11816    -39.8 1.247e+04 1.415e-08
 73.13283    -43.6 1.333e+04 2.657e-08
 73.14768    -43.5 1.373e+04 5.226e-08
 73.15757    -43.5 1.409e+04 5.612e-08
 73.17253    -43.5 1.441e+04 6.415e-08
 73.19245    -46.6 1.609e+04 5.120e-08
 73.21232    -54.1 1.535e+04 4.759e-08
 73.22324    -57.1 1.459e+04 5.835e-08
 73.23318    -55.9 1.392e+04 4.134e-08
 73.25207    -56.9 1.414e+04 4.604e-08
 73.27194    -58.5 1.387e+04 3.443e-08
 73.29181    -61.3 1.295e+04 2.093e-08
 73.31169    -63.6 1.245e+04 1.552e-08
 73.32832    -65.4 1.221e+04 1.287e-08
 73.33825    -63.9 1.250e+04 1.533e-08
 73.35143    -66.0 1.234e+04 1.353e-08
 73.37131    -67.9 1.215e+04 1.346e-08
 73.39118    -69.2 1.223e+04 1.601e-08
 73.41105    -70.3 1.261e+04 1.929e-08
 73.43093    -71.4 1.304e+04 2.159e-08
 73.44333    -72.9 1.327e+04 2.159e-08
 73.45065    -71.7 1.364e+04 2.669e-08
 73.45812    -72.1 1.469e+04 4.753e-08
 73.47067    -73.3 1.480e+04 4.764e-08
 73.49055    -74.2 1.424e+04 3.050e-08
 73.51042    -75.5 1.323e+04 1.429e-08
 73.53029    -77.4 1.211e+04 7.294e-09
 73.54840    -79.1 1.139e+04 6.206e-09
 73.55834    -77.4 1.194e+04 6.701e-09
 73.57004    -78.8 1.145e+04 6.162e-09
 73.58991    -79.9 1.191e+04 6.893e-09
 73.60979    -80.8 1.230e+04 9.426e-09
 73.62966    -81.7 1.270e+04 1.354e-08
 73.64953    -82.5 1.315e+04 2.015e-08
 73.66342    -83.2 1.361e+04 2.888e-08
 73.67335    -82.5 1.346e+04 2.382e-08
 73.68928    -83.0 1.390e+04 3.322e-08
 73.70915    -83.6 1.436e+04 4.217e-08
 73.72903    -84.2 1.466e+04 4.719e-08
 73.74890    -85.2 1.474e+04 4.761e-08
 73.76849    -86.1 1.449e+04 3.951e-08
 73.77843    -84.5 1.504e+04 5.387e-08
 73.78865    -85.4 1.465e+04 4.100e-08
 73.80411    -86.2 1.392e+04 2.260e-08
 73.81405    -87.3 1.346e+04 1.774e-08
 73.82839    -88.8 1.247e+04 7.721e-09
 73.84827    -90.5 1.153e+04 3.907e-09
 73.86814    -91.6 1.090e+04 2.905e-09
 73.88350    -92.1 1.078e+04 2.613e-09
 73.89344    -91.2 1.094e+04 2.936e-09
 73.90789    -91.6 1.088e+04 2.872e-09
 73.92776    -91.9 1.095e+04 2.929e-09
 73.94763    -92.4 1.110e+04 3.197e-09
 73.97754    -93.1 1.143e+04 4.237e-09
 74.01738    -94.5 1.180e+04 6.181e-09
 74.05713    -95.8 1.209e+04 8.582e-09
 74.09385    -97.2 1.215e+04 9.417e-09
 74.11372    -96.8 1.245e+04 1.126e-08
 74.13662    -97.4 1.208e+04 1.067e-08
 74.16023    -97.3 1.151e+04 7.415e-09
 74.18010    -97.3 1.150e+04 8.064e-09
 74.21612    -96.9 1.096e+04 4.626e-09
 74.25586    -96.3 1.040e+04 2.623e-09
 74.29561    -95.1 1.005e+04 2.082e-09
 74.32387    -93.6 9.868e+03 1.844e-09
 74.34375    -92.5 9.878e+03 1.660e-09
 74.37510    -90.9 9.702e+03 1.476e-09
 74.41485    -89.1 9.640e+03 1.430e-09
 74.45460    -87.4 9.607e+03 1.509e-09
 74.49434    -85.9 9.706e+03 1.804e-09
 74.53403    -84.5 9.881e+03 2.313e-09
 74.57377    -82.0 9.921e+03 2.422e-09
 74.61358    -80.8 1.005e+04 2.959e-09
 74.65333    -79.8 1.008e+04 3.120e-09
 74.69307    -78.7 9.911e+03 2.717e-09
 74.73282    -77.5 9.679e+03 1.980e-09
 74.76405    -76.2 9.532e+03 1.388e-09
 74.78392    -74.9 9.583e+03 1.490e-09
 74.81231    -73.7 9.520e+03 1.090e-09
 74.85206    -72.5 9.477e+03 8.976e-10
 74.89181    -71.6 9.404e+03 1.297e-09
 74.93155    -70.3 9.243e+03 1.211e-09
 74.97130    -69.0 9.184e+03 1.101e-09
 74.99407    -67.8 9.168e+03 1.051e-09
 75.01395    -66.9 9.284e+03 1.191e-09
 75.05079    -66.0 9.355e+03 1.424e-09
 75.09054    -65.3 9.493e+03 1.837e-09
 75.13029    -64.8 9.678e+03 2.518e-09
 75.17003    -64.3 9.885e+03 3.389e-09
 75.20422    -63.7 1.003e+04 3.937e-09
 75.22410    -62.3 1.023e+04 4.531e-09
 75.24953    -61.7 1.026e+04 4.686e-09
 75.28927    -61.0 1.010e+04 3.847e-09
 75.32902    -60.0 9.833e+03 2.453e-09
 75.36877    -59.2 9.666e+03 1.459e-09
 75.40851    -58.6 9.674e+03 1.075e-09
 75.43425    -58.4 9.648e+03 1.099e-09
 75.45412    -56.9 9.870e+03 1.356e-09
 75.48801    -56.8 9.926e+03 2.076e-09
 75.52775    -56.3 1.021e+04 3.809e-09
 75.56404    -55.8 1.063e+04 5.239e-09
 75.58391    -57.2 1.055e+04 4.819e-09
 75.60724    -57.7 1.062e+04 3.835e-09
 75.64440    -58.0 1.051e+04 2.118e-09
 75.66427    -56.1 1.069e+04 2.749e-09
 75.68674    -56.4 1.052e+04 1.542e-09
 75.72648    -56.5 1.033e+04 9.579e-10
 75.76623    -56.3 1.013e+04 8.363e-10
 75.80598    -55.6 1.011e+04 8.202e-10
 75.84572    -55.1 1.020e+04 1.041e-09
 75.87442    -54.4 1.026e+04 1.458e-09
 75.89430    -53.6 1.018e+04 1.594e-09
 75.92522    -52.9 1.024e+04 1.986e-09
 75.96496    -52.6 1.025e+04 2.046e-09
 76.00471    -52.3 1.019e+04 1.862e-09
 76.04446    -51.9 1.011e+04 1.723e-09
 76.08420    -51.4 1.008e+04 1.722e-09
 76.10445    -50.8 1.021e+04 1.925e-09
 76.12432    -50.3 9.901e+03 1.777e-09
 76.16370    -49.4 9.982e+03 2.027e-09
 76.20344    -48.5 1.001e+04 2.089e-09
 76.24319    -47.5 1.001e+04 1.810e-09
 76.27588    -46.7 1.006e+04 1.363e-09
 76.29576    -47.5 1.010e+04 1.329e-09
 76.31460    -46.9 1.015e+04 1.132e-09
 76.33447    -46.1 1.006e+04 1.151e-09
 76.36243    -45.4 1.020e+04 1.219e-09
 76.40218    -44.9 1.038e+04 1.483e-09
 76.44192    -44.4 1.054e+04 1.840e-09
 76.48167    -44.0 1.074e+04 2.071e-09
 76.52141    -43.7 1.089e+04 2.098e-09
 76.54462    -43.7 1.108e+04 1.853e-09
 76.56450    -42.4 1.092e+04 1.621e-09
 76.60091    -42.8 1.103e+04 1.496e-09
 76.64065    -43.4 1.134e+04 1.573e-09
 76.68040    -44.6 1.183e+04 1.908e-09
 76.72015    -46.5 1.203e+04 2.438e-09
 76.75478    -48.3 1.194e+04 3.138e-09
 76.77465    -48.1 1.215e+04 3.978e-09
 76.79964    -50.3 1.200e+04 4.635e-09
 76.83939    -52.4 1.181e+04 4.674e-09
 76.87913    -54.0 1.153e+04 3.864e-09
 76.91888    -55.0 1.126e+04 2.753e-09
 76.95863    -55.4 1.100e+04 1.867e-09
 76.98480    -55.4 1.085e+04 1.360e-09
 76.99403    -55.0 1.084e+04 1.290e-09
 77.00760    -55.8 1.086e+04 1.113e-09
 77.03812    -54.9 1.079e+04 9.516e-10
 77.07787    -54.0 1.083e+04 8.738e-10
 77.11761    -53.6 1.092e+04 8.593e-10
 77.15736    -53.8 1.104e+04 1.046e-09
 77.19495    -54.0 1.101e+04 1.568e-09
 77.21482    -53.2 1.115e+04 1.909e-09
 77.23685    -53.5 1.137e+04 2.709e-09
 77.27660    -54.4 1.148e+04 3.053e-09
 77.31635    -55.6 1.148e+04 2.839e-09
 77.35609    -56.3 1.134e+04 2.118e-09
 77.39584    -56.5 1.126e+04 1.507e-09
 77.42497    -56.3 1.122e+04 1.069e-09
 77.44485    -56.2 1.129e+04 1.212e-09
 77.47533    -55.8 1.122e+04 8.424e-10
 77.51508    -55.3 1.107e+04 6.849e-10
 77.55482    -54.6 1.106e+04 6.389e-10
 77.59457    -53.6 1.110e+04 6.404e-10
 77.63432    -52.6 1.121e+04 7.588e-10
 77.65500    -51.8 1.129e+04 9.866e-10
 77.67487    -51.8 1.117e+04 6.788e-10
 77.69957    -51.3 1.139e+04 9.462e-10
 77.71944    -52.4 1.155e+04 1.449e-09
 77.75356    -51.8 1.162e+04 2.723e-09
 77.79330    -51.2 1.182e+04 3.828e-09
 77.83305    -50.9 1.187e+04 3.976e-09
 77.86515    -50.3 1.185e+04 2.966e-09
 77.88502    -49.4 1.172e+04 2.231e-09
 77.91254    -48.3 1.177e+04 1.664e-09
 77.95229    -47.2 1.192e+04 1.522e-09
 77.99204    -47.0 1.254e+04 2.023e-09
 78.03178    -46.7 1.265e+04 4.272e-09
 78.07153    -46.0 1.304e+04 6.828e-09
 78.09517    -47.0 1.328e+04 7.231e-09
 78.10501    -45.9 1.340e+04 1.041e-08
 78.12102    -46.3 1.353e+04 9.721e-09
 78.14089    -47.3 1.376e+04 7.753e-09
 78.16076    -48.9 1.372e+04 7.932e-09
 78.18064    -50.7 1.349e+04 9.241e-09
 78.20005    -51.8 1.358e+04 1.247e-08
 78.20999    -52.1 1.475e+04 2.631e-08
 78.22038    -52.9 1.458e+04 2.724e-08
 78.24026    -53.2 1.420e+04 2.341e-08
 78.26013    -53.3 1.377e+04 1.629e-08
 78.28000    -53.5 1.329e+04 1.081e-08
 78.30523    -53.6 1.261e+04 8.014e-09
 78.32510    -53.6 1.283e+04 8.342e-09
 78.34966    -52.8 1.262e+04 7.746e-09
 78.38950    -50.4 1.218e+04 5.981e-09
 78.41141    -48.3 1.196e+04 4.938e-09
 78.43129    -48.8 1.195e+04 4.948e-09
 78.46899    -46.9 1.187e+04 4.639e-09
 78.50874    -45.0 1.182e+04 4.772e-09
 78.53535    -43.1 1.180e+04 5.439e-09
 78.55522    -42.4 1.171e+04 4.367e-09
 78.58823    -40.4 1.166e+04 4.450e-09
 78.62798    -38.3 1.150e+04 4.353e-09
 78.66773    -36.1 1.137e+04 3.664e-09
 78.70747    -34.0 1.131e+04 2.884e-09
 78.74550    -32.2 1.127e+04 2.355e-09
 78.76537    -31.4 1.131e+04 2.322e-09
 78.78697    -29.9 1.130e+04 2.426e-09
 78.82671    -28.5 1.128e+04 2.873e-09
 78.86646    -27.2 1.132e+04 3.373e-09
 78.90621    -25.9 1.131e+04 3.610e-09
 78.94595    -24.6 1.120e+04 3.355e-09
 78.97553    -23.4 1.112e+04 2.688e-09
 78.99540    -23.5 1.111e+04 3.476e-09
 79.02545    -22.7 1.117e+04 2.537e-09
 79.06519    -22.3 1.129e+04 2.622e-09
 79.10338    -22.0 1.127e+04 4.345e-09
 79.12326    -22.8 1.126e+04 4.335e-09
 79.14469    -22.0 1.147e+04 5.035e-09
 79.18443    -21.5 1.138e+04 4.304e-09
 79.20555    -20.8 1.140e+04 2.907e-09
 79.22542    -20.2 1.147e+04 2.804e-09
 79.26393    -19.9 1.170e+04 2.090e-09
 79.30367    -19.5 1.146e+04 1.852e-09
 79.34342    -18.6 1.135e+04 1.766e-09
 79.38316    -17.4 1.138e+04 1.668e-09
 79.41570    -16.5 1.146e+04 1.830e-09
 79.43557    -15.4 1.152e+04 1.695e-09
 79.46266    -14.9 1.178e+04 2.416e-09
 79.49237    -15.2 1.181e+04 3.822e-09
 79.51215    -14.9 1.200e+04 4.143e-09
 79.53052    -14.5 1.209e+04 5.246e-09
 79.54045    -14.1 1.211e+04 5.358e-09
 79.55189    -14.1 1.214e+04 5.458e-09
 79.58180    -14.2 1.223e+04 5.442e-09
 79.62164    -14.8 1.223e+04 5.583e-09
 79.64572    -15.4 1.237e+04 5.633e-09
 79.66560    -13.3 1.243e+04 5.459e-09
 79.70114    -13.8 1.245e+04 5.228e-09
 79.73085    -14.6 1.241e+04 5.804e-09
 79.75061    -14.3 1.229e+04 5.592e-09
 79.77048    -12.9 1.241e+04 4.572e-09
 79.79037    -12.6 1.231e+04 4.056e-09
 79.81024    -12.4 1.273e+04 2.616e-09
 79.82497    -12.5 1.272e+04 2.415e-09
 79.83500    -12.9 1.278e+04 2.139e-09
 79.85588    -12.5 1.270e+04 1.848e-09
 79.87575    -10.8 1.269e+04 2.017e-09
 79.89987     -9.8 1.264e+04 1.549e-09
 79.93962     -9.3 1.294e+04 1.159e-09
 79.97936     -9.1 1.295e+04 1.172e-09
 80.01911     -8.3 1.269e+04 1.335e-09
 80.05886     -6.9 1.260e+04 1.240e-09
 80.08590     -5.8 1.258e+04 1.067e-09
 80.10577     -3.9 1.245e+04 1.038e-09
 80.13835     -2.6 1.235e+04 9.520e-10
 80.17810     -1.2 1.228e+04 8.784e-10
 80.21784      0.0 1.237e+04 8.678e-10
 80.25759      1.1 1.228e+04 1.098e-09
 80.29605      2.8 1.203e+04 1.470e-09
 80.31592      4.6 1.214e+04 9.757e-10
 80.33708      6.4 1.194e+04 1.219e-09
 80.37683      8.5 1.188e+04 1.184e-09
 80.41657     10.7 1.194e+04 9.477e-10
 80.45632     12.5 1.207e+04 7.397e-10
 80.49607     14.4 1.207e+04 6.769e-10
 80.52608     16.5 1.201e+04 6.912e-10
 80.53721     18.0 1.184e+04 6.066e-10
 80.54694     17.9 1.195e+04 5.090e-10
 80.57556     20.1 1.194e+04 5.124e-10
 80.61531     22.4 1.193e+04 5.256e-10
 80.65505     24.6 1.193e+04 5.663e-10
 80.69480     26.7 1.193e+04 6.773e-10
 80.73455     28.8 1.186e+04 9.361e-10
 80.75610     31.2 1.187e+04 1.489e-09
 80.77597     32.8 1.175e+04 9.197e-10
 80.81404     35.5 1.205e+04 1.417e-09
 80.84375     36.2 1.218e+04 1.841e-09
 80.86098     37.1 1.215e+04 2.478e-09
 80.87092     38.3 1.217e+04 1.793e-09
 80.88280     39.0 1.243e+04 2.257e-09
 80.89273     38.2 1.244e+04 2.626e-09
 80.90327     37.7 1.288e+04 4.843e-09
 80.92315     36.4 1.348e+04 1.583e-08
 80.94302     35.9 1.507e+04 5.809e-08
 80.96289     35.3 1.602e+04 9.683e-08
 80.97599     34.0 1.595e+04 8.719e-08
 80.98593     34.1 1.647e+04 1.248e-07
 81.00264     34.3 1.564e+04 6.527e-08
 81.02251     33.1 1.498e+04 1.537e-08
 81.04239     27.3 1.348e+04 4.013e-09
 81.06226     25.3 1.231e+04 3.403e-09
 81.08107     25.5 1.207e+04 3.210e-09
 81.09100     25.5 1.202e+04 2.583e-09
 81.10201     26.1 1.191e+04 2.514e-09
 81.12188     26.7 1.206e+04 2.376e-09
 81.14175     26.8 1.210e+04 2.334e-09
 81.17166     27.8 1.209e+04 2.045e-09
 81.19628     28.7 1.207e+04 1.557e-09
 81.21615     29.0 1.158e+04 1.503e-09
 81.23891     30.1 1.157e+04 1.482e-09
 81.25879     30.5 1.151e+04 1.190e-09
 81.29100     31.7 1.151e+04 1.225e-09
 81.33074     32.9 1.157e+04 1.282e-09
 81.37049     34.3 1.168e+04 1.287e-09
 81.40643     35.8 1.178e+04 1.238e-09
 81.42630     36.8 1.131e+04 1.311e-09
 81.44998     38.4 1.149e+04 1.205e-09
 81.48973     40.0 1.175e+04 1.099e-09
 81.52948     41.5 1.189e+04 1.014e-09
 81.56922     43.1 1.193e+04 1.005e-09
 81.60897     44.8 1.198e+04 1.029e-09
 81.63645     46.4 1.209e+04 1.169e-09
 81.65632     47.7 1.172e+04 1.402e-09
 81.68846     49.7 1.188e+04 1.706e-09
 81.72821     51.4 1.214e+04 2.587e-09
 81.75137     51.5 1.235e+04 4.090e-09
 81.76120     51.9 1.231e+04 3.450e-09
 81.77770     52.5 1.241e+04 4.704e-09
 81.79757     53.0 1.268e+04 6.921e-09
 81.81744     53.2 1.275e+04 7.385e-09
 81.84650     53.8 1.295e+04 8.418e-09
 81.86647     55.1 1.285e+04 8.227e-09
 81.88720     56.0 1.281e+04 7.899e-09
 81.92694     56.9 1.273e+04 6.213e-09
 81.95076     58.2 1.272e+04 3.723e-09
 81.97063     58.5 1.278e+04 3.552e-09
 82.00644     60.1 1.288e+04 1.995e-09
 82.04618     61.9 1.311e+04 1.124e-09
 82.07663     63.8 1.327e+04 7.333e-10
 82.09650     64.9 1.310e+04 8.427e-10
 82.12568     66.9 1.295e+04 6.905e-10
 82.16542     69.3 1.282e+04 6.896e-10
 82.20517     71.7 1.281e+04 7.008e-10
 82.24491     74.1 1.281e+04 7.465e-10
 82.28466     76.4 1.276e+04 8.738e-10
 82.30665     78.8 1.263e+04 1.118e-09
 82.32652     79.7 1.264e+04 9.464e-10
 82.36415     82.0 1.253e+04 1.141e-09
 82.40390     84.3 1.245e+04 1.450e-09
 82.44365     86.5 1.243e+04 1.878e-09
 82.48339     88.5 1.242e+04 2.491e-09
 82.51680     90.3 1.240e+04 3.422e-09
 82.53667     91.6 1.231e+04 3.060e-09
 82.56289     93.5 1.241e+04 4.311e-09
 82.60263     95.5 1.261e+04 6.662e-09
 82.63172     95.8 1.285e+04 8.422e-09
 82.64155     96.3 1.283e+04 8.058e-09
 82.65212     96.8 1.298e+04 9.604e-09
 82.66240     97.2 1.313e+04 1.194e-08
 82.67234     97.1 1.306e+04 1.137e-08
 82.69187     97.5 1.312e+04 1.372e-08
 82.71174     97.9 1.319e+04 1.572e-08
 82.73161     98.1 1.320e+04 1.611e-08
 82.74663     98.3 1.317e+04 1.595e-08
 82.75657     99.4 1.350e+04 2.001e-08
 82.77136     99.5 1.341e+04 1.946e-08
 82.79123     99.6 1.316e+04 1.686e-08
 82.81111     99.4 1.283e+04 1.416e-08
 82.83098     99.8 1.244e+04 1.113e-08
 82.85085    100.0 1.217e+04 9.431e-09
 82.88076    101.3 1.190e+04 7.821e-09
 82.92061    102.4 1.150e+04 5.691e-09
 82.95698    103.6 1.125e+04 4.434e-09
 82.97685    104.7 1.135e+04 5.358e-09
 83.00010    106.0 1.110e+04 4.305e-09
 83.03985    107.4 1.091e+04 3.708e-09
 83.07959    108.9 1.078e+04 3.276e-09
 83.11934    110.6 1.064e+04 3.184e-09
 83.15908    112.4 1.064e+04 3.271e-09
 83.18700    114.2 1.065e+04 3.563e-09
 83.20687    114.7 1.050e+04 2.684e-09
 83.23858    116.6 1.048e+04 2.821e-09
 83.27832    118.4 1.049e+04 3.126e-09
 83.31807    120.2 1.051e+04 3.541e-09
 83.35457    122.2 1.056e+04 3.991e-09
 83.37444    121.6 1.062e+04 4.134e-09
 83.39715    123.6 1.059e+04 4.323e-09
 83.41703    124.5 1.036e+04 3.128e-09
 83.43731    126.7 1.033e+04 3.415e-09
 83.47706    128.9 1.034e+04 3.651e-09
 83.51680    130.9 1.035e+04 3.903e-09
 83.55655    132.9 1.043e+04 4.413e-09
 83.59630    134.7 1.066e+04 5.462e-09
 83.62718    136.0 1.091e+04 6.814e-09
 83.64705    138.6 1.072e+04 6.212e-09
 83.67579    139.6 1.100e+04 7.792e-09
 83.71554    140.0 1.109e+04 8.119e-09
 83.75528    140.2 1.102e+04 7.711e-09
 83.79503    140.2 1.080e+04 6.469e-09
 83.83478    139.9 1.050e+04 5.234e-09
 83.85720    139.4 1.025e+04 4.468e-09
 83.87707    142.6 1.083e+04 6.190e-09
 83.91427    141.7 1.061e+04 5.508e-09
 83.95402    141.0 1.054e+04 5.150e-09
 83.99376    140.2 1.035e+04 4.745e-09
 84.03351    139.6 9.931e+03 3.734e-09
 84.06641    139.3 9.502e+03 2.692e-09
 84.08038    139.3 9.944e+03 3.644e-09
 84.08722    140.7 1.035e+04 4.596e-09
 84.11300    140.8 9.857e+03 3.060e-09
 84.15275    140.9 9.406e+03 2.086e-09
 84.19249    141.5 9.269e+03 1.854e-09
 84.23224    142.6 9.286e+03 1.891e-09
 84.27199    143.9 9.355e+03 2.093e-09
 84.29738    145.2 9.487e+03 2.517e-09
 84.31725    146.3 9.570e+03 2.410e-09
 84.35148    147.7 9.765e+03 2.823e-09
 84.39123    148.8 9.911e+03 3.029e-09
 84.43097    149.4 9.963e+03 2.983e-09
 84.47072    150.0 9.982e+03 2.725e-09
 84.50753    150.6 9.967e+03 2.403e-09
 84.52740    151.8 1.004e+04 2.649e-09
 84.55021    152.5 1.011e+04 2.465e-09
 84.58996    153.3 1.020e+04 2.493e-09
 84.62971    153.9 1.036e+04 2.684e-09
 84.65942    155.0 1.056e+04 3.039e-09
 84.67919    155.4 1.077e+04 3.713e-09
 84.69907    155.7 1.099e+04 4.491e-09
 84.71894    155.8 1.119e+04 5.194e-09
 84.73736    155.9 1.136e+04 5.779e-09
 84.74729    156.7 1.144e+04 6.035e-09
 84.75869    156.7 1.161e+04 6.742e-09
 84.77806    156.5 1.174e+04 7.384e-09
 84.78800    157.3 1.163e+04 6.899e-09
 84.79843    156.9 1.166e+04 7.148e-09
 84.81831    156.3 1.165e+04 7.149e-09
 84.83818    155.7 1.158e+04 7.069e-09
 84.85237    155.1 1.144e+04 6.740e-09
 84.86230    155.7 1.159e+04 7.440e-09
 84.87793    155.2 1.138e+04 6.649e-09
 84.89780    154.7 1.113e+04 5.685e-09
 84.91767    154.3 1.087e+04 4.719e-09
 84.94758    154.3 1.066e+04 3.954e-09
 84.98743    154.4 1.022e+04 3.040e-09
 85.02717    153.8 9.851e+03 2.957e-09
 85.06692    153.4 9.844e+03 3.010e-09
 85.09663    152.6 9.777e+03 2.788e-09
 85.11641    152.2 9.658e+03 2.720e-09
 85.13398    151.9 9.629e+03 2.769e-09
 85.14392    152.5 9.630e+03 2.951e-09
 85.15615    152.1 9.604e+03 3.042e-09
 85.17603    151.7 9.638e+03 3.302e-09
 85.18747    151.3 9.775e+03 3.759e-09
 85.19740    151.5 9.591e+03 3.290e-09
 85.21577    150.9 9.857e+03 4.001e-09
 85.23565    150.3 1.022e+04 5.111e-09
 85.25552    149.7 1.066e+04 6.793e-09
 85.27539    148.6 1.134e+04 9.603e-09
 85.29254    146.7 1.233e+04 1.454e-08
 85.30248    146.2 1.254e+04 1.539e-08
 85.31514    144.5 1.305e+04 1.996e-08
 85.32999    143.4 1.355e+04 2.331e-08
 85.33988    139.9 1.538e+04 3.351e-08
 85.34982    131.2 1.903e+04 9.703e-08
 85.35492    122.6 1.968e+04 4.015e-07
 85.35989    121.1 1.953e+04 6.237e-07
 85.36969    116.5 1.890e+04 9.851e-07
 85.37963    113.6 1.884e+04 9.173e-07
 85.38957    111.3 1.942e+04 5.602e-07
 85.39950    107.6 2.243e+04 1.685e-07
 85.40751     94.5 2.797e+04 2.925e-08
 85.41749     84.7 2.606e+04 1.293e-08
 85.43438     64.5 1.221e+04 1.255e-08
 85.45425     59.1 1.232e+04 1.390e-08
 85.47412     54.6 1.377e+04 2.130e-08
 85.48991     49.8 1.453e+04 3.224e-08
 85.49984     49.0 1.491e+04 4.023e-08
 85.51263     45.5 1.474e+04 4.239e-08
 85.52257     46.1 1.490e+04 4.526e-08
 85.53374     42.9 1.494e+04 4.445e-08
 85.55362     39.0 1.510e+04 4.451e-08
 85.57349     35.1 1.494e+04 4.237e-08
 85.59336     32.7 1.402e+04 3.541e-08
 85.61324     31.0 1.305e+04 2.547e-08
 85.62764     28.9 1.221e+04 1.694e-08
 85.63758     29.2 1.247e+04 1.927e-08
 85.65298     26.9 1.159e+04 1.328e-08
 85.67286     25.0 1.080e+04 1.016e-08
 85.69273     23.8 1.042e+04 8.890e-09
 85.71260     23.1 1.028e+04 8.443e-09
 85.73248     22.6 1.016e+04 8.089e-09
 85.74266     22.0 1.003e+04 7.800e-09
 85.75259     22.6 9.932e+03 7.308e-09
 85.77222     22.0 9.761e+03 6.582e-09
 85.79210     21.3 9.615e+03 6.149e-09
 85.81197     20.6 9.484e+03 6.002e-09
 85.83184     20.1 9.370e+03 5.981e-09
 85.84583     19.7 9.297e+03 5.867e-09
 85.85178     17.5 9.291e+03 5.617e-09
 85.85767     17.8 9.516e+03 6.369e-09
 85.87159     17.2 9.578e+03 6.677e-09
 85.89146     16.4 9.650e+03 6.965e-09
 85.91134     14.8 1.013e+04 8.637e-09
 85.93121      7.9 1.375e+04 1.486e-08
 85.94607     -0.1 1.717e+04 3.403e-08
 85.95595     -4.4 1.779e+04 6.290e-08
 85.96265     -6.8 1.685e+04 1.227e-07
 85.96761     -7.2 1.708e+04 1.661e-07
 85.97583     -7.3 1.694e+04 1.963e-07
 85.98576     -6.7 1.734e+04 2.086e-07
 85.99570     -7.2 1.873e+04 1.511e-07
 86.00564    -10.9 1.943e+04 9.273e-08
 86.01518    -17.4 1.787e+04 4.404e-08
 86.02015    -23.0 1.515e+04 3.008e-08
 86.03053    -25.5 1.345e+04 2.251e-08
 86.05045    -28.9 1.166e+04 1.661e-08
 86.06782    -29.9 1.142e+04 1.568e-08
 86.07776    -32.9 1.193e+04 1.695e-08
 86.09020    -35.7 1.319e+04 2.293e-08
 86.10505    -37.2 1.386e+04 3.053e-08
 86.11494    -37.1 1.381e+04 3.056e-08
 86.12488    -37.6 1.407e+04 3.486e-08
 86.13020    -38.7 1.502e+04 4.395e-08
 86.13516    -40.8 1.568e+04 5.518e-08
 86.14475    -42.4 1.676e+04 7.870e-08
 86.15469    -44.1 1.761e+04 1.083e-07
 86.16462    -45.8 1.806e+04 1.393e-07
 86.17456    -47.2 1.821e+04 1.539e-07
 86.18273    -48.4 1.814e+04 1.545e-07
 86.18770    -50.9 1.812e+04 1.408e-07
 86.19443    -52.4 1.762e+04 1.143e-07
 86.20170    -54.1 1.673e+04 8.336e-08
 86.21169    -52.4 1.635e+04 7.719e-08
 86.22931    -52.8 1.561e+04 5.461e-08
 86.24918    -53.3 1.401e+04 2.866e-08
 86.26906    -53.7 1.231e+04 1.351e-08
 86.28791    -54.2 1.089e+04 6.650e-09
 86.29784    -56.7 9.880e+03 4.223e-09
 86.30880    -56.1 9.474e+03 3.106e-09
 86.32868    -55.0 9.287e+03 2.534e-09
 86.34855    -53.8 9.272e+03 2.337e-09
 86.37846    -52.4 9.317e+03 2.257e-09
 86.41830    -49.9 9.319e+03 2.323e-09
 86.44801    -49.2 9.518e+03 2.989e-09
 86.46779    -48.1 9.673e+03 3.873e-09
 86.48766    -47.0 9.939e+03 5.012e-09
 86.50753    -46.1 1.022e+04 6.261e-09
 86.51793    -45.2 1.049e+04 7.608e-09
 86.52787    -45.8 1.079e+04 9.360e-09
 86.54728    -45.0 1.103e+04 1.046e-08
 86.55767    -44.2 1.122e+04 1.089e-08
 86.56761    -43.8 1.122e+04 1.091e-08
 86.58703    -43.1 1.131e+04 1.106e-08
 86.60690    -42.6 1.140e+04 1.024e-08
 86.62301    -42.2 1.130e+04 9.265e-09
 86.63294    -43.1 1.135e+04 9.005e-09
 86.64665    -42.8 1.127e+04 8.240e-09
 86.66652    -42.4 1.125e+04 7.631e-09
 86.69643    -41.6 1.121e+04 6.907e-09
 86.72828    -40.4 1.126e+04 6.302e-09
 86.74815    -42.0 1.159e+04 7.080e-09
 86.77602    -40.4 1.166e+04 6.583e-09
 86.80573    -38.5 1.164e+04 6.201e-09
 86.82551    -37.9 1.179e+04 6.437e-09
 86.84309    -36.7 1.188e+04 6.807e-09
 86.85303    -37.0 1.202e+04 8.321e-09
 86.86525    -35.5 1.214e+04 8.733e-09
 86.89382    -34.1 1.216e+04 8.657e-09
 86.91379    -34.4 1.221e+04 8.904e-09
 86.93500    -31.4 1.229e+04 9.257e-09
 86.95830    -28.8 1.234e+04 9.427e-09
 86.96814    -30.1 1.292e+04 1.292e-08
 86.98449    -28.8 1.301e+04 1.316e-08
 87.00437    -27.1 1.313e+04 1.360e-08
 87.02424    -26.0 1.308e+04 1.349e-08
 87.04411    -23.8 1.306e+04 1.345e-08
 87.06318    -22.4 1.304e+04 1.366e-08
 87.07312    -22.7 1.359e+04 1.981e-08
 87.08386    -20.8 1.391e+04 2.308e-08
 87.10373    -18.7 1.415e+04 2.444e-08
 87.12361    -17.0 1.434e+04 2.469e-08
 87.14348    -15.7 1.474e+04 2.646e-08
 87.16335    -14.7 1.557e+04 3.434e-08
 87.17819    -13.9 1.737e+04 4.970e-08
 87.18808    -16.2 1.948e+04 1.650e-07
 87.19803    -17.0 1.935e+04 2.620e-07
 87.20797    -17.6 1.907e+04 3.562e-07
 87.21791    -17.8 1.862e+04 4.788e-07
 87.22784    -17.5 1.852e+04 5.163e-07
 87.23560    -17.2 1.867e+04 4.778e-07
 87.24057    -17.7 1.859e+04 8.446e-07
 87.24772    -18.6 1.869e+04 6.177e-07
 87.25765    -19.4 1.880e+04 4.598e-07
 87.26445    -20.0 1.889e+04 3.671e-07
 87.26942    -19.6 1.906e+04 6.594e-07
 87.27753    -20.1 1.924e+04 4.699e-07
 87.28746    -20.5 1.906e+04 3.284e-07
 87.29311    -20.5 1.877e+04 2.358e-07
 87.29808    -21.5 1.896e+04 2.392e-07
 87.30734    -21.3 1.881e+04 1.977e-07
 87.31727    -22.1 1.833e+04 1.581e-07
 87.32721    -22.0 1.791e+04 1.387e-07
 87.34216    -22.1 1.701e+04 9.944e-08
 87.36208    -21.0 1.658e+04 8.378e-08
 87.38196    -20.1 1.667e+04 7.503e-08
 87.39828    -19.5 1.694e+04 7.538e-08
 87.40822    -20.5 1.733e+04 8.460e-08
 87.42170    -20.2 1.774e+04 1.142e-07
 87.44158    -19.4 1.827e+04 1.753e-07
 87.45574    -18.5 1.858e+04 2.791e-07
 87.46066    -18.5 1.867e+04 3.074e-07
 87.46632    -18.0 1.872e+04 3.262e-07
 87.47626    -17.3 1.874e+04 3.148e-07
 87.48619    -16.9 1.865e+04 2.657e-07
 87.50115    -17.6 1.806e+04 1.324e-07
 87.51329    -17.7 1.717e+04 7.036e-08
 87.52323    -17.5 1.758e+04 6.749e-08
 87.54094    -18.2 1.669e+04 4.525e-08
 87.56082    -18.2 1.627e+04 4.004e-08
 87.58069    -17.7 1.621e+04 4.128e-08
 87.60056    -17.3 1.623e+04 4.278e-08
 87.61550    -17.2 1.610e+04 4.366e-08
 87.62337    -17.5 1.684e+04 8.159e-08
 87.62831    -17.9 1.706e+04 9.843e-08
 87.64031    -17.5 1.709e+04 1.061e-07
 87.66018    -17.1 1.696e+04 1.085e-07
 87.68006    -16.0 1.643e+04 9.565e-08
 87.69993    -14.4 1.577e+04 6.845e-08
 87.71980    -13.5 1.493e+04 4.405e-08
 87.73338    -13.1 1.406e+04 3.161e-08
 87.74332    -13.6 1.365e+04 2.432e-08
 87.75955    -12.4 1.288e+04 1.962e-08
 87.77942    -10.4 1.219e+04 1.472e-08
 87.79930     -8.9 1.214e+04 9.749e-09
 87.81917     -8.8 1.206e+04 7.761e-09
 87.83846     -7.8 1.122e+04 8.881e-09
 87.84839     -8.2 1.111e+04 7.396e-09
 87.85892     -6.4 1.105e+04 6.974e-09
 87.87879     -5.3 1.146e+04 5.775e-09
 87.89866     -4.8 1.113e+04 6.407e-09
 87.91854     -3.8 1.094e+04 6.100e-09
 87.93841     -2.1 1.071e+04 5.469e-09
 87.95347     -0.2 1.055e+04 4.235e-09
 87.96341     -0.6 1.099e+04 4.818e-09
 87.97142      0.0 1.134e+04 3.396e-09
 87.98136      1.0 1.092e+04 2.680e-09
 87.99803      0.9 1.103e+04 2.085e-09
 88.01790      1.1 1.100e+04 2.156e-09
 88.03778      1.3 1.107e+04 2.609e-09
 88.05765      1.7 1.119e+04 3.528e-09
 88.06848      2.1 1.133e+04 5.239e-09
 88.07842      1.4 1.170e+04 9.147e-09
 88.09740      2.6 1.189e+04 1.196e-08
 88.11727      3.7 1.220e+04 1.411e-08
 88.13714      4.6 1.258e+04 1.540e-08
 88.15702      4.8 1.293e+04 1.690e-08
 88.17356      5.4 1.298e+04 1.734e-08
 88.18349      4.1 1.325e+04 1.866e-08
 88.20680      4.9 1.295e+04 1.579e-08
 88.24664      6.1 1.261e+04 1.237e-08
 88.27883      7.0 1.226e+04 8.696e-09
 88.29870      4.8 1.238e+04 7.978e-09
 88.31760      5.4 1.210e+04 6.627e-09
 88.33738      6.0 1.248e+04 1.004e-08
 88.36578      5.0 1.269e+04 1.076e-08
 88.39374      4.4 1.264e+04 1.119e-08
 88.40358      3.5 1.275e+04 1.089e-08
 88.41537      4.0 1.232e+04 1.020e-08
 88.43524      4.5 1.215e+04 8.864e-09
 88.45511      4.4 1.217e+04 6.854e-09
 88.47499      3.6 1.231e+04 5.455e-09
 88.49486      3.1 1.192e+04 5.560e-09
 88.50866      3.4 1.168e+04 5.492e-09
 88.51859      2.9 1.180e+04 6.494e-09
 88.53461      3.9 1.172e+04 5.739e-09
 88.55448      4.8 1.172e+04 4.809e-09
 88.57435      5.4 1.186e+04 4.027e-09
 88.59423      6.0 1.186e+04 3.300e-09
 88.61373      6.2 1.192e+04 3.237e-09
 88.62367      5.6 1.196e+04 3.078e-09
 88.64401      6.8 1.182e+04 2.630e-09
 88.68385      8.2 1.176e+04 2.379e-09
 88.71900      9.7 1.180e+04 2.356e-09
 88.73888      8.4 1.206e+04 2.657e-09
 88.76335     10.0 1.207e+04 3.349e-09
 88.79306     10.9 1.193e+04 3.273e-09
 88.81283     11.5 1.193e+04 3.336e-09
 88.83271     12.4 1.180e+04 3.160e-09
 88.84376     12.9 1.180e+04 3.053e-09
 88.85369     12.3 1.180e+04 3.448e-09
 88.87245     13.2 1.156e+04 2.995e-09
 88.89233     13.5 1.151e+04 2.962e-09
 88.91220     14.3 1.139e+04 3.008e-09
 88.93207     14.7 1.137e+04 3.096e-09
 88.94883     15.4 1.123e+04 3.476e-09
 88.95877     14.5 1.112e+04 3.686e-09
 88.97182     15.1 1.109e+04 3.820e-09
 89.00173     16.5 1.092e+04 4.176e-09
 89.02944     18.2 1.074e+04 3.887e-09
 89.04932     17.7 1.071e+04 3.086e-09
 89.08132     19.3 1.059e+04 2.985e-09
 89.12106     20.5 1.054e+04 3.101e-09
 89.15918     21.4 1.045e+04 3.285e-09
 89.17905     20.8 1.042e+04 3.159e-09
 89.20056     21.6 1.034e+04 3.722e-09
 89.23027     23.1 1.040e+04 4.580e-09
 89.25004     23.9 1.042e+04 4.702e-09
 89.26992     24.4 1.037e+04 4.527e-09
 89.28393     24.8 1.030e+04 4.268e-09
 89.29387     24.4 1.019e+04 3.867e-09
 89.30966     24.5 1.021e+04 3.793e-09
 89.32954     24.5 1.023e+04 3.857e-09
 89.34941     24.4 1.031e+04 4.017e-09
 89.36928     24.3 1.035e+04 4.103e-09
 89.38517     24.1 1.047e+04 4.237e-09
 89.39496     22.8 1.045e+04 3.901e-09
 89.39894     22.0 1.051e+04 4.076e-09
 89.40903     21.6 1.051e+04 4.056e-09
 89.42890     21.5 1.046e+04 3.929e-09
 89.44878     21.4 1.039e+04 3.709e-09
 89.46865     21.4 1.028e+04 3.517e-09
 89.48852     21.6 1.013e+04 3.176e-09
 89.50402     21.6 9.972e+03 2.747e-09
 89.51396     20.9 9.946e+03 2.881e-09
 89.52827     20.9 9.968e+03 2.682e-09
 89.54814     18.4 1.100e+04 3.307e-09
 89.56802     11.1 1.473e+04 1.137e-08
 89.58789      7.5 1.665e+04 6.108e-08
 89.60776      6.2 1.776e+04 1.572e-07
 89.61903      2.8 1.881e+04 2.207e-07
 89.62897      0.3 1.895e+04 2.189e-07
 89.64751     -4.1 1.830e+04 1.446e-07
 89.66237     -6.6 1.641e+04 7.644e-08
 89.67147     -7.2 1.606e+04 7.307e-08
 89.67644     -7.6 1.581e+04 6.219e-08
 89.68721     -9.2 1.440e+04 3.273e-08
 89.70713    -12.5 1.269e+04 1.438e-08
 89.72411    -15.8 1.137e+04 8.234e-09
 89.73404    -16.2 1.125e+04 8.119e-09
 89.74109    -17.5 1.072e+04 6.351e-09
 89.75103    -17.5 1.044e+04 5.243e-09
 89.76675    -17.6 1.015e+04 4.806e-09
 89.78662    -17.4 1.000e+04 4.254e-09
 89.80650    -17.4 9.938e+03 3.883e-09
 89.82637    -17.7 1.003e+04 3.519e-09
 89.83912    -18.3 1.011e+04 3.556e-09
 89.84906    -17.9 1.026e+04 4.061e-09
 89.86612    -18.7 1.040e+04 4.593e-09
 89.88599    -19.2 1.061e+04 5.320e-09
 89.90586    -19.7 1.085e+04 5.974e-09
 89.92574    -20.5 1.107e+04 6.807e-09
 89.94419    -22.1 1.162e+04 7.991e-09
 89.95413    -21.2 1.171e+04 8.002e-09
 89.96548    -23.5 1.202e+04 1.020e-08
 89.98536    -25.2 1.206e+04 1.270e-08
 90.00523    -26.0 1.208e+04 1.464e-08
 90.02510    -27.3 1.220e+04 1.396e-08
 90.04498    -30.4 1.273e+04 1.301e-08
 90.05921    -38.6 1.484e+04 1.907e-08
 90.06914    -36.3 1.424e+04 1.510e-08
 90.08472    -44.8 1.554e+04 3.430e-08
 90.09696    -47.9 1.582e+04 5.397e-08
 90.10188    -47.2 1.568e+04 5.163e-08
 90.10947    -48.4 1.616e+04 5.903e-08
 90.11662    -50.7 1.654e+04 6.432e-08
 90.12158    -50.1 1.672e+04 6.044e-08
 90.12934    -53.8 1.791e+04 5.657e-08
 90.14429    -63.7 1.891e+04 4.248e-08
 90.16421    -84.6 1.916e+04 4.716e-08
 90.17907    -93.8 1.853e+04 1.381e-07
 90.18896    -96.0 1.877e+04 1.974e-07
 90.19890    -98.3 1.882e+04 2.506e-07
 90.20883   -100.5 1.874e+04 2.552e-07
 90.21877   -102.2 1.840e+04 2.008e-07
 90.22666   -104.4 1.808e+04 1.214e-07
 90.23163   -105.3 1.801e+04 9.303e-08
 90.23864   -109.2 1.739e+04 5.143e-08
 90.24858   -112.7 1.662e+04 3.682e-08
 90.26353   -114.6 1.606e+04 3.131e-08
 90.27929   -118.7 1.533e+04 2.812e-08
 90.28923   -123.6 1.637e+04 2.747e-08
 90.30333   -126.6 1.676e+04 4.851e-08
 90.32320   -127.9 1.794e+04 8.310e-08
 90.34307   -128.7 1.875e+04 1.138e-07
 90.36295   -129.8 1.935e+04 1.445e-07
 90.37780   -131.3 1.979e+04 1.532e-07
 90.38769   -132.1 1.995e+04 1.591e-07
 90.39421   -133.8 1.968e+04 1.695e-07
 90.39918   -136.4 1.909e+04 1.353e-07
 90.40756   -137.1 1.887e+04 1.319e-07
 90.41750   -138.1 1.829e+04 1.264e-07
 90.42744   -138.6 1.798e+04 1.176e-07
 90.43737   -139.1 1.764e+04 1.061e-07
 90.44675   -139.6 1.739e+04 9.337e-08
 90.45172   -141.4 1.608e+04 5.560e-08
 90.45284   -141.9 1.571e+04 4.895e-08
 90.45781   -141.9 1.609e+04 5.479e-08
 90.46718   -142.7 1.577e+04 4.967e-08
 90.47712   -143.5 1.547e+04 4.661e-08
 90.48706   -143.8 1.524e+04 4.519e-08
 90.49699   -143.9 1.511e+04 4.480e-08
 90.50425   -143.7 1.503e+04 4.493e-08
 90.50922   -144.2 1.425e+04 3.410e-08
 90.51687   -143.7 1.429e+04 3.572e-08
 90.52680   -143.2 1.431e+04 3.688e-08
 90.54176   -142.6 1.440e+04 3.842e-08
 90.56168   -141.2 1.443e+04 3.937e-08
 90.58155   -139.7 1.429e+04 3.881e-08
 90.60143   -138.1 1.401e+04 3.602e-08
 90.61439   -136.6 1.379e+04 3.319e-08
 90.62433   -136.9 1.341e+04 2.705e-08
 90.64117   -135.4 1.337e+04 2.583e-08
 90.66105   -134.1 1.338e+04 2.545e-08
 90.68092   -133.1 1.360e+04 2.655e-08
 90.70079   -132.5 1.398e+04 2.931e-08
 90.71947   -131.9 1.430e+04 3.304e-08
 90.72941   -131.6 1.387e+04 2.673e-08
 90.74054   -131.0 1.427e+04 3.233e-08
 90.75540   -130.5 1.455e+04 3.741e-08
 90.76528   -130.5 1.480e+04 4.139e-08
 90.77522   -130.5 1.521e+04 5.043e-08
 90.78185   -130.3 1.554e+04 5.940e-08
 90.78681   -129.9 1.526e+04 5.112e-08
 90.79509   -129.6 1.557e+04 6.047e-08
 90.80379   -129.2 1.574e+04 6.756e-08
 90.80876   -128.8 1.556e+04 6.019e-08
 90.81497   -128.3 1.568e+04 6.450e-08
 90.82490   -127.7 1.574e+04 6.581e-08
 90.83438   -127.1 1.576e+04 6.599e-08
 90.83935   -126.9 1.580e+04 6.739e-08
 90.84478   -126.4 1.582e+04 6.670e-08
 90.85471   -125.9 1.571e+04 6.231e-08
 90.86465   -125.5 1.553e+04 5.638e-08
 90.87459   -125.3 1.535e+04 5.076e-08
 90.88452   -125.1 1.526e+04 4.768e-08
 90.89948   -124.8 1.543e+04 4.820e-08
 90.91940   -124.5 1.485e+04 3.627e-08
 90.93927   -124.5 1.420e+04 2.746e-08
 90.94949   -124.5 1.379e+04 2.410e-08
 90.95943   -124.8 1.493e+04 3.019e-08
 90.97902   -124.7 1.444e+04 2.774e-08
 90.99889   -124.0 1.409e+04 2.660e-08
 91.01877   -122.8 1.397e+04 2.646e-08
 91.03864   -121.4 1.408e+04 2.711e-08
 91.05457   -120.0 1.413e+04 2.735e-08
 91.06451   -120.7 1.456e+04 2.891e-08
 91.07839   -119.3 1.475e+04 2.890e-08
 91.09826   -118.1 1.502e+04 2.943e-08
 91.11813   -116.9 1.529e+04 3.045e-08
 91.13800   -115.8 1.559e+04 3.238e-08
 91.15484   -115.0 1.599e+04 3.611e-08
 91.16478   -111.1 1.629e+04 3.547e-08
 91.16958   -110.6 1.679e+04 3.848e-08
 91.17952   -111.4 1.742e+04 4.562e-08
 91.19762   -111.4 1.814e+04 4.994e-08
 91.21750   -114.8 2.090e+04 7.136e-08
 91.23235   -117.9 2.157e+04 1.010e-07
 91.24224   -121.5 2.585e+04 2.172e-07
 91.25218   -128.2 1.968e+04 3.633e-06
 91.25961   -133.8 1.621e+04 2.388e-05
 91.26455   -140.4 1.400e+04 2.088e-04
 91.26952   -151.5 1.270e+04 7.373e-04
 91.27449   -167.6 1.311e+04 4.905e-04
 91.27946   -184.1 1.650e+04 2.200e-05
 91.28442   -197.2 1.873e+04 4.363e-06
 91.28939   -202.1 2.045e+04 1.054e-06
 91.29436   -204.1 2.089e+04 6.612e-07
 91.30184   -206.5 2.095e+04 4.260e-07
 91.31180   -210.8 2.037e+04 1.056e-07
 91.32173   -214.9 1.668e+04 2.753e-08
 91.33167   -217.0 1.350e+04 1.639e-08
 91.33703   -217.4 1.273e+04 1.444e-08
 91.33807   -217.5 1.311e+04 1.533e-08
 91.34264   -217.4 1.323e+04 1.549e-08
 91.35656   -217.9 1.266e+04 1.372e-08
 91.37648   -218.0 1.197e+04 1.076e-08
 91.38967   -218.4 1.111e+04 8.329e-09
 91.39961   -218.8 1.194e+04 1.094e-08
 91.41623   -219.2 1.116e+04 8.955e-09
 91.43610   -219.4 1.080e+04 8.409e-09
 91.45598   -219.4 1.072e+04 8.256e-09
 91.47585   -219.6 1.074e+04 8.215e-09
 91.49474   -220.3 1.081e+04 8.618e-09
 91.50468   -221.2 1.117e+04 1.106e-08
 91.51076   -224.0 1.219e+04 1.235e-08
 91.52070   -231.0 2.021e+04 3.095e-08
 91.53045   -231.3 1.934e+04 3.789e-08
 91.54034   -232.6 1.908e+04 6.385e-08
 91.55028   -233.4 1.871e+04 9.893e-08
 91.55712   -234.0 1.867e+04 1.345e-07
 91.56209   -234.0 1.896e+04 1.526e-07
 91.57015   -234.3 1.890e+04 1.845e-07
 91.58009   -234.5 1.888e+04 1.992e-07
 91.59002   -234.8 1.885e+04 1.998e-07
 91.59996   -235.0 1.874e+04 1.921e-07
 91.60966   -235.1 1.858e+04 1.773e-07
 91.61463   -235.1 1.858e+04 1.798e-07
 91.61983   -235.2 1.843e+04 1.639e-07
 91.63479   -235.4 1.821e+04 1.419e-07
 91.65471   -234.3 1.736e+04 1.002e-07
 91.67458   -233.4 1.649e+04 7.224e-08
 91.69446   -232.8 1.587e+04 5.610e-08
 91.71433   -232.6 1.565e+04 4.878e-08
 91.72477   -232.5 1.585e+04 4.489e-08
 91.73471   -231.5 1.549e+04 4.351e-08
 91.75408   -231.7 1.584e+04 4.410e-08
 91.77395   -232.3 1.626e+04 4.575e-08
 91.79382   -233.3 1.638e+04 4.653e-08
 91.81370   -234.0 1.635e+04 4.682e-08
 91.82984   -234.0 1.584e+04 4.399e-08
 91.83978   -232.5 1.570e+04 4.255e-08
 91.85344   -232.3 1.516e+04 3.500e-08
 91.86669   -231.8 1.444e+04 2.637e-08
 91.87662   -232.8 1.490e+04 3.929e-08
 91.89319   -231.8 1.395e+04 2.467e-08
 91.91306   -230.8 1.312e+04 1.595e-08
 91.93294   -229.7 1.247e+04 1.101e-08
 91.94486   -228.5 1.199e+04 8.176e-09
 91.95479   -227.7 1.213e+04 9.350e-09
 91.97268   -226.5 1.173e+04 7.212e-09
 91.99256   -225.1 1.142e+04 5.692e-09
 92.01243   -223.7 1.117e+04 4.587e-09
 92.03230   -222.2 1.094e+04 3.768e-09
 92.04993   -220.5 1.076e+04 3.202e-09
 92.05987   -220.0 1.075e+04 3.310e-09
 92.07205   -218.2 1.065e+04 2.916e-09
 92.10196   -216.9 1.059e+04 2.732e-09
 92.14180   -214.8 1.048e+04 2.560e-09
 92.18155   -212.4 1.033e+04 2.448e-09
 92.22129   -210.0 1.025e+04 2.464e-09
 92.26028   -207.3 1.017e+04 2.466e-09
 92.28015   -206.5 1.004e+04 2.262e-09
 92.30079   -204.4 1.005e+04 2.534e-09
 92.34053   -202.3 1.013e+04 3.015e-09
 92.38028   -200.4 1.023e+04 3.590e-09
 92.42003   -198.7 1.029e+04 4.070e-09
 92.45977   -197.1 1.027e+04 4.331e-09
 92.49030   -195.5 1.019e+04 4.528e-09
 92.51018   -194.4 1.001e+04 4.231e-09
 92.53927   -192.7 9.994e+03 4.521e-09
 92.56879   -190.9 9.922e+03 4.665e-09
 92.58866   -192.8 1.059e+04 7.338e-09
 92.61876   -191.1 1.046e+04 7.038e-09
 92.65850   -189.3 1.037e+04 6.803e-09
 92.69825   -187.5 1.036e+04 6.706e-09
 92.72033   -185.6 1.044e+04 6.846e-09
 92.74020   -185.5 1.030e+04 6.482e-09
 92.77774   -183.7 1.042e+04 6.850e-09
 92.81749   -181.9 1.054e+04 7.478e-09
 92.84720   -179.6 1.035e+04 6.956e-09
 92.86698   -178.9 1.040e+04 7.190e-09
 92.88685   -178.0 1.046e+04 7.469e-09
 92.90673   -177.5 1.047e+04 7.567e-09
 92.92451   -176.7 1.045e+04 7.601e-09
 92.93445   -178.4 1.096e+04 9.789e-09
 92.94022   -178.2 1.115e+04 1.049e-08
 92.95016   -178.1 1.102e+04 1.064e-08
 92.96635   -178.2 1.168e+04 1.281e-08
 92.98622   -178.6 1.257e+04 1.679e-08
 93.00609   -179.2 1.357e+04 2.404e-08
 93.02596   -179.8 1.447e+04 3.489e-08
 93.04530   -180.7 1.516e+04 4.730e-08
 93.05523   -181.1 1.685e+04 9.676e-08
 93.06571   -183.3 1.752e+04 1.396e-07
 93.08558   -186.3 1.765e+04 1.529e-07
 93.10546   -189.8 1.745e+04 1.371e-07
 93.12533   -193.0 1.704e+04 1.055e-07
 93.14520   -195.5 1.653e+04 7.896e-08
 93.16031   -198.2 1.586e+04 6.043e-08
 93.17024   -201.5 1.628e+04 7.586e-08
 93.18495   -203.8 1.509e+04 5.065e-08
 93.20482   -205.4 1.428e+04 3.549e-08
 93.22470   -206.9 1.381e+04 2.625e-08
 93.24457   -208.8 1.356e+04 2.077e-08
 93.26444   -211.1 1.371e+04 1.864e-08
 93.27532   -213.8 1.426e+04 1.887e-08
 93.28137   -218.6 1.532e+04 3.177e-08
 93.29037   -219.0 1.479e+04 2.778e-08
 93.30419   -220.9 1.498e+04 3.265e-08
 93.32406   -222.7 1.497e+04 3.753e-08
 93.34394   -224.3 1.478e+04 4.080e-08
 93.36381   -225.7 1.469e+04 4.166e-08
 93.38040   -226.9 1.440e+04 4.197e-08
 93.39033   -229.0 1.362e+04 3.613e-08
 93.40356   -229.5 1.313e+04 3.037e-08
 93.42343   -230.0 1.265e+04 2.522e-08
 93.44330   -230.3 1.225e+04 2.154e-08
 93.46318   -230.5 1.197e+04 1.902e-08
 93.48305   -230.6 1.183e+04 1.761e-08
 93.49541   -230.5 1.169e+04 1.664e-08
 93.50534   -231.1 1.140e+04 1.493e-08
 93.52280   -230.8 1.131e+04 1.436e-08
 93.54267   -230.3 1.120e+04 1.357e-08
 93.56254   -229.9 1.108e+04 1.257e-08
 93.58242   -229.5 1.097e+04 1.142e-08
 93.60048   -229.0 1.085e+04 1.011e-08
 93.61042   -229.2 1.061e+04 8.701e-09
 93.62216   -228.9 1.052e+04 7.750e-09
 93.63636   -228.4 1.044e+04 6.936e-09
 93.64629   -228.1 1.033e+04 6.140e-09
 93.66191   -227.7 1.023e+04 5.432e-09
 93.68178   -227.1 1.014e+04 4.889e-09
 93.70166   -226.4 1.006e+04 4.439e-09
 93.71550   -225.5 9.995e+03 4.032e-09
 93.72543   -224.9 9.770e+03 3.267e-09
 93.74140   -223.6 9.748e+03 3.013e-09
 93.76128   -222.1 9.779e+03 2.847e-09
 93.78115   -221.2 9.806e+03 2.738e-09
 93.80102   -219.7 9.898e+03 2.636e-09
 93.82057   -219.0 9.939e+03 2.587e-09
 93.83060   -219.8 9.869e+03 2.482e-09
 93.85090   -217.9 9.925e+03 2.282e-09
 93.89065   -215.6 9.960e+03 2.108e-09
 93.93039   -213.1 1.002e+04 1.983e-09
 93.97014   -210.4 1.009e+04 1.914e-09
 93.99247   -207.6 1.017e+04 1.890e-09
 94.01235   -207.8 1.007e+04 1.794e-09
 94.04085   -205.1 1.032e+04 1.842e-09
 94.06073   -205.6 1.016e+04 1.723e-09
 94.08938   -203.1 1.031e+04 1.730e-09
 94.12913   -200.6 1.044e+04 1.717e-09
 94.16887   -198.0 1.055e+04 1.675e-09
 94.20862   -195.4 1.063e+04 1.631e-09
 94.24837   -192.6 1.073e+04 1.608e-09
 94.27088   -189.8 1.100e+04 1.614e-09
 94.29075   -190.3 1.069e+04 1.324e-09
 94.32786   -187.5 1.097e+04 1.483e-09
 94.36761   -185.0 1.127e+04 1.776e-09
 94.39732   -183.1 1.145e+04 1.956e-09
 94.41709   -183.0 1.156e+04 2.088e-09
 94.43697   -182.5 1.181e+04 2.645e-09
 94.45684   -182.4 1.205e+04 3.796e-09
 94.47671   -182.3 1.233e+04 5.839e-09
 94.49077   -182.1 1.265e+04 9.010e-09
 94.50071   -181.3 1.236e+04 5.812e-09
 94.51646   -181.1 1.264e+04 8.615e-09
 94.53633   -180.9 1.294e+04 1.231e-08
 94.55621   -180.7 1.325e+04 1.670e-08
 94.57608   -180.5 1.356e+04 2.123e-08
 94.59585   -180.3 1.386e+04 2.485e-08
 94.60578   -179.3 1.326e+04 1.606e-08
 94.61583   -179.1 1.352e+04 1.814e-08
 94.63570   -179.1 1.373e+04 1.910e-08
 94.65557   -179.3 1.386e+04 1.948e-08
 94.67545   -179.4 1.397e+04 1.985e-08
 94.69419   -179.5 1.411e+04 2.072e-08
 94.70412   -179.7 1.442e+04 2.572e-08
 94.71086   -179.9 1.455e+04 2.766e-08
 94.72079   -179.0 1.432e+04 2.255e-08
 94.73507   -179.1 1.448e+04 2.606e-08
 94.75494   -179.4 1.453e+04 2.756e-08
 94.77481   -179.6 1.449e+04 2.648e-08
 94.79469   -179.6 1.429e+04 2.308e-08
 94.81456   -179.5 1.411e+04 1.817e-08
 94.82587   -179.3 1.394e+04 1.409e-08
 94.83581   -178.6 1.395e+04 1.510e-08
 94.85431   -178.2 1.377e+04 1.200e-08
 94.87418   -177.6 1.364e+04 1.025e-08
 94.89405   -176.8 1.355e+04 9.517e-09
 94.91392   -175.8 1.353e+04 9.316e-09
 94.93095   -174.7 1.352e+04 9.298e-09
 94.94088   -174.2 1.341e+04 8.932e-09
 94.95367   -173.1 1.344e+04 8.969e-09
 94.97354   -172.0 1.351e+04 9.267e-09
 94.99342   -170.9 1.356e+04 9.790e-09
 95.01329   -169.7 1.361e+04 1.025e-08
 95.03316   -168.7 1.363e+04 1.039e-08
 95.04596   -167.6 1.361e+04 1.040e-08
 95.05296   -167.0 1.362e+04 1.052e-08
 95.06004   -167.0 1.346e+04 8.117e-09
 95.07291   -165.8 1.342e+04 8.137e-09
 95.09278   -164.7 1.334e+04 7.937e-09
 95.11266   -163.5 1.326e+04 7.533e-09
 95.13253   -162.4 1.317e+04 7.162e-09
 95.15103   -161.3 1.308e+04 6.916e-09
 95.16097   -160.6 1.323e+04 7.578e-09
 95.17228   -159.5 1.316e+04 7.436e-09
 95.19215   -158.4 1.314e+04 7.397e-09
 95.21202   -157.3 1.312e+04 7.487e-09
 95.23190   -156.4 1.311e+04 7.768e-09
 95.25177   -155.3 1.310e+04 8.224e-09
 95.26605   -154.3 1.311e+04 8.826e-09
 95.27598   -153.8 1.315e+04 8.899e-09
 95.29152   -152.8 1.319e+04 9.667e-09
 95.31139   -151.9 1.325e+04 1.049e-08
 95.33126   -150.9 1.330e+04 1.123e-08
 95.35114   -150.0 1.331e+04 1.156e-08
 95.37101   -149.0 1.327e+04 1.143e-08
 95.38106   -148.1 1.313e+04 1.037e-08
 95.39099   -147.9 1.330e+04 1.194e-08
 95.40603   -147.0 1.312e+04 1.071e-08
 95.41597   -146.4 1.297e+04 8.372e-09
 95.43063   -145.5 1.278e+04 7.307e-09
 95.45050   -144.5 1.256e+04 6.313e-09
 95.48041   -142.9 1.242e+04 5.401e-09
 95.52025   -139.7 1.211e+04 4.592e-09
 95.56000   -136.5 1.197e+04 3.943e-09
 95.59140   -133.4 1.198e+04 3.439e-09
 95.61128   -132.9 1.199e+04 3.705e-09
 95.63949   -129.6 1.203e+04 3.138e-09
 95.67924   -126.4 1.204e+04 2.598e-09
 95.71899   -123.2 1.200e+04 2.191e-09
 95.75873   -119.8 1.199e+04 1.975e-09
 95.79848   -116.4 1.199e+04 1.924e-09
 95.82143   -113.1 1.209e+04 2.045e-09
 95.84130   -112.4 1.203e+04 1.862e-09
 95.87797   -109.1 1.210e+04 2.071e-09
 95.91772   -105.9 1.220e+04 2.399e-09
 95.95747   -102.8 1.228e+04 2.774e-09
 95.99721    -99.7 1.234e+04 3.095e-09
 96.03158    -96.7 1.248e+04 3.248e-09
 96.05145    -95.7 1.222e+04 2.651e-09
 96.07671    -92.8 1.232e+04 2.893e-09
 96.10813    -90.0 1.245e+04 3.041e-09
 96.12800    -88.9 1.252e+04 3.064e-09
 96.15620    -86.4 1.262e+04 3.135e-09
 96.19595    -84.1 1.260e+04 3.072e-09
 96.23569    -82.1 1.254e+04 2.891e-09
 96.26160    -80.2 1.251e+04 2.618e-09
 96.28148    -78.5 1.251e+04 2.625e-09
 96.31519    -76.7 1.251e+04 2.198e-09
 96.35493    -75.2 1.254e+04 1.791e-09
 96.39468    -73.8 1.260e+04 1.615e-09
 96.43442    -72.5 1.263e+04 1.574e-09
 96.47175    -71.4 1.272e+04 1.739e-09
 96.49163    -70.4 1.288e+04 1.885e-09
 96.51392    -69.7 1.301e+04 2.298e-09
 96.55366    -68.9 1.299e+04 2.711e-09
 96.59341    -68.0 1.286e+04 2.856e-09
 96.63316    -66.9 1.277e+04 2.546e-09
 96.67290    -65.7 1.273e+04 2.000e-09
 96.70178    -64.4 1.276e+04 1.565e-09
 96.72165    -65.6 1.276e+04 1.486e-09
 96.75240    -64.0 1.266e+04 1.312e-09
 96.79214    -62.1 1.252e+04 1.291e-09
 96.81997    -59.9 1.232e+04 1.412e-09
 96.83985    -59.0 1.254e+04 1.519e-09
 96.87164    -56.6 1.229e+04 1.510e-09
 96.91138    -53.8 1.221e+04 1.599e-09
 96.93180    -51.1 1.219e+04 1.728e-09
 96.95168    -53.3 1.282e+04 2.103e-09
 96.99088    -50.4 1.274e+04 2.551e-09
 97.03062    -47.4 1.270e+04 3.106e-09
 97.07037    -44.6 1.291e+04 3.330e-09
 97.11012    -41.6 1.313e+04 3.564e-09
 97.14195    -38.9 1.331e+04 3.894e-09
 97.16173    -40.9 1.327e+04 5.477e-09
 97.17570    -39.4 1.332e+04 6.805e-09
 97.18564    -39.2 1.327e+04 6.895e-09
 97.19935    -38.8 1.328e+04 7.117e-09
 97.21922    -37.2 1.321e+04 8.679e-09
 97.23910    -37.0 1.326e+04 8.829e-09
 97.25677    -35.4 1.311e+04 1.001e-08
 97.26671    -36.8 1.312e+04 1.012e-08
 97.27884    -36.2 1.316e+04 1.003e-08
 97.29872    -35.8 1.253e+04 1.026e-08
 97.31859    -34.7 1.252e+04 8.852e-09
 97.33846    -33.9 1.217e+04 7.957e-09
 97.35834    -33.1 1.220e+04 6.869e-09
 97.37178    -32.5 1.190e+04 6.200e-09
 97.38172    -33.9 1.168e+04 4.284e-09
 97.39808    -33.0 1.175e+04 3.884e-09
 97.41796    -32.4 1.161e+04 3.999e-09
 97.43783    -31.4 1.138e+04 4.192e-09
 97.45770    -30.4 1.150e+04 3.927e-09
 97.47686    -29.6 1.122e+04 4.090e-09
 97.48680    -30.7 1.115e+04 3.484e-09
 97.49745    -28.6 1.119e+04 2.884e-09
 97.51732    -28.5 1.115e+04 2.822e-09
 97.53172    -26.0 1.109e+04 2.437e-09
 97.55169    -25.7 1.106e+04 2.551e-09
 97.58213    -23.6 1.092e+04 2.029e-09
 97.60200    -24.6 1.078e+04 1.505e-09
 97.62682    -22.8 1.066e+04 1.336e-09
 97.66657    -20.6 1.062e+04 1.341e-09
 97.70631    -18.3 1.061e+04 1.399e-09
 97.74606    -15.9 1.060e+04 1.549e-09
 97.78581    -13.3 1.060e+04 1.695e-09
 97.81215    -10.8 1.063e+04 1.811e-09
 97.83203    -11.0 1.065e+04 1.634e-09
 97.86530     -8.5 1.070e+04 1.742e-09
 97.90505     -6.1 1.075e+04 1.936e-09
 97.94479     -4.0 1.086e+04 2.322e-09
 97.98454     -2.3 1.095e+04 2.816e-09
 98.01425     -1.3 1.096e+04 3.350e-09
 98.03205     -0.4 1.099e+04 3.746e-09
 98.04198     -0.7 1.108e+04 3.891e-09
 98.05390      0.2 1.115e+04 4.119e-09
 98.07377      0.8 1.125e+04 4.408e-09
 98.09365      1.2 1.143e+04 5.003e-09
 98.11352      1.2 1.164e+04 6.083e-09
 98.13339      1.0 1.187e+04 7.892e-09
 98.14706      0.4 1.232e+04 1.145e-08
 98.15700      0.1 1.207e+04 9.584e-09
 98.17314     -1.0 1.263e+04 1.412e-08
 98.19301     -2.6 1.348e+04 2.428e-08
 98.21289     -4.6 1.428e+04 3.847e-08
 98.23276     -6.7 1.489e+04 5.322e-08
 98.24347     -8.5 1.505e+04 5.538e-08
 98.25290     -8.1 1.509e+04 5.731e-08
 98.26207     -7.3 1.449e+04 4.454e-08
 98.27251     -8.9 1.484e+04 4.611e-08
 98.29238    -11.8 1.540e+04 5.088e-08
 98.31225    -14.9 1.597e+04 6.681e-08
 98.33213    -17.0 1.585e+04 6.884e-08
 98.35200    -17.5 1.513e+04 4.808e-08
 98.36715    -17.6 1.439e+04 2.124e-08
 98.37708    -16.7 1.454e+04 1.952e-08
 98.39175    -18.6 1.414e+04 7.356e-09
 98.41162    -19.9 1.327e+04 5.126e-09
 98.43149    -19.5 1.308e+04 4.567e-09
 98.45137    -18.5 1.307e+04 4.267e-09
 98.47124    -17.5 1.322e+04 4.126e-09
 98.48216    -16.8 1.327e+04 4.145e-09
 98.49209    -16.3 1.320e+04 4.059e-09
 98.51099    -15.6 1.324e+04 4.166e-09
 98.53086    -14.9 1.322e+04 4.237e-09
 98.55073    -14.3 1.322e+04 4.364e-09
 98.57061    -13.6 1.321e+04 4.435e-09
 98.58723    -13.0 1.325e+04 4.493e-09
 98.59614    -12.5 1.327e+04 4.491e-09
 98.59939    -12.0 1.321e+04 4.261e-09
 98.61035    -11.3 1.316e+04 3.962e-09
 98.63023    -10.5 1.313e+04 3.527e-09
 98.65010     -9.7 1.314e+04 2.984e-09
 98.66997     -9.2 1.315e+04 2.419e-09
 98.69241     -8.6 1.342e+04 2.089e-09
 98.71238     -7.8 1.345e+04 2.100e-09
 98.73972     -6.4 1.354e+04 2.044e-09
 98.77947     -5.2 1.367e+04 2.218e-09
 98.80742     -3.7 1.356e+04 2.591e-09
 98.81726     -4.2 1.383e+04 2.617e-09
 98.82896     -3.6 1.390e+04 3.111e-09
 98.84883     -3.0 1.412e+04 3.663e-09
 98.86870     -3.1 1.456e+04 4.816e-09
 98.88858     -4.0 1.471e+04 8.830e-09
 98.90845     -5.2 1.485e+04 1.948e-08
 98.92233     -6.1 1.510e+04 4.110e-08
 98.93227     -7.1 1.504e+04 4.278e-08
 98.94537     -6.9 1.505e+04 3.966e-08
 98.95531     -6.9 1.531e+04 5.197e-08
 98.96807     -6.9 1.540e+04 3.921e-08
 98.98794     -7.3 1.541e+04 2.323e-08
 99.00782     -8.2 1.511e+04 1.032e-08
 99.02741     -9.4 1.485e+04 5.950e-09
 99.03735     -9.9 1.461e+04 4.736e-09
 99.04756     -8.9 1.435e+04 4.030e-09
 99.06744     -7.8 1.432e+04 3.657e-09
 99.08731     -6.6 1.427e+04 3.604e-09
 99.10718     -5.5 1.424e+04 3.622e-09
 99.12706     -4.4 1.413e+04 3.603e-09
 99.14242     -3.2 1.412e+04 3.646e-09
 99.15236     -2.8 1.434e+04 3.128e-09
 99.16680     -1.6 1.424e+04 3.280e-09
 99.18668     -0.5 1.420e+04 3.388e-09
 99.20655      0.8 1.407e+04 3.532e-09
 99.22642      2.0 1.407e+04 3.708e-09
 99.24630      3.1 1.399e+04 4.004e-09
 99.25743      4.1 1.399e+04 4.336e-09
 99.26737      4.5 1.414e+04 4.203e-09
 99.28604      5.7 1.403e+04 4.828e-09
 99.30129      6.5 1.401e+04 5.719e-09
 99.31123      6.9 1.407e+04 5.993e-09
 99.32579      7.9 1.406e+04 7.536e-09
 99.34566      8.3 1.409e+04 8.012e-09
 99.36251      9.0 1.404e+04 9.083e-09
 99.37245      9.7 1.414e+04 9.447e-09
 99.38541     10.2 1.417e+04 1.049e-08
 99.40528     10.5 1.417e+04 1.169e-08
 99.42516     10.7 1.408e+04 1.185e-08
 99.44503     11.2 1.391e+04 1.104e-08
 99.46490     11.9 1.370e+04 8.884e-09
 99.47752     12.7 1.355e+04 6.386e-09
 99.48746     13.2 1.366e+04 7.526e-09
 99.50465     14.0 1.357e+04 5.269e-09
 99.52452     14.9 1.361e+04 3.664e-09
 99.54440     15.5 1.369e+04 2.820e-09
 99.56427     16.4 1.344e+04 2.604e-09
 99.58260     17.2 1.341e+04 2.624e-09
 99.59253     17.7 1.355e+04 2.959e-09
 99.60402     18.7 1.355e+04 3.076e-09
 99.62389     19.6 1.360e+04 3.371e-09
 99.64376     20.5 1.362e+04 3.744e-09
 99.65722     21.5 1.371e+04 4.242e-09
 99.66715     21.8 1.366e+04 3.409e-09
 99.68351     22.7 1.371e+04 4.030e-09
 99.69761     23.6 1.378e+04 4.735e-09
 99.70755     23.6 1.390e+04 5.628e-09
 99.72325     25.3 1.384e+04 5.749e-09
 99.74313     25.8 1.387e+04 5.931e-09
 99.76300     27.1 1.376e+04 5.721e-09
 99.78287     28.2 1.380e+04 5.567e-09
 99.80268     29.4 1.373e+04 5.362e-09
 99.82256     30.3 1.391e+04 5.552e-09
 99.84249     31.3 1.388e+04 5.553e-09
 99.86237     32.5 1.385e+04 5.589e-09
 99.88224     33.7 1.379e+04 5.579e-09
 99.90211     35.1 1.376e+04 5.586e-09
 99.91770     36.8 1.372e+04 5.593e-09
 99.92763     36.6 1.377e+04 6.017e-09
 99.94186     37.9 1.374e+04 6.082e-09
 99.96173     39.4 1.367e+04 6.097e-09
 99.98161     41.0 1.364e+04 6.166e-09
100.00148     42.6 1.365e+04 6.391e-09
