# Columns:
#   distance along LOS (in CHIMPs)
#   peculiar velocity  (in km/s)
#   temperature (K)
#   HI number density
# pos=(80.171,17.9632,164.474), angles=(1.81995,1.53638)
  0.00307    -51.4 1.187e+04 7.911e-09
  0.01621    -51.0 1.275e+04 1.170e-08
  0.03638    -51.0 1.358e+04 1.766e-08
  0.05484    -50.9 1.421e+04 2.650e-08
  0.06492    -50.7 1.429e+04 2.827e-08
  0.07671    -50.5 1.453e+04 3.626e-08
  0.09688    -50.3 1.482e+04 4.122e-08
  0.11704    -50.8 1.536e+04 4.675e-08
  0.13478    -53.1 1.642e+04 5.624e-08
  0.14486    -53.4 1.634e+04 5.253e-08
  0.15737    -56.6 1.684e+04 6.692e-08
  0.17754    -58.7 1.673e+04 7.997e-08
  0.19770    -60.2 1.651e+04 7.527e-08
  0.21471    -62.2 1.630e+04 6.250e-08
  0.22479    -62.8 1.585e+04 4.746e-08
  0.23803    -66.5 1.612e+04 5.010e-08
  0.25820    -70.1 1.686e+04 7.584e-08
  0.27837    -71.9 1.743e+04 1.217e-07
  0.29465    -72.7 1.767e+04 1.451e-07
  0.30473    -73.1 1.696e+04 1.110e-07
  0.31870    -73.8 1.640e+04 8.917e-08
  0.33886    -74.7 1.533e+04 5.365e-08
  0.35903    -75.7 1.419e+04 3.031e-08
  0.36973    -76.1 1.317e+04 1.685e-08
  0.37520    -75.5 1.445e+04 3.945e-08
  0.38466    -75.3 1.367e+04 2.481e-08
  0.39936    -75.4 1.277e+04 1.384e-08
  0.41952    -75.5 1.180e+04 7.015e-09
  0.43969    -75.7 1.091e+04 3.791e-09
  0.45452    -75.7 1.006e+04 2.412e-09
  0.46460    -76.2 9.357e+03 1.927e-09
  0.48002    -75.6 8.999e+03 1.674e-09
  0.50019    -74.8 8.967e+03 1.613e-09
  0.52035    -74.4 8.811e+03 1.535e-09
  0.53445    -73.0 8.908e+03 1.581e-09
  0.54453    -73.1 8.929e+03 1.587e-09
  0.56068    -72.9 8.908e+03 1.571e-09
  0.59103    -71.1 9.017e+03 1.796e-09
  0.61458    -69.8 9.018e+03 2.072e-09
  0.63475    -71.1 8.968e+03 2.113e-09
  0.67179    -71.0 9.146e+03 2.604e-09
  0.69442    -71.6 9.252e+03 3.270e-09
  0.70440    -72.5 9.320e+03 3.591e-09
  0.72201    -72.5 9.325e+03 3.641e-09
  0.74217    -73.8 9.425e+03 5.018e-09
  0.76234    -74.3 9.845e+03 6.712e-09
  0.77426    -74.8 1.006e+04 8.574e-09
  0.78434    -75.6 9.855e+03 7.724e-09
  0.80267    -76.1 9.657e+03 7.621e-09
  0.82283    -76.4 9.151e+03 6.285e-09
  0.84300    -76.7 8.655e+03 4.507e-09
  0.85419    -77.8 8.243e+03 2.986e-09
  0.86427    -78.2 8.240e+03 2.770e-09
  0.88333    -78.3 8.225e+03 2.645e-09
  0.91368    -80.0 7.917e+03 2.116e-09
  0.93432    -81.2 7.851e+03 2.124e-09
  0.95449    -81.0 7.978e+03 2.356e-09
  0.99444    -81.2 8.239e+03 3.109e-09
  1.03477    -80.7 8.308e+03 3.312e-09
  1.07403    -80.5 7.942e+03 2.283e-09
  1.09419    -79.8 8.041e+03 2.352e-09
  1.11543    -80.1 7.749e+03 1.673e-09
  1.14558    -80.8 8.178e+03 1.745e-09
  1.16385    -81.8 9.088e+03 2.831e-09
  1.17393    -80.7 8.695e+03 2.110e-09
  1.18581    -82.1 9.838e+03 5.240e-09
  1.20598    -82.4 1.073e+04 1.089e-08
  1.22614    -81.7 1.157e+04 1.922e-08
  1.24378    -80.8 1.227e+04 2.700e-08
  1.25387    -80.3 1.219e+04 2.534e-08
  1.26647    -79.5 1.263e+04 3.074e-08
  1.28664    -79.1 1.268e+04 3.017e-08
  1.30681    -78.8 1.235e+04 2.528e-08
  1.32372    -78.7 1.179e+04 2.000e-08
  1.33380    -78.2 1.180e+04 2.011e-08
  1.34714    -78.0 1.128e+04 1.570e-08
  1.36730    -77.6 1.078e+04 1.152e-08
  1.38747    -77.1 1.027e+04 7.975e-09
  1.40365    -76.4 9.828e+03 5.571e-09
  1.41374    -75.9 9.969e+03 6.482e-09
  1.42780    -75.1 9.669e+03 4.849e-09
  1.44796    -74.1 9.494e+03 3.846e-09
  1.46813    -73.3 9.299e+03 3.113e-09
  1.48359    -72.9 9.160e+03 2.914e-09
  1.49367    -72.3 9.301e+03 3.146e-09
  1.51864    -71.1 9.181e+03 2.988e-09
  1.54044    -69.2 9.082e+03 2.870e-09
  1.55518    -69.0 8.838e+03 2.179e-09
  1.57380    -68.0 9.028e+03 2.505e-09
  1.59940    -65.7 9.116e+03 2.562e-09
  1.63973    -63.5 9.188e+03 2.562e-09
  1.68006    -61.4 9.326e+03 2.445e-09
  1.71351    -59.6 9.604e+03 2.507e-09
  1.73367    -58.5 9.629e+03 2.520e-09
  1.76072    -56.9 9.864e+03 2.651e-09
  1.79088    -55.8 9.654e+03 3.261e-09
  1.80333    -54.3 1.011e+04 3.253e-09
  1.81341    -53.6 9.982e+03 3.063e-09
  1.83111    -52.7 1.021e+04 3.485e-09
  1.85127    -51.9 1.033e+04 4.154e-09
  1.87144    -51.1 1.064e+04 4.611e-09
  1.88326    -50.6 1.093e+04 5.264e-09
  1.89335    -49.9 1.087e+04 4.941e-09
  1.91177    -49.3 1.098e+04 5.969e-09
  1.93194    -48.9 1.120e+04 6.753e-09
  1.95210    -48.3 1.134e+04 7.847e-09
  1.96320    -48.1 1.165e+04 7.794e-09
  1.97328    -47.2 1.166e+04 8.300e-09
  1.99243    -47.4 1.182e+04 9.221e-09
  2.01260    -48.0 1.213e+04 9.110e-09
  2.03276    -49.7 1.224e+04 1.036e-08
  2.04313    -51.1 1.249e+04 1.155e-08
  2.05322    -51.3 1.344e+04 1.544e-08
  2.07309    -52.5 1.384e+04 1.937e-08
  2.09326    -53.7 1.380e+04 1.834e-08
  2.11299    -54.6 1.368e+04 1.298e-08
  2.12307    -54.6 1.460e+04 2.462e-08
  2.12551    -55.4 1.379e+04 1.471e-08
  2.13559    -54.8 1.282e+04 8.509e-09
  2.15376    -54.8 1.239e+04 5.465e-09
  2.17392    -54.1 1.193e+04 3.695e-09
  2.19292    -53.1 1.190e+04 2.482e-09
  2.20300    -53.2 1.243e+04 2.586e-09
  2.21425    -52.3 1.190e+04 2.127e-09
  2.23442    -51.2 1.215e+04 1.599e-09
  2.25458    -50.8 1.212e+04 1.599e-09
  2.28493    -50.1 1.241e+04 1.819e-09
  2.32536    -47.5 1.228e+04 1.986e-09
  2.35299    -45.4 1.200e+04 2.218e-09
  2.37315    -45.0 1.297e+04 4.525e-09
  2.40602    -43.3 1.285e+04 4.954e-09
  2.44635    -41.4 1.236e+04 5.144e-09
  2.48668    -39.7 1.196e+04 5.411e-09
  2.51286    -38.2 1.181e+04 5.425e-09
  2.52284    -37.4 1.180e+04 4.825e-09
  2.53690    -36.9 1.178e+04 4.875e-09
  2.55707    -36.1 1.172e+04 4.933e-09
  2.57723    -35.8 1.172e+04 5.039e-09
  2.59260    -35.1 1.174e+04 5.456e-09
  2.60268    -35.2 1.331e+04 7.828e-09
  2.61756    -34.7 1.338e+04 8.363e-09
  2.63773    -34.6 1.374e+04 9.604e-09
  2.65789    -35.0 1.445e+04 1.217e-08
  2.67253    -36.0 1.458e+04 1.612e-08
  2.68262    -37.3 1.761e+04 7.087e-08
  2.69313    -37.8 1.710e+04 6.758e-08
  2.70317    -38.4 1.730e+04 8.857e-08
  2.71067    -38.8 1.750e+04 1.119e-07
  2.72080    -38.9 1.723e+04 8.831e-08
  2.73856    -39.2 1.698e+04 7.390e-08
  2.75247    -39.7 1.689e+04 5.565e-08
  2.76255    -41.4 1.786e+04 1.033e-07
  2.77889    -42.3 1.714e+04 6.337e-08
  2.79905    -43.4 1.613e+04 4.266e-08
  2.81922    -44.1 1.543e+04 3.390e-08
  2.83240    -44.7 1.507e+04 2.985e-08
  2.84249    -46.2 1.612e+04 4.592e-08
  2.85955    -47.2 1.614e+04 4.196e-08
  2.87971    -49.6 1.681e+04 4.144e-08
  2.89988    -53.2 1.754e+04 5.328e-08
  2.91234    -55.3 1.744e+04 7.772e-08
  2.92242    -56.8 1.706e+04 9.901e-08
  2.94021    -56.8 1.707e+04 1.057e-07
  2.95226    -57.0 1.713e+04 1.362e-07
  2.95725    -57.3 1.722e+04 1.112e-07
  2.96532    -57.6 1.735e+04 9.673e-08
  2.97540    -58.5 1.726e+04 7.382e-08
  2.98549    -59.2 1.685e+04 6.368e-08
  2.99218    -60.1 1.642e+04 5.533e-08
  2.99722    -61.4 1.589e+04 4.457e-08
  3.00330    -61.3 1.575e+04 4.347e-08
  3.00834    -60.0 1.605e+04 4.442e-08
  3.02082    -62.4 1.509e+04 3.834e-08
  3.04104    -63.5 1.476e+04 3.800e-08
  3.06120    -64.6 1.478e+04 4.000e-08
  3.07216    -65.2 1.470e+04 4.654e-08
  3.08224    -66.1 1.448e+04 4.295e-08
  3.10153    -65.9 1.439e+04 4.301e-08
  3.12170    -66.3 1.453e+04 3.600e-08
  3.14187    -68.2 1.458e+04 2.720e-08
  3.15214    -70.6 1.432e+04 1.975e-08
  3.16223    -72.4 1.464e+04 2.882e-08
  3.18220    -73.1 1.420e+04 2.676e-08
  3.20236    -73.9 1.386e+04 1.991e-08
  3.22200    -75.2 1.340e+04 1.463e-08
  3.23208    -76.1 1.346e+04 1.682e-08
  3.24269    -77.0 1.286e+04 1.270e-08
  3.26286    -77.6 1.246e+04 1.044e-08
  3.28302    -78.0 1.219e+04 9.265e-09
  3.29603    -78.4 1.204e+04 8.805e-09
  3.30485    -78.7 1.229e+04 8.778e-09
  3.31201    -79.2 1.229e+04 8.729e-09
  3.32335    -79.6 1.223e+04 8.349e-09
  3.34352    -80.0 1.207e+04 8.277e-09
  3.36369    -80.1 1.193e+04 8.141e-09
  3.38187    -80.2 1.186e+04 7.451e-09
  3.39195    -80.2 1.196e+04 7.780e-09
  3.40402    -80.4 1.181e+04 6.580e-09
  3.42418    -80.8 1.174e+04 5.513e-09
  3.44435    -81.0 1.168e+04 4.877e-09
  3.46180    -81.3 1.169e+04 4.759e-09
  3.47188    -81.4 1.170e+04 4.702e-09
  3.48468    -84.9 1.316e+04 5.894e-09
  3.50484    -91.7 1.473e+04 2.032e-08
  3.52501    -94.2 1.586e+04 6.377e-08
  3.54174    -95.9 1.722e+04 9.643e-08
  3.55182    -97.3 1.755e+04 1.036e-07
  3.56534   -104.3 1.741e+04 6.467e-08
  3.58551   -113.5 1.507e+04 2.573e-08
  3.60567   -118.9 1.387e+04 2.053e-08
  3.62167   -120.9 1.353e+04 2.029e-08
  3.63175   -121.2 1.333e+04 1.819e-08
  3.64600   -122.1 1.322e+04 1.859e-08
  3.66617   -122.5 1.285e+04 1.610e-08
  3.68633   -122.7 1.251e+04 1.298e-08
  3.70161   -122.7 1.228e+04 1.048e-08
  3.71169   -122.8 1.248e+04 1.239e-08
  3.72666   -122.5 1.227e+04 1.030e-08
  3.74683   -122.0 1.207e+04 8.569e-09
  3.76700   -121.5 1.194e+04 7.286e-09
  3.78154   -121.0 1.187e+04 6.337e-09
  3.79162   -121.2 1.198e+04 6.779e-09
  3.80733   -120.6 1.193e+04 5.896e-09
  3.82749   -120.0 1.193e+04 5.385e-09
  3.84766   -119.5 1.190e+04 5.155e-09
  3.86148   -118.8 1.191e+04 5.132e-09
  3.87156   -119.1 1.192e+04 5.145e-09
  3.88129   -118.5 1.194e+04 5.197e-09
  3.90155   -117.4 1.163e+04 4.907e-09
  3.93152   -116.1 1.155e+04 5.260e-09
  3.95169   -116.5 1.160e+04 5.334e-09
  3.97893   -115.3 1.178e+04 7.761e-09
  4.01926   -113.9 1.216e+04 1.156e-08
  4.04941   -113.2 1.241e+04 1.403e-08
  4.06948   -112.9 1.250e+04 1.466e-08
  4.09130   -112.9 1.259e+04 1.498e-08
  4.11156   -113.3 1.264e+04 1.512e-08
  4.13007   -112.8 1.244e+04 1.199e-08
  4.15014   -112.5 1.262e+04 1.036e-08
  4.17031   -112.7 1.287e+04 9.655e-09
  4.18122   -113.2 1.318e+04 9.868e-09
  4.19130   -113.3 1.334e+04 1.119e-08
  4.21064   -113.5 1.339e+04 1.321e-08
  4.23080   -113.4 1.327e+04 1.526e-08
  4.25097   -113.2 1.313e+04 1.614e-08
  4.26115   -112.8 1.291e+04 1.625e-08
  4.27123   -112.9 1.285e+04 1.908e-08
  4.29130   -112.3 1.257e+04 1.836e-08
  4.31146   -111.8 1.231e+04 1.694e-08
  4.33100   -111.1 1.207e+04 1.534e-08
  4.34109   -111.0 1.212e+04 1.783e-08
  4.35179   -110.4 1.190e+04 1.584e-08
  4.37196   -109.7 1.167e+04 1.398e-08
  4.39213   -109.1 1.149e+04 1.257e-08
  4.41094   -108.6 1.139e+04 1.159e-08
  4.42102   -108.6 1.141e+04 1.200e-08
  4.43246   -107.9 1.139e+04 1.131e-08
  4.45262   -107.4 1.143e+04 1.111e-08
  4.46655   -107.1 1.136e+04 1.098e-08
  4.47663   -107.1 1.143e+04 1.108e-08
  4.49087   -106.0 1.142e+04 1.117e-08
  4.50096   -106.0 1.135e+04 1.109e-08
  4.51312   -105.9 1.134e+04 1.109e-08
  4.53328   -104.8 1.143e+04 1.182e-08
  4.55345   -104.2 1.146e+04 1.223e-08
  4.57081   -103.5 1.170e+04 1.340e-08
  4.58089   -103.6 1.158e+04 1.296e-08
  4.59378   -103.4 1.160e+04 1.321e-08
  4.61395   -102.6 1.170e+04 1.372e-08
  4.63411   -102.1 1.163e+04 1.349e-08
  4.65074   -100.9 1.158e+04 1.252e-08
  4.66083   -100.9 1.143e+04 1.155e-08
  4.67444    -99.9 1.125e+04 9.904e-09
  4.69461    -98.8 1.116e+04 8.449e-09
  4.71477    -97.8 1.112e+04 7.315e-09
  4.73068    -96.9 1.110e+04 6.423e-09
  4.74076    -96.9 1.104e+04 6.305e-09
  4.75510    -96.1 1.096e+04 5.656e-09
  4.77527    -95.1 1.082e+04 5.209e-09
  4.79544    -93.9 1.075e+04 4.865e-09
  4.82578    -93.0 1.044e+04 4.054e-09
  4.86621    -91.6 1.035e+04 3.601e-09
  4.89075    -89.4 1.025e+04 2.885e-09
  4.91091    -89.7 1.033e+04 3.235e-09
  4.94687    -87.9 1.035e+04 2.891e-09
  4.98720    -86.1 1.037e+04 2.861e-09
  5.02753    -84.5 1.049e+04 3.260e-09
  5.05062    -82.9 1.059e+04 4.019e-09
  5.05492    -83.5 1.062e+04 4.339e-09
  5.07217    -83.5 1.079e+04 7.661e-09
  5.10820    -82.0 1.092e+04 8.056e-09
  5.14853    -80.5 1.101e+04 7.270e-09
  5.18886    -79.3 1.096e+04 5.669e-09
  5.21049    -78.1 1.074e+04 4.114e-09
  5.23065    -78.4 1.060e+04 3.354e-09
  5.26952    -76.9 1.023e+04 2.372e-09
  5.30985    -75.1 9.863e+03 1.769e-09
  5.35018    -73.3 9.659e+03 1.406e-09
  5.39051    -71.4 9.459e+03 1.127e-09
  5.43084    -69.4 9.335e+03 1.212e-09
  5.47117    -67.3 9.216e+03 1.484e-09
  5.51006    -65.1 9.120e+03 1.609e-09
  5.53023    -64.9 9.108e+03 1.609e-09
  5.55184    -62.3 9.053e+03 1.445e-09
  5.59217    -60.2 9.006e+03 1.225e-09
  5.63250    -58.2 8.911e+03 1.176e-09
  5.66993    -56.1 9.008e+03 1.255e-09
  5.69010    -55.5 8.934e+03 1.183e-09
  5.71316    -53.7 9.162e+03 1.366e-09
  5.75349    -52.0 9.416e+03 1.731e-09
  5.79382    -50.3 9.604e+03 2.367e-09
  5.82980    -48.6 9.670e+03 3.137e-09
  5.84997    -47.8 9.531e+03 3.057e-09
  5.87448    -46.2 9.571e+03 3.092e-09
  5.91482    -44.4 9.425e+03 2.547e-09
  5.95515    -42.8 9.087e+03 1.770e-09
  5.98967    -41.6 8.825e+03 1.218e-09
  6.00984    -41.0 8.809e+03 1.222e-09
  6.03581    -39.5 8.559e+03 1.092e-09
  6.07614    -37.7 8.559e+03 1.166e-09
  6.11647    -35.7 8.703e+03 1.529e-09
  6.14954    -34.5 8.946e+03 2.083e-09
  6.16971    -35.0 8.979e+03 2.209e-09
  6.18695    -35.1 9.357e+03 3.358e-09
  6.20702    -35.4 9.904e+03 5.418e-09
  6.22232    -35.5 1.057e+04 8.811e-09
  6.23241    -36.0 1.069e+04 1.005e-08
  6.23936    -36.0 1.128e+04 1.463e-08
  6.24945    -36.3 1.128e+04 1.463e-08
  6.26752    -36.5 1.188e+04 1.925e-08
  6.28768    -37.4 1.258e+04 2.439e-08
  6.30785    -38.6 1.326e+04 3.034e-08
  6.31930    -39.6 1.346e+04 3.219e-08
  6.32938    -39.9 1.347e+04 3.292e-08
  6.34818    -40.2 1.327e+04 3.108e-08
  6.36834    -40.8 1.274e+04 2.573e-08
  6.38851    -41.9 1.220e+04 2.157e-08
  6.39923    -44.3 1.258e+04 2.342e-08
  6.40932    -44.9 1.274e+04 2.428e-08
  6.42884    -48.8 1.406e+04 3.671e-08
  6.44901    -51.7 1.590e+04 7.086e-08
  6.46909    -54.3 1.737e+04 1.347e-07
  6.48925    -57.5 1.684e+04 1.145e-07
  6.50950    -60.8 1.634e+04 9.933e-08
  6.52967    -63.7 1.522e+04 6.308e-08
  6.54902    -68.3 1.435e+04 3.571e-08
  6.55910    -68.9 1.534e+04 3.646e-08
  6.57000    -90.6 2.424e+04 3.750e-08
  6.58507   -102.4 2.208e+04 9.805e-08
  6.59393   -106.5 1.967e+04 3.715e-07
  6.59897   -107.0 1.924e+04 8.183e-07
  6.60519   -108.4 1.853e+04 1.738e-06
  6.61527   -110.6 1.831e+04 1.962e-06
  6.62536   -112.4 1.866e+04 1.314e-06
  6.63390   -115.2 1.971e+04 6.303e-07
  6.63894   -117.9 2.038e+04 5.032e-07
  6.64552   -124.2 2.078e+04 1.966e-07
  6.65560   -130.3 1.899e+04 1.205e-07
  6.66569   -133.5 1.771e+04 1.004e-07
  6.67387   -135.1 1.725e+04 9.303e-08
  6.67891   -135.7 1.719e+04 9.260e-08
  6.68585   -136.8 1.688e+04 8.625e-08
  6.69593   -137.8 1.650e+04 7.757e-08
  6.70602   -138.9 1.609e+04 6.741e-08
  6.71384   -140.1 1.570e+04 5.734e-08
  6.71888   -140.6 1.580e+04 5.718e-08
  6.72618   -142.3 1.536e+04 4.713e-08
  6.73627   -144.1 1.489e+04 3.943e-08
  6.75144   -147.3 1.441e+04 3.411e-08
  6.77165   -150.2 1.424e+04 3.302e-08
  6.78883   -152.5 1.467e+04 3.898e-08
  6.79891   -152.9 1.504e+04 4.439e-08
  6.80758   -154.5 1.579e+04 5.527e-08
  6.81767   -155.7 1.675e+04 7.935e-08
  6.83215   -157.6 1.776e+04 1.100e-07
  6.84722   -158.1 1.816e+04 1.097e-07
  6.85726   -159.9 1.900e+04 1.318e-07
  6.86734   -162.1 1.941e+04 1.635e-07
  6.87371   -164.5 1.925e+04 2.006e-07
  6.87875   -163.7 1.944e+04 1.693e-07
  6.88751   -166.0 1.919e+04 2.132e-07
  6.89759   -168.0 1.901e+04 2.700e-07
  6.90767   -169.8 1.898e+04 3.156e-07
  6.91367   -171.5 1.898e+04 3.236e-07
  6.91871   -170.7 1.898e+04 3.260e-07
  6.92784   -172.2 1.898e+04 3.254e-07
  6.93792   -173.5 1.880e+04 2.607e-07
  6.94800   -174.8 1.832e+04 1.664e-07
  6.95364   -176.3 1.749e+04 9.454e-08
  6.95868   -175.1 1.784e+04 1.203e-07
  6.96817   -176.6 1.692e+04 6.727e-08
  6.97825   -178.5 1.582e+04 3.889e-08
  6.98833   -180.3 1.477e+04 2.575e-08
  6.99361   -181.5 1.406e+04 2.023e-08
  6.99865   -180.6 1.462e+04 2.266e-08
  7.01359   -182.6 1.383e+04 1.759e-08
  7.02863   -185.5 1.256e+04 1.352e-08
  7.03871   -183.7 1.356e+04 1.595e-08
  7.05397   -186.9 1.227e+04 1.309e-08
  7.07414   -188.3 1.210e+04 1.283e-08
  7.09430   -189.0 1.198e+04 1.278e-08
  7.10857   -189.5 1.173e+04 1.199e-08
  7.11865   -189.3 1.170e+04 1.139e-08
  7.13463   -189.4 1.141e+04 9.626e-09
  7.15480   -189.5 1.113e+04 7.837e-09
  7.17496   -189.3 1.084e+04 6.356e-09
  7.18850   -188.8 1.059e+04 5.361e-09
  7.19858   -188.5 1.051e+04 5.029e-09
  7.21529   -187.8 1.032e+04 4.486e-09
  7.23546   -187.0 1.018e+04 4.178e-09
  7.25562   -186.0 1.005e+04 3.960e-09
  7.26844   -184.9 9.927e+03 3.702e-09
  7.27852   -184.5 9.921e+03 3.652e-09
  7.29596   -183.4 9.840e+03 3.419e-09
  7.32630   -181.3 9.735e+03 2.975e-09
  7.36673   -179.9 9.586e+03 2.689e-09
  7.39304   -177.3 9.218e+03 2.209e-09
  7.41320   -178.1 9.204e+03 2.172e-09
  7.42850   -175.5 8.877e+03 1.696e-09
  7.44867   -174.5 9.072e+03 1.996e-09
  7.48772   -171.8 8.788e+03 1.538e-09
  7.52805   -169.1 8.638e+03 1.206e-09
  7.56821   -166.4 8.569e+03 9.796e-10
  7.60854   -162.5 8.611e+03 9.230e-10
  7.64905   -159.7 8.605e+03 8.544e-10
  7.68938   -156.7 8.605e+03 8.402e-10
  7.72808   -153.8 8.596e+03 8.470e-10
  7.74824   -152.6 8.693e+03 9.034e-10
  7.77004   -149.8 8.697e+03 9.825e-10
  7.81037   -147.2 8.848e+03 1.224e-09
  7.85070   -144.6 9.037e+03 1.596e-09
  7.88795   -142.1 9.340e+03 2.145e-09
  7.90811   -140.7 9.332e+03 2.076e-09
  7.93136   -138.2 9.710e+03 2.814e-09
  7.96151   -136.8 1.002e+04 3.597e-09
  7.97777   -136.1 1.011e+04 4.181e-09
  7.98437   -135.4 1.011e+04 4.016e-09
  7.98819   -135.4 1.005e+04 3.689e-09
  8.00175   -134.1 1.020e+04 4.601e-09
  8.02191   -133.0 1.033e+04 5.452e-09
  8.04208   -131.9 1.051e+04 6.266e-09
  8.05771   -131.1 1.060e+04 6.724e-09
  8.06779   -130.3 1.068e+04 6.965e-09
  8.09259   -129.0 1.078e+04 7.355e-09
  8.13302   -127.3 1.075e+04 7.301e-09
  8.17335   -125.8 1.062e+04 6.911e-09
  8.20769   -124.4 1.039e+04 6.126e-09
  8.22785   -123.1 1.053e+04 6.356e-09
  8.25401   -121.8 1.025e+04 5.387e-09
  8.29434   -120.4 9.997e+03 4.593e-09
  8.33467   -119.0 9.939e+03 4.344e-09
  8.36756   -117.6 9.982e+03 4.298e-09
  8.38772   -116.5 1.001e+04 4.351e-09
  8.41534   -115.2 9.984e+03 4.293e-09
  8.45567   -113.8 9.854e+03 3.971e-09
  8.49600   -112.1 9.615e+03 3.203e-09
  8.52743   -110.0 9.380e+03 2.375e-09
  8.54759   -108.6 9.509e+03 2.632e-09
  8.56356   -106.5 9.378e+03 2.001e-09
  8.58372   -105.8 9.226e+03 1.557e-09
  8.61699   -103.6 9.148e+03 1.197e-09
  8.65732   -101.3 9.098e+03 1.020e-09
  8.68730    -98.9 9.066e+03 9.659e-10
  8.70746    -97.8 9.148e+03 9.605e-10
  8.73798    -95.4 9.158e+03 9.301e-10
  8.77831    -92.9 9.203e+03 9.415e-10
  8.81865    -90.6 9.299e+03 1.004e-09
  8.84717    -88.3 9.351e+03 1.078e-09
  8.86733    -87.3 9.417e+03 1.101e-09
  8.89931    -85.1 9.512e+03 1.150e-09
  8.93964    -83.0 9.539e+03 1.150e-09
  8.97997    -80.9 9.560e+03 1.127e-09
  9.00704    -78.7 9.627e+03 1.136e-09
  9.02720    -77.7 9.734e+03 1.159e-09
  9.06063    -75.6 9.819e+03 1.215e-09
  9.10096    -73.4 9.873e+03 1.287e-09
  9.14129    -71.1 9.895e+03 1.294e-09
  9.16691    -68.9 9.999e+03 1.178e-09
  9.18707    -67.9 1.002e+04 1.170e-09
  9.22196    -65.7 1.008e+04 1.083e-09
  9.26229    -63.3 1.010e+04 1.090e-09
  9.30262    -60.5 1.011e+04 1.170e-09
  9.32678    -57.9 1.024e+04 1.087e-09
  9.34694    -57.1 1.030e+04 1.028e-09
  9.38328    -54.9 1.038e+04 8.845e-10
  9.42361    -52.8 1.048e+04 9.276e-10
  9.46394    -51.1 1.051e+04 1.301e-09
  9.48665    -49.0 1.055e+04 2.031e-09
  9.50681    -48.1 1.053e+04 1.829e-09
  9.54460    -45.9 1.068e+04 2.522e-09
  9.58493    -43.9 1.082e+04 2.818e-09
  9.62527    -42.3 1.081e+04 2.776e-09
  9.64652    -40.4 1.076e+04 2.648e-09
  9.66669    -39.3 1.076e+04 2.610e-09
  9.70593    -37.5 1.074e+04 2.513e-09
  9.73408    -36.3 1.090e+04 2.971e-09
  9.75424    -35.6 1.079e+04 2.666e-09
  9.78622    -33.8 1.107e+04 3.994e-09
  9.80639    -33.0 1.116e+04 5.231e-09
  9.82692    -31.7 1.160e+04 7.207e-09
  9.85707    -30.8 1.191e+04 8.209e-09
  9.87605    -33.5 1.418e+04 1.474e-08
  9.88613    -34.8 1.502e+04 2.054e-08
  9.89730    -42.8 1.843e+04 1.095e-07
  9.91238    -45.4 1.785e+04 4.052e-07
  9.92096    -44.1 1.751e+04 5.622e-07
  9.92600    -43.5 1.739e+04 5.499e-07
  9.93250    -41.2 1.743e+04 4.342e-07
  9.94258    -41.6 1.854e+04 2.512e-07
  9.95266    -45.2 2.134e+04 9.665e-08
  9.96093    -52.2 1.892e+04 5.236e-08
  9.96597    -51.8 1.862e+04 5.077e-08
  9.97792    -56.8 1.586e+04 3.744e-08
  9.99813    -59.8 1.351e+04 2.935e-08
 10.01830    -60.4 1.326e+04 2.156e-08
 10.03592    -61.9 1.274e+04 1.394e-08
 10.04600    -60.8 1.273e+04 1.157e-08
 10.05863    -63.4 1.171e+04 8.550e-09
 10.07879    -65.1 1.151e+04 8.045e-09
 10.09896    -66.0 1.153e+04 8.876e-09
 10.11585    -66.1 1.158e+04 9.858e-09
 10.12593    -65.7 1.157e+04 9.855e-09
 10.14947    -66.3 1.145e+04 1.006e-08
 10.18990    -67.6 1.078e+04 5.690e-09
 10.22005    -69.0 1.019e+04 3.006e-09
 10.24012    -68.6 1.017e+04 2.666e-09
 10.26574    -69.3 9.941e+03 2.052e-09
 10.28600    -69.8 9.931e+03 2.001e-09
 10.31089    -69.5 9.850e+03 1.866e-09
 10.35122    -69.2 1.003e+04 2.098e-09
 10.39155    -69.0 1.015e+04 2.698e-09
 10.42570    -68.5 1.026e+04 3.295e-09
 10.44577    -68.1 1.033e+04 3.479e-09
 10.47212    -67.9 1.038e+04 3.616e-09
 10.51255    -66.6 1.032e+04 3.479e-09
 10.55288    -65.2 1.025e+04 2.904e-09
 10.58558    -64.1 1.027e+04 2.602e-09
 10.60574    -64.5 1.041e+04 2.869e-09
 10.63354    -64.0 1.069e+04 3.819e-09
 10.67387    -63.3 1.110e+04 6.845e-09
 10.71420    -62.0 1.174e+04 1.052e-08
 10.74545    -61.4 1.219e+04 1.212e-08
 10.76561    -61.9 1.237e+04 1.353e-08
 10.79486    -62.1 1.216e+04 1.092e-08
 10.83519    -61.8 1.168e+04 7.886e-09
 10.86535    -61.3 1.120e+04 6.394e-09
 10.88541    -60.8 1.108e+04 6.147e-09
 10.90440    -59.6 1.108e+04 6.039e-09
 10.91403    -59.3 1.088e+04 6.005e-09
 10.91520    -59.0 1.069e+04 4.864e-09
 10.92574    -58.0 1.054e+04 4.596e-09
 10.94591    -56.6 1.058e+04 4.527e-09
 10.96607    -55.7 1.061e+04 4.542e-09
 10.98506    -54.4 1.061e+04 5.196e-09
 10.99514    -53.9 1.050e+04 4.142e-09
 11.00641    -52.1 1.054e+04 4.854e-09
 11.02657    -50.3 1.096e+04 6.166e-09
 11.04674    -49.6 1.186e+04 7.437e-09
 11.06499    -50.5 1.287e+04 1.419e-08
 11.07507    -48.8 1.310e+04 9.862e-09
 11.08707    -53.3 1.705e+04 3.172e-08
 11.10214    -56.9 1.857e+04 6.560e-08
 11.10990    -58.8 1.993e+04 8.288e-08
 11.11494    -62.2 2.037e+04 1.621e-07
 11.12226    -64.1 2.190e+04 2.394e-07
 11.13234    -65.6 2.360e+04 2.763e-07
 11.14243    -68.9 2.223e+04 4.050e-07
 11.14987    -71.0 2.093e+04 3.561e-07
 11.15491    -71.5 2.093e+04 6.268e-07
 11.16259    -77.0 2.051e+04 3.570e-07
 11.17267    -79.2 2.000e+04 3.174e-07
 11.18276    -80.4 1.985e+04 3.209e-07
 11.18984    -81.3 1.944e+04 3.227e-07
 11.19488    -82.8 1.930e+04 2.720e-07
 11.20198    -83.1 1.897e+04 2.706e-07
 11.20702    -84.3 1.871e+04 2.337e-07
 11.21300    -84.0 1.847e+04 2.258e-07
 11.22309    -83.8 1.848e+04 2.169e-07
 11.22980    -83.8 1.865e+04 2.010e-07
 11.23485    -84.9 1.837e+04 1.606e-07
 11.24325    -85.7 1.865e+04 1.497e-07
 11.25334    -87.1 1.862e+04 1.326e-07
 11.26342    -88.9 1.849e+04 1.156e-07
 11.26977    -90.5 1.803e+04 9.966e-08
 11.27481    -91.1 1.797e+04 9.893e-08
 11.28867    -92.8 1.736e+04 8.255e-08
 11.30480    -95.2 1.599e+04 5.685e-08
 11.31488    -95.4 1.597e+04 5.812e-08
 11.32905    -96.3 1.486e+04 3.776e-08
 11.34922    -98.0 1.361e+04 2.225e-08
 11.36938    -99.7 1.296e+04 1.782e-08
 11.38473   -100.1 1.277e+04 1.789e-08
 11.39481    -99.7 1.218e+04 1.198e-08
 11.40972    -99.8 1.213e+04 1.298e-08
 11.42988    -99.5 1.218e+04 1.477e-08
 11.45005    -98.9 1.219e+04 1.553e-08
 11.46467    -98.2 1.207e+04 1.482e-08
 11.47475    -97.7 1.177e+04 1.166e-08
 11.48966    -97.0 1.169e+04 1.075e-08
 11.49974    -97.7 1.174e+04 9.753e-09
 11.51054    -97.2 1.155e+04 7.595e-09
 11.53071    -96.6 1.120e+04 5.525e-09
 11.54460    -95.9 1.093e+04 3.875e-09
 11.55468    -95.1 1.096e+04 4.028e-09
 11.57104    -94.2 1.081e+04 2.851e-09
 11.60139    -93.0 1.083e+04 2.196e-09
 11.64181    -92.4 1.071e+04 1.771e-09
 11.68215    -90.9 1.063e+04 1.656e-09
 11.70467    -89.3 1.065e+04 1.661e-09
 11.72483    -88.5 1.062e+04 1.621e-09
 11.76281    -87.2 1.063e+04 1.664e-09
 11.80314    -85.9 1.076e+04 1.822e-09
 11.84347    -84.7 1.102e+04 2.355e-09
 11.86454    -83.5 1.133e+04 3.701e-09
 11.88470    -83.3 1.113e+04 2.668e-09
 11.92413    -82.1 1.141e+04 4.049e-09
 11.96446    -80.8 1.167e+04 5.665e-09
 12.00424    -79.4 1.188e+04 6.753e-09
 12.02441    -79.4 1.167e+04 6.078e-09
 12.04512    -78.3 1.207e+04 7.943e-09
 12.07502    -77.4 1.257e+04 9.442e-09
 12.09518    -78.7 1.241e+04 7.964e-09
 12.11561    -78.2 1.266e+04 8.911e-09
 12.13567    -78.2 1.267e+04 8.808e-09
 12.15584    -77.7 1.273e+04 8.734e-09
 12.17400    -77.3 1.268e+04 8.760e-09
 12.18408    -77.3 1.251e+04 8.134e-09
 12.19617    -76.9 1.252e+04 8.285e-09
 12.21634    -76.5 1.248e+04 9.043e-09
 12.23650    -75.7 1.237e+04 1.024e-08
 12.25393    -74.7 1.224e+04 1.084e-08
 12.26402    -74.6 1.192e+04 9.436e-09
 12.27683    -73.7 1.165e+04 9.529e-09
 12.29700    -72.8 1.130e+04 8.523e-09
 12.31716    -72.0 1.110e+04 7.226e-09
 12.33387    -71.4 1.097e+04 6.456e-09
 12.34395    -70.8 1.065e+04 5.843e-09
 12.35749    -70.3 1.060e+04 5.623e-09
 12.37766    -69.6 1.059e+04 5.599e-09
 12.39782    -69.1 1.066e+04 6.014e-09
 12.41380    -68.9 1.089e+04 7.154e-09
 12.42389    -68.2 1.058e+04 6.058e-09
 12.43816    -68.1 1.100e+04 7.686e-09
 12.45832    -68.8 1.170e+04 1.102e-08
 12.47849    -69.6 1.241e+04 1.703e-08
 12.49374    -69.5 1.313e+04 2.340e-08
 12.50382    -69.1 1.272e+04 2.045e-08
 12.51882    -68.6 1.312e+04 2.426e-08
 12.53898    -68.6 1.308e+04 1.774e-08
 12.55915    -68.8 1.271e+04 7.191e-09
 12.57367    -70.2 1.235e+04 2.670e-09
 12.58376    -69.2 1.239e+04 3.623e-09
 12.59948    -70.8 1.202e+04 1.892e-09
 12.61964    -71.6 1.160e+04 1.523e-09
 12.63981    -71.8 1.151e+04 1.486e-09
 12.65361    -72.0 1.144e+04 1.881e-09
 12.66369    -71.7 1.136e+04 2.063e-09
 12.67026    -71.9 1.134e+04 2.824e-09
 12.68035    -71.7 1.151e+04 2.708e-09
 12.70031    -72.5 1.193e+04 4.577e-09
 12.72047    -74.5 1.267e+04 9.026e-09
 12.73354    -77.1 1.382e+04 2.020e-08
 12.74363    -77.1 1.354e+04 1.935e-08
 12.76080    -79.8 1.498e+04 4.115e-08
 12.78097    -83.1 1.630e+04 6.723e-08
 12.80113    -87.9 1.662e+04 7.474e-08
 12.81348    -92.7 1.589e+04 5.956e-08
 12.82356    -92.1 1.590e+04 6.110e-08
 12.84147    -95.5 1.470e+04 3.153e-08
 12.86163    -98.2 1.351e+04 1.336e-08
 12.88180   -100.4 1.278e+04 8.089e-09
 12.89341   -101.2 1.244e+04 7.051e-09
 12.90350   -100.4 1.236e+04 7.308e-09
 12.92213   -100.6 1.227e+04 7.190e-09
 12.94229   -100.5 1.221e+04 7.314e-09
 12.96246   -100.4 1.223e+04 7.450e-09
 12.97335   -100.4 1.228e+04 7.344e-09
 12.98343    -99.7 1.228e+04 8.679e-09
 13.00279    -99.8 1.238e+04 8.856e-09
 13.02295   -100.1 1.250e+04 8.896e-09
 13.04312   -100.7 1.276e+04 8.962e-09
 13.06329   -101.0 1.319e+04 1.184e-08
 13.08345   -102.9 1.367e+04 1.583e-08
 13.10362   -104.6 1.415e+04 2.516e-08
 13.12314   -106.0 1.454e+04 3.637e-08
 13.13322   -105.8 1.485e+04 4.186e-08
 13.14395   -107.4 1.498e+04 4.743e-08
 13.16411   -109.1 1.465e+04 4.376e-08
 13.18428   -110.4 1.374e+04 2.587e-08
 13.20307   -111.9 1.281e+04 1.339e-08
 13.21316   -111.6 1.293e+04 1.490e-08
 13.22461   -112.9 1.219e+04 8.562e-09
 13.24478   -113.5 1.177e+04 6.529e-09
 13.25552   -113.6 1.151e+04 5.667e-09
 13.26570   -113.5 1.150e+04 5.953e-09
 13.28320   -113.4 1.109e+04 4.125e-09
 13.30337   -113.0 1.107e+04 4.140e-09
 13.33572   -111.9 1.068e+04 2.693e-09
 13.37605   -110.8 1.055e+04 2.042e-09
 13.41638   -109.7 1.056e+04 1.803e-09
 13.44307   -108.5 1.058e+04 1.742e-09
 13.46324   -107.9 1.055e+04 1.758e-09
 13.49704   -106.7 1.058e+04 1.733e-09
 13.53737   -105.5 1.060e+04 1.702e-09
 13.57770   -104.2 1.063e+04 1.658e-09
 13.60294   -102.9 1.065e+04 1.567e-09
 13.62311   -102.4 1.054e+04 1.389e-09
 13.65836   -101.0 1.056e+04 1.286e-09
 13.69869    -99.4 1.057e+04 1.193e-09
 13.73902    -97.7 1.060e+04 1.125e-09
 13.76281    -95.8 1.063e+04 1.102e-09
 13.78298    -95.3 1.055e+04 9.707e-10
 13.81969    -93.4 1.058e+04 9.619e-10
 13.86002    -91.6 1.077e+04 1.000e-09
 13.90035    -89.9 1.081e+04 1.197e-09
 13.92268    -88.1 1.090e+04 1.507e-09
 13.94285    -87.6 1.086e+04 1.340e-09
 13.98101    -85.8 1.100e+04 1.778e-09
 14.02134    -84.1 1.120e+04 2.320e-09
 14.06167    -82.6 1.144e+04 2.988e-09
 14.08255    -81.4 1.161e+04 3.839e-09
 14.10272    -81.2 1.168e+04 4.559e-09
 14.14233    -80.2 1.179e+04 6.228e-09
 14.18267    -79.7 1.170e+04 7.707e-09
 14.22226    -79.5 1.162e+04 8.170e-09
 14.24242    -79.6 1.188e+04 1.010e-08
 14.26333    -79.4 1.124e+04 9.728e-09
 14.30366    -79.1 1.087e+04 6.655e-09
 14.34399    -78.8 1.032e+04 4.367e-09
 14.38213    -78.5 9.919e+03 3.465e-09
 14.40229    -78.9 1.023e+04 4.923e-09
 14.41615    -78.3 1.003e+04 4.583e-09
 14.43632    -78.5 9.495e+03 3.610e-09
 14.46498    -77.4 9.218e+03 3.293e-09
 14.50531    -76.2 9.043e+03 3.146e-09
 14.54200    -74.9 8.946e+03 3.151e-09
 14.56216    -75.0 8.755e+03 2.954e-09
 14.58598    -73.4 8.667e+03 2.977e-09
 14.62631    -71.6 8.485e+03 2.913e-09
 14.66664    -69.8 8.359e+03 2.519e-09
 14.70187    -68.1 8.268e+03 2.165e-09
 14.72203    -67.7 8.144e+03 2.178e-09
 14.74730    -66.2 8.179e+03 2.067e-09
 14.78763    -64.7 8.259e+03 2.080e-09
 14.82796    -63.5 8.548e+03 2.183e-09
 14.86174    -62.6 8.974e+03 2.645e-09
 14.88190    -62.5 8.983e+03 3.056e-09
 14.90862    -62.4 9.457e+03 3.987e-09
 14.93877    -63.0 9.504e+03 4.261e-09
 14.95156    -63.8 9.616e+03 4.551e-09
 14.96164    -63.8 9.653e+03 4.624e-09
 14.97901    -65.5 9.653e+03 4.900e-09
 14.99917    -67.5 9.758e+03 5.263e-09
 15.01130    -70.3 9.863e+03 5.998e-09
 15.02138    -68.3 1.025e+04 6.458e-09
 15.03150    -71.9 1.031e+04 7.651e-09
 15.04158    -72.0 1.011e+04 7.012e-09
 15.05967    -75.5 1.026e+04 9.182e-09
 15.07983    -79.0 1.093e+04 1.265e-08
 15.10000    -83.7 1.176e+04 1.692e-08
 15.11143    -89.3 1.249e+04 2.237e-08
 15.12151    -89.8 1.247e+04 2.245e-08
 15.14033    -96.4 1.349e+04 2.919e-08
 15.16050   -104.7 1.459e+04 3.563e-08
 15.18066   -114.1 1.494e+04 4.135e-08
 15.19137   -122.3 1.481e+04 4.349e-08
 15.20145   -124.0 1.478e+04 4.467e-08
 15.22099   -129.3 1.390e+04 3.912e-08
 15.24116   -133.9 1.294e+04 2.153e-08
 15.26122   -139.1 1.166e+04 1.049e-08
 15.27130   -141.0 1.166e+04 9.550e-09
 15.28149   -144.3 1.116e+04 7.993e-09
 15.30165   -145.2 1.103e+04 7.991e-09
 15.32182   -145.4 1.095e+04 8.944e-09
 15.34115   -145.2 1.095e+04 9.820e-09
 15.35124   -145.2 1.061e+04 9.424e-09
 15.36215   -144.4 1.061e+04 9.622e-09
 15.38232   -143.6 1.070e+04 9.744e-09
 15.40248   -142.8 1.088e+04 9.926e-09
 15.42109   -142.0 1.113e+04 1.042e-08
 15.43117   -141.4 1.054e+04 8.679e-09
 15.44281   -140.5 1.074e+04 9.067e-09
 15.46298   -139.5 1.089e+04 9.898e-09
 15.48314   -138.4 1.106e+04 1.141e-08
 15.50102   -137.3 1.148e+04 1.429e-08
 15.51111   -136.3 1.062e+04 1.009e-08
 15.52348   -135.0 1.090e+04 1.199e-08
 15.54364   -134.1 1.172e+04 1.603e-08
 15.56381   -133.3 1.330e+04 2.566e-08
 15.58096   -132.4 1.505e+04 4.754e-08
 15.59104   -131.0 1.283e+04 2.099e-08
 15.59656   -130.1 1.464e+04 3.864e-08
 15.60664   -131.5 1.472e+04 4.040e-08
 15.62430   -130.4 1.587e+04 6.612e-08
 15.63938   -129.0 1.623e+04 7.448e-08
 15.64941   -129.1 1.669e+04 9.244e-08
 15.65949   -128.8 1.751e+04 1.538e-07
 15.66584   -128.7 1.788e+04 2.486e-07
 15.67088   -128.3 1.741e+04 1.369e-07
 15.67966   -128.3 1.775e+04 2.133e-07
 15.68974   -128.1 1.801e+04 3.019e-07
 15.69983   -127.9 1.836e+04 3.531e-07
 15.70581   -127.9 1.858e+04 3.590e-07
 15.71085   -127.2 1.841e+04 2.936e-07
 15.71999   -127.4 1.863e+04 2.966e-07
 15.73007   -127.7 1.863e+04 2.415e-07
 15.74016   -128.2 1.818e+04 1.871e-07
 15.74577   -128.9 1.749e+04 1.295e-07
 15.75081   -128.2 1.814e+04 1.671e-07
 15.76032   -129.1 1.749e+04 1.202e-07
 15.77040   -129.7 1.654e+04 8.699e-08
 15.78558   -129.7 1.561e+04 6.549e-08
 15.80579   -129.1 1.437e+04 4.460e-08
 15.82076   -127.8 1.320e+04 2.832e-08
 15.83085   -127.5 1.415e+04 4.361e-08
 15.84612   -126.2 1.317e+04 2.851e-08
 15.86629   -125.1 1.216e+04 1.874e-08
 15.88645   -124.1 1.163e+04 1.453e-08
 15.90070   -122.9 1.136e+04 1.265e-08
 15.91078   -122.5 1.159e+04 1.442e-08
 15.92679   -121.4 1.137e+04 1.264e-08
 15.95713   -120.1 1.128e+04 1.182e-08
 15.98083   -117.6 1.125e+04 1.158e-08
 16.00100   -117.7 1.111e+04 1.059e-08
 16.03789   -115.8 1.112e+04 1.017e-08
 16.06067   -114.4 1.120e+04 1.020e-08
 16.07065   -114.3 1.109e+04 9.345e-09
 16.08811   -114.0 1.110e+04 9.297e-09
 16.10827   -113.3 1.121e+04 9.208e-09
 16.12844   -112.9 1.128e+04 9.245e-09
 16.14051   -112.4 1.144e+04 9.382e-09
 16.15059   -112.4 1.127e+04 8.331e-09
 16.16877   -112.1 1.143e+04 8.333e-09
 16.18182   -111.7 1.150e+04 8.853e-09
 16.19190   -111.5 1.183e+04 9.935e-09
 16.20910   -111.5 1.253e+04 1.146e-08
 16.22044   -111.5 1.348e+04 1.579e-08
 16.23052   -110.5 1.222e+04 9.848e-09
 16.24943   -110.4 1.304e+04 1.312e-08
 16.26960   -110.0 1.382e+04 1.958e-08
 16.28976   -109.5 1.442e+04 2.862e-08
 16.30038   -108.8 1.490e+04 3.726e-08
 16.31046   -108.0 1.391e+04 2.254e-08
 16.33009   -107.2 1.439e+04 2.949e-08
 16.35026   -106.2 1.474e+04 3.418e-08
 16.37023   -105.3 1.486e+04 3.537e-08
 16.38031   -104.7 1.425e+04 2.845e-08
 16.39059   -103.9 1.438e+04 2.901e-08
 16.41076   -102.9 1.439e+04 2.502e-08
 16.43092   -101.8 1.417e+04 1.991e-08
 16.45016   -100.6 1.404e+04 1.551e-08
 16.46025   -100.2 1.375e+04 1.512e-08
 16.47125    -99.0 1.349e+04 1.165e-08
 16.49142    -97.8 1.342e+04 8.919e-09
 16.51158    -96.3 1.341e+04 7.231e-09
 16.53010    -94.7 1.361e+04 6.152e-09
 16.54018    -94.4 1.310e+04 5.503e-09
 16.55192    -93.0 1.324e+04 4.516e-09
 16.57208    -91.6 1.357e+04 3.734e-09
 16.59225    -90.2 1.379e+04 3.510e-09
 16.61003    -88.7 1.461e+04 3.814e-09
 16.62012    -88.4 1.318e+04 2.814e-09
 16.63258    -87.0 1.377e+04 2.985e-09
 16.65274    -85.7 1.447e+04 3.296e-09
 16.67291    -84.2 1.513e+04 3.825e-09
 16.68997    -82.7 1.564e+04 4.625e-09
 16.70005    -82.6 1.357e+04 2.639e-09
 16.71324    -81.3 1.412e+04 3.083e-09
 16.73340    -80.3 1.437e+04 3.608e-09
 16.75357    -79.3 1.438e+04 4.127e-09
 16.76708    -78.5 1.440e+04 4.800e-09
 16.77333    -78.1 1.762e+04 3.151e-08
 16.77999    -77.6 1.722e+04 1.349e-08
 16.79390    -77.1 1.786e+04 1.455e-08
 16.81407    -76.7 1.818e+04 1.644e-08
 16.83423    -76.2 1.807e+04 1.971e-08
 16.84984    -75.6 1.764e+04 2.378e-08
 16.85992    -74.9 1.750e+04 1.357e-08
 16.87456    -74.3 1.704e+04 1.813e-08
 16.89473    -73.7 1.682e+04 2.398e-08
 16.91489    -73.1 1.694e+04 3.075e-08
 16.92977    -72.8 1.742e+04 3.806e-08
 16.93986    -71.8 1.732e+04 2.767e-08
 16.95522    -71.6 1.796e+04 3.591e-08
 16.97539    -71.8 1.893e+04 4.788e-08
 16.99556    -72.9 2.006e+04 6.964e-08
 17.00971    -74.8 2.035e+04 1.142e-07
 17.01470    -73.9 2.119e+04 6.341e-08
 17.02067    -76.1 2.059e+04 1.172e-07
 17.03075    -77.1 2.027e+04 1.505e-07
 17.04083    -78.7 1.942e+04 2.863e-07
 17.04958    -79.8 1.869e+04 5.280e-07
 17.05462    -80.4 1.831e+04 7.621e-07
 17.05961    -80.9 1.810e+04 1.259e-06
 17.06465    -81.3 1.814e+04 1.497e-06
 17.07108    -82.1 1.815e+04 1.725e-06
 17.08116    -83.1 1.830e+04 1.587e-06
 17.08955    -83.9 1.865e+04 1.168e-06
 17.09459    -84.8 1.847e+04 1.134e-06
 17.10133    -85.1 1.874e+04 7.174e-07
 17.11141    -85.3 1.900e+04 4.173e-07
 17.12149    -85.4 1.886e+04 2.352e-07
 17.12951    -85.4 1.856e+04 1.342e-07
 17.13455    -85.7 1.842e+04 1.406e-07
 17.14166    -85.8 1.802e+04 9.205e-08
 17.15174    -85.9 1.752e+04 6.234e-08
 17.16182    -86.0 1.682e+04 4.357e-08
 17.16948    -86.1 1.605e+04 3.192e-08
 17.17452    -86.1 1.618e+04 3.825e-08
 17.18199    -86.2 1.554e+04 3.104e-08
 17.19207    -85.9 1.500e+04 2.704e-08
 17.20215    -85.8 1.461e+04 2.463e-08
 17.20945    -85.3 1.433e+04 2.323e-08
 17.21449    -85.3 1.448e+04 2.526e-08
 17.22232    -85.2 1.443e+04 2.500e-08
 17.23749    -84.2 1.441e+04 2.472e-08
 17.24951    -83.2 1.410e+04 1.982e-08
 17.25960    -83.4 1.384e+04 1.857e-08
 17.27787    -82.5 1.344e+04 1.332e-08
 17.29804    -81.4 1.332e+04 1.113e-08
 17.31820    -80.3 1.331e+04 1.049e-08
 17.32945    -79.2 1.334e+04 1.026e-08
 17.33953    -79.7 1.312e+04 7.941e-09
 17.35234    -78.6 1.310e+04 7.725e-09
 17.36242    -78.2 1.307e+04 7.176e-09
 17.37870    -77.0 1.310e+04 7.170e-09
 17.39887    -75.8 1.312e+04 7.240e-09
 17.40938    -74.7 1.310e+04 7.199e-09
 17.41947    -75.6 1.280e+04 4.896e-09
 17.43920    -74.5 1.279e+04 4.870e-09
 17.45936    -73.6 1.285e+04 4.966e-09
 17.47924    -73.1 1.293e+04 5.206e-09
 17.48932    -73.8 1.275e+04 4.868e-09
 17.49969    -73.5 1.286e+04 5.607e-09
 17.51986    -73.5 1.304e+04 6.997e-09
 17.54002    -73.5 1.326e+04 9.399e-09
 17.55917    -73.4 1.350e+04 1.276e-08
 17.56925    -73.2 1.324e+04 1.071e-08
 17.58036    -73.0 1.347e+04 1.252e-08
 17.60052    -72.9 1.360e+04 1.319e-08
 17.62069    -72.9 1.360e+04 1.203e-08
 17.63911    -72.8 1.356e+04 9.863e-09
 17.64919    -72.2 1.331e+04 8.154e-09
 17.66102    -72.0 1.328e+04 6.761e-09
 17.68118    -71.7 1.326e+04 5.952e-09
 17.70135    -71.3 1.322e+04 5.667e-09
 17.71914    -70.7 1.315e+04 5.755e-09
 17.73940    -69.4 1.300e+04 4.446e-09
 17.77212    -67.1 1.296e+04 4.261e-09
 17.81245    -65.2 1.284e+04 5.140e-09
 17.85278    -63.5 1.282e+04 7.761e-09
 17.87911    -61.7 1.287e+04 1.096e-08
 17.89927    -61.1 1.279e+04 1.096e-08
 17.92771    -59.8 1.283e+04 1.255e-08
 17.94788    -60.4 1.290e+04 1.331e-08
 17.97378    -59.0 1.244e+04 1.268e-08
 18.01411    -57.0 1.202e+04 8.713e-09
 18.03898    -54.9 1.167e+04 5.515e-09
 18.05914    -54.5 1.169e+04 5.757e-09
 18.09477    -52.6 1.153e+04 4.439e-09
 18.13510    -50.6 1.143e+04 4.103e-09
 18.17543    -48.5 1.142e+04 4.237e-09
 18.19885    -47.0 1.128e+04 4.594e-09
 18.21901    -47.6 1.126e+04 5.340e-09
 18.25609    -46.2 1.122e+04 5.709e-09
 18.29643    -44.4 1.091e+04 5.789e-09
 18.33676    -42.4 1.057e+04 5.109e-09
 18.35872    -40.8 1.029e+04 4.152e-09
 18.37888    -40.8 1.001e+04 3.154e-09
 18.41742    -39.3 9.840e+03 2.686e-09
 18.43856    -36.8 9.668e+03 2.855e-09
 18.44854    -36.5 9.662e+03 2.594e-09
 18.46764    -36.3 9.652e+03 2.505e-09
 18.48780    -34.7 9.614e+03 2.081e-09
 18.50797    -34.5 9.553e+03 2.100e-09
 18.51839    -33.0 9.581e+03 1.863e-09
 18.53866    -33.0 9.447e+03 1.730e-09
 18.56856    -31.5 9.325e+03 1.816e-09
 18.58824    -31.1 9.341e+03 1.892e-09
 18.59833    -30.8 9.215e+03 1.720e-09
 18.60880    -29.6 9.212e+03 1.748e-09
 18.62896    -30.0 9.868e+03 1.847e-09
 18.64913    -31.0 1.106e+04 2.636e-09
 18.66818    -32.3 1.134e+04 5.758e-09
 18.67826    -31.4 1.100e+04 3.211e-09
 18.68946    -32.2 1.103e+04 8.045e-09
 18.70962    -31.8 1.151e+04 1.555e-08
 18.72979    -31.4 1.214e+04 2.273e-08
 18.74811    -31.0 1.246e+04 2.837e-08
 18.75820    -31.0 1.226e+04 2.640e-08
 18.77012    -30.6 1.247e+04 2.770e-08
 18.79028    -30.3 1.208e+04 2.091e-08
 18.81045    -30.9 1.141e+04 1.376e-08
 18.82805    -31.8 1.051e+04 9.684e-09
 18.83813    -31.3 1.060e+04 9.713e-09
 18.85078    -31.8 1.003e+04 6.618e-09
 18.87095    -32.0 9.469e+03 5.539e-09
 18.89111    -31.8 9.360e+03 4.375e-09
 18.90799    -31.5 9.005e+03 4.371e-09
 18.91807    -31.2 8.963e+03 3.986e-09
 18.93144    -30.5 8.855e+03 3.454e-09
 18.95161    -29.9 8.708e+03 3.399e-09
 18.97177    -28.9 8.677e+03 3.347e-09
 18.98792    -28.3 8.681e+03 3.397e-09
 18.99800    -28.2 8.692e+03 3.041e-09
 19.01210    -27.2 8.668e+03 3.251e-09
 19.03227    -26.5 8.766e+03 3.639e-09
 19.05244    -25.8 8.900e+03 4.285e-09
 19.06786    -25.1 9.107e+03 5.138e-09
 19.07794    -24.9 9.104e+03 4.874e-09
 19.09277    -24.4 9.365e+03 6.268e-09
 19.10812    -24.3 1.000e+04 8.359e-09
 19.11820    -24.7 9.638e+03 6.986e-09
 19.13310    -25.1 1.034e+04 9.675e-09
 19.14779    -26.0 1.129e+04 1.460e-08
 19.15787    -26.2 1.176e+04 1.782e-08
 19.17343    -27.4 1.292e+04 2.935e-08
 19.19359    -28.5 1.390e+04 4.690e-08
 19.21376    -29.1 1.449e+04 6.521e-08
 19.22773    -29.1 1.470e+04 7.610e-08
 19.23781    -29.2 1.505e+04 8.287e-08
 19.25409    -29.5 1.485e+04 7.821e-08
 19.26764    -30.2 1.511e+04 7.169e-08
 19.27264    -30.8 1.539e+04 7.653e-08
 19.27920    -33.7 1.634e+04 8.342e-08
 19.28928    -38.5 1.786e+04 1.073e-07
 19.29937    -41.7 1.742e+04 1.359e-07
 19.30756    -43.3 1.652e+04 1.445e-07
 19.31260    -43.2 1.648e+04 1.773e-07
 19.31953    -42.4 1.587e+04 1.620e-07
 19.32961    -40.6 1.588e+04 1.173e-07
 19.33970    -39.9 1.616e+04 6.267e-08
 19.35487    -44.8 1.432e+04 2.278e-08
 19.37508    -51.7 1.110e+04 5.831e-09
 19.38760    -53.4 1.013e+04 3.207e-09
 19.39768    -53.5 1.013e+04 3.217e-09
 19.41541    -54.0 9.865e+03 2.347e-09
 19.43558    -54.0 9.652e+03 2.079e-09
 19.45575    -53.4 9.619e+03 2.028e-09
 19.46753    -53.2 9.941e+03 2.135e-09
 19.47761    -52.9 1.010e+04 2.345e-09
 19.49608    -53.4 1.052e+04 2.931e-09
 19.51624    -54.5 1.082e+04 4.684e-09
 19.53641    -55.1 1.107e+04 8.537e-09
 19.54747    -54.7 1.156e+04 1.427e-08
 19.55755    -54.3 1.171e+04 1.578e-08
 19.57674    -53.1 1.226e+04 1.998e-08
 19.59690    -52.5 1.255e+04 2.084e-08
 19.61707    -52.6 1.255e+04 1.624e-08
 19.62740    -53.3 1.236e+04 1.276e-08
 19.63748    -53.0 1.221e+04 1.166e-08
 19.65740    -53.1 1.210e+04 1.079e-08
 19.67757    -52.5 1.219e+04 1.074e-08
 19.69338    -53.4 1.363e+04 1.464e-08
 19.70298    -52.9 1.313e+04 1.172e-08
 19.70734    -51.3 1.228e+04 8.469e-09
 19.71790    -54.0 1.411e+04 1.667e-08
 19.73806    -56.3 1.549e+04 5.736e-08
 19.75823    -55.9 1.701e+04 1.705e-07
 19.77330    -54.6 1.823e+04 3.476e-07
 19.78213    -55.5 1.829e+04 3.967e-07
 19.78717    -55.3 1.821e+04 4.084e-07
 19.79342    -55.3 1.840e+04 4.437e-07
 19.80350    -56.7 1.838e+04 3.084e-07
 19.81359    -57.8 1.797e+04 1.738e-07
 19.82210    -59.2 1.746e+04 1.118e-07
 19.82714    -58.8 1.765e+04 1.280e-07
 19.83884    -61.2 1.628e+04 6.933e-08
 19.85712    -63.0 1.510e+04 4.011e-08
 19.86721    -62.0 1.563e+04 5.280e-08
 19.87922    -63.4 1.467e+04 3.463e-08
 19.89939    -64.0 1.424e+04 2.812e-08
 19.91955    -64.6 1.387e+04 2.206e-08
 19.93706    -65.2 1.347e+04 1.697e-08
 19.94714    -65.3 1.348e+04 1.707e-08
 19.95988    -66.0 1.311e+04 1.353e-08
 19.98005    -66.5 1.282e+04 1.153e-08
 20.00021    -66.9 1.260e+04 1.054e-08
 20.01699    -67.0 1.247e+04 9.869e-09
 20.02708    -67.1 1.246e+04 9.027e-09
 20.04054    -67.1 1.238e+04 8.081e-09
 20.06071    -67.1 1.231e+04 6.795e-09
 20.08088    -67.3 1.226e+04 5.589e-09
 20.09693    -67.6 1.220e+04 4.781e-09
 20.10701    -67.8 1.223e+04 4.438e-09
 20.12121    -68.0 1.215e+04 4.201e-09
 20.14137    -68.0 1.212e+04 4.205e-09
 20.16154    -67.9 1.214e+04 4.416e-09
 20.17686    -67.9 1.220e+04 4.853e-09
 20.18695    -67.7 1.222e+04 4.884e-09
 20.20187    -67.9 1.242e+04 5.958e-09
 20.22203    -68.6 1.276e+04 8.704e-09
 20.24220    -69.3 1.320e+04 1.463e-08
 20.25680    -69.6 1.365e+04 2.443e-08
 20.26688    -69.5 1.401e+04 2.925e-08
 20.27864    -69.4 1.455e+04 4.348e-08
 20.28872    -68.3 1.395e+04 2.893e-08
 20.30270    -68.1 1.447e+04 4.208e-08
 20.32286    -68.2 1.472e+04 4.644e-08
 20.33673    -68.6 1.457e+04 3.992e-08
 20.34682    -68.5 1.503e+04 5.033e-08
 20.36319    -69.1 1.452e+04 3.423e-08
 20.38336    -69.8 1.384e+04 2.065e-08
 20.40352    -70.6 1.322e+04 1.380e-08
 20.41667    -71.0 1.279e+04 1.131e-08
 20.42675    -71.0 1.294e+04 1.165e-08
 20.44385    -71.0 1.274e+04 1.111e-08
 20.46402    -70.8 1.265e+04 1.151e-08
 20.48419    -70.6 1.266e+04 1.223e-08
 20.49660    -70.6 1.272e+04 1.315e-08
 20.50669    -70.2 1.293e+04 1.429e-08
 20.52452    -70.5 1.318e+04 1.713e-08
 20.54468    -71.2 1.349e+04 2.188e-08
 20.56485    -71.7 1.382e+04 2.758e-08
 20.57654    -72.0 1.397e+04 3.022e-08
 20.58662    -72.1 1.504e+04 5.601e-08
 20.60518    -72.2 1.504e+04 5.799e-08
 20.62534    -71.9 1.448e+04 4.046e-08
 20.64551    -71.8 1.345e+04 1.990e-08
 20.65647    -72.1 1.287e+04 1.134e-08
 20.66656    -71.7 1.347e+04 1.747e-08
 20.68584    -72.0 1.288e+04 1.099e-08
 20.71619    -71.5 1.250e+04 8.749e-09
 20.74643    -71.0 1.272e+04 1.066e-08
 20.76650    -71.0 1.274e+04 1.080e-08
 20.78667    -71.1 1.278e+04 1.119e-08
 20.80626    -71.1 1.284e+04 1.139e-08
 20.81634    -71.8 1.318e+04 1.474e-08
 20.82700    -72.3 1.313e+04 1.513e-08
 20.84716    -72.8 1.296e+04 1.530e-08
 20.86390    -73.3 1.270e+04 1.465e-08
 20.87398    -71.7 1.258e+04 1.054e-08
 20.88620    -72.0 1.251e+04 1.059e-08
 20.89628    -73.1 1.242e+04 1.283e-08
 20.90766    -73.6 1.208e+04 1.162e-08
 20.92783    -74.1 1.179e+04 1.089e-08
 20.94799    -74.7 1.160e+04 9.817e-09
 20.96613    -75.3 1.145e+04 9.065e-09
 20.97621    -75.8 1.118e+04 7.543e-09
 20.98832    -76.1 1.095e+04 6.870e-09
 21.00849    -76.1 1.071e+04 6.114e-09
 21.02865    -75.9 1.047e+04 4.986e-09
 21.04607    -75.7 1.029e+04 3.731e-09
 21.05615    -76.1 1.014e+04 3.269e-09
 21.07917    -76.1 9.913e+03 2.525e-09
 21.11959    -75.1 9.453e+03 1.680e-09
 21.15992    -73.6 9.407e+03 1.333e-09
 21.19605    -72.5 9.494e+03 1.306e-09
 21.21622    -72.5 9.398e+03 1.254e-09
 21.24059    -72.8 1.000e+04 2.085e-09
 21.28092    -73.0 1.062e+04 5.134e-09
 21.32125    -73.0 1.138e+04 8.757e-09
 21.35592    -74.7 1.164e+04 9.524e-09
 21.37609    -75.1 1.163e+04 1.009e-08
 21.40191    -76.1 1.119e+04 5.531e-09
 21.43927    -76.4 1.067e+04 1.916e-09
 21.45944    -74.8 1.105e+04 3.081e-09
 21.48257    -75.2 1.097e+04 1.452e-09
 21.51579    -75.5 1.102e+04 1.028e-09
 21.53596    -75.7 1.104e+04 9.756e-10
 21.56323    -76.0 1.103e+04 9.654e-10
 21.60357    -77.0 1.117e+04 1.825e-09
 21.64390    -78.1 1.139e+04 3.572e-09
 21.67566    -79.6 1.189e+04 5.219e-09
 21.69583    -80.5 1.184e+04 4.356e-09
 21.72456    -82.6 1.206e+04 4.191e-09
 21.76489    -84.3 1.237e+04 3.383e-09
 21.80522    -84.9 1.264e+04 3.031e-09
 21.83537    -85.2 1.254e+04 2.311e-09
 21.85554    -85.7 1.241e+04 1.916e-09
 21.88588    -85.4 1.249e+04 2.064e-09
 21.91537    -85.3 1.254e+04 2.809e-09
 21.92535    -85.4 1.246e+04 2.584e-09
 21.93610    -85.6 1.250e+04 3.386e-09
 21.95627    -85.5 1.260e+04 4.473e-09
 21.97643    -85.5 1.268e+04 5.469e-09
 21.99521    -85.5 1.283e+04 6.606e-09
 22.00529    -85.7 1.273e+04 6.326e-09
 22.01676    -85.9 1.285e+04 6.993e-09
 22.03442    -86.1 1.311e+04 8.050e-09
 22.04450    -86.0 1.304e+04 7.727e-09
 22.05709    -86.4 1.318e+04 7.947e-09
 22.07514    -86.8 1.325e+04 8.235e-09
 22.08522    -86.8 1.322e+04 8.296e-09
 22.09742    -87.3 1.322e+04 8.466e-09
 22.11759    -87.7 1.311e+04 8.378e-09
 22.13776    -87.8 1.290e+04 7.639e-09
 22.15508    -87.7 1.270e+04 6.502e-09
 22.16516    -87.4 1.271e+04 6.899e-09
 22.17809    -87.2 1.251e+04 5.753e-09
 22.19825    -86.8 1.231e+04 4.794e-09
 22.21842    -86.2 1.217e+04 4.047e-09
 22.23501    -85.6 1.209e+04 3.470e-09
 22.24509    -85.3 1.215e+04 3.877e-09
 22.25875    -84.9 1.207e+04 3.481e-09
 22.28909    -84.5 1.195e+04 3.134e-09
 22.31514    -83.0 1.165e+04 2.503e-09
 22.33531    -82.4 1.170e+04 2.999e-09
 22.36985    -80.6 1.146e+04 2.314e-09
 22.41018    -78.5 1.126e+04 1.622e-09
 22.45052    -76.4 1.114e+04 1.160e-09
 22.47501    -74.4 1.109e+04 9.792e-10
 22.49518    -73.8 1.113e+04 1.247e-09
 22.53118    -71.9 1.107e+04 1.157e-09
 22.57151    -70.4 1.109e+04 1.161e-09
 22.60979    -69.0 1.099e+04 1.437e-09
 22.62995    -68.0 1.067e+04 8.716e-10
 22.63488    -66.5 1.064e+04 9.948e-10
 22.65505    -66.0 1.060e+04 1.076e-09
 22.69250    -64.5 1.052e+04 1.403e-09
 22.73283    -62.9 1.048e+04 2.026e-09
 22.77316    -61.2 1.044e+04 2.642e-09
 22.79475    -59.5 1.040e+04 2.897e-09
 22.81492    -59.1 1.046e+04 3.189e-09
 22.85383    -57.4 1.012e+04 3.043e-09
 22.89416    -55.7 1.003e+04 2.266e-09
 22.93446    -54.0 9.859e+03 1.706e-09
 22.97479    -51.7 9.653e+03 1.291e-09
 23.01515    -49.7 9.539e+03 1.019e-09
 23.05548    -47.6 9.467e+03 8.590e-10
 23.09433    -45.7 9.472e+03 7.887e-10
 23.11449    -45.4 9.456e+03 7.982e-10
 23.13614    -43.6 9.530e+03 8.544e-10
 23.17647    -42.1 9.567e+03 1.157e-09
 23.21680    -40.2 9.616e+03 1.742e-09
 23.25420    -38.1 9.764e+03 2.474e-09
 23.27436    -38.7 9.751e+03 2.617e-09
 23.29747    -37.1 1.001e+04 3.199e-09
 23.33780    -36.2 1.040e+04 4.410e-09
 23.37813    -35.3 1.100e+04 8.690e-09
 23.40828    -34.7 1.125e+04 1.071e-08
 23.42395    -34.7 1.189e+04 1.473e-08
 23.43404    -34.6 1.131e+04 9.215e-09
 23.44851    -34.8 1.159e+04 1.210e-08
 23.46868    -34.5 1.172e+04 1.589e-08
 23.48884    -33.6 1.190e+04 1.876e-08
 23.50389    -33.2 1.208e+04 1.838e-08
 23.51397    -33.2 1.136e+04 1.145e-08
 23.52917    -33.2 1.165e+04 1.025e-08
 23.54934    -34.1 1.191e+04 9.565e-09
 23.56951    -35.4 1.205e+04 1.006e-08
 23.58382    -36.4 1.236e+04 1.164e-08
 23.59391    -36.1 1.199e+04 1.040e-08
 23.60984    -36.4 1.212e+04 1.302e-08
 23.63000    -36.4 1.216e+04 1.505e-08
 23.65017    -36.6 1.220e+04 1.545e-08
 23.66376    -36.8 1.225e+04 1.494e-08
 23.67384    -36.2 1.230e+04 1.596e-08
 23.69050    -36.7 1.238e+04 1.428e-08
 23.71066    -37.1 1.239e+04 1.290e-08
 23.73083    -38.1 1.256e+04 1.163e-08
 23.74369    -39.9 1.288e+04 1.169e-08
 23.75378    -40.9 1.301e+04 1.158e-08
 23.77116    -43.6 1.297e+04 1.479e-08
 23.79020    -44.6 1.311e+04 2.135e-08
 23.80028    -45.5 1.275e+04 1.847e-08
 23.81149    -45.5 1.321e+04 2.368e-08
 23.82363    -46.2 1.330e+04 2.376e-08
 23.83371    -47.4 1.339e+04 2.154e-08
 23.85182    -48.6 1.351e+04 2.010e-08
 23.87199    -50.4 1.397e+04 2.072e-08
 23.89215    -52.6 1.456e+04 2.516e-08
 23.90356    -55.4 1.495e+04 3.517e-08
 23.91365    -56.4 1.506e+04 4.947e-08
 23.93248    -58.4 1.512e+04 6.105e-08
 23.95265    -59.7 1.522e+04 6.712e-08
 23.97282    -60.9 1.476e+04 6.107e-08
 23.98350    -61.7 1.382e+04 3.891e-08
 23.99358    -62.7 1.316e+04 2.794e-08
 24.01315    -63.7 1.216e+04 1.591e-08
 24.03331    -64.3 1.137e+04 1.010e-08
 24.05335    -64.3 1.081e+04 7.093e-09
 24.06344    -64.7 1.059e+04 6.295e-09
 24.07364    -63.8 1.023e+04 4.719e-09
 24.09381    -63.1 1.004e+04 3.598e-09
 24.11397    -62.5 9.953e+03 2.940e-09
 24.14432    -61.9 9.871e+03 2.551e-09
 24.18475    -60.2 9.665e+03 2.324e-09
 24.21342    -58.3 9.627e+03 2.299e-09
 24.23358    -58.3 9.391e+03 1.970e-09
 24.26541    -56.7 9.452e+03 2.236e-09
 24.30574    -55.3 9.580e+03 2.853e-09
 24.34607    -53.8 9.701e+03 3.453e-09
 24.37329    -52.5 9.759e+03 3.632e-09
 24.39345    -52.7 9.592e+03 3.243e-09
 24.42673    -51.7 9.550e+03 2.969e-09
 24.46706    -51.0 9.493e+03 2.746e-09
 24.50740    -50.3 9.461e+03 2.708e-09
 24.53316    -49.5 9.465e+03 2.709e-09
 24.55332    -49.6 9.266e+03 2.439e-09
 24.58806    -48.7 9.355e+03 2.239e-09
 24.62839    -48.4 9.394e+03 2.073e-09
 24.66872    -48.3 9.535e+03 2.189e-09
 24.69303    -48.0 9.815e+03 2.396e-09
 24.71319    -48.1 9.804e+03 2.593e-09
 24.74938    -48.1 9.923e+03 2.596e-09
 24.78971    -48.7 9.985e+03 2.141e-09
 24.83004    -49.4 1.015e+04 2.081e-09
 24.85290    -49.9 1.028e+04 2.727e-09
 24.87306    -49.9 1.025e+04 2.613e-09
 24.91071    -49.6 1.036e+04 3.438e-09
 24.95083    -48.9 1.058e+04 3.759e-09
 24.97099    -50.5 1.073e+04 3.801e-09
 24.99137    -49.6 1.077e+04 2.574e-09
 25.01277    -48.5 1.080e+04 1.640e-09
 25.03293    -48.1 1.073e+04 1.594e-09
 25.07203    -46.9 1.086e+04 1.194e-09
 25.11236    -45.5 1.098e+04 1.035e-09
 25.15247    -44.4 1.122e+04 1.068e-09
 25.17264    -44.3 1.120e+04 1.151e-09
 25.19302    -44.7 1.136e+04 1.806e-09
 25.22317    -43.9 1.184e+04 3.062e-09
 25.24230    -45.4 1.215e+04 5.307e-09
 25.25238    -45.2 1.208e+04 5.067e-09
 25.26341    -45.5 1.222e+04 9.285e-09
 25.28357    -45.3 1.258e+04 1.203e-08
 25.30374    -45.8 1.255e+04 1.195e-08
 25.32223    -46.0 1.222e+04 7.963e-09
 25.33231    -45.6 1.212e+04 7.169e-09
 25.34407    -46.1 1.180e+04 4.430e-09
 25.36423    -46.5 1.168e+04 2.870e-09
 25.39458    -46.8 1.147e+04 1.940e-09
 25.43501    -45.7 1.102e+04 1.332e-09
 25.47221    -43.8 1.096e+04 9.512e-10
 25.49238    -42.8 1.096e+04 9.459e-10
 25.51567    -41.0 1.099e+04 7.204e-10
 25.55600    -39.2 1.099e+04 6.499e-10
 25.59633    -37.1 1.104e+04 6.704e-10
 25.63208    -35.3 1.100e+04 7.897e-10
 25.65225    -34.6 1.089e+04 9.258e-10
 25.67699    -32.6 1.085e+04 1.096e-09
 25.71733    -30.5 1.074e+04 1.362e-09
 25.75766    -28.3 1.049e+04 1.630e-09
 25.79195    -25.7 1.039e+04 1.529e-09
 25.81212    -25.0 1.037e+04 1.214e-09
 25.83832    -22.9 1.038e+04 1.047e-09
 25.87865    -21.0 1.038e+04 1.009e-09
 25.91898    -19.1 1.026e+04 1.113e-09
 25.95182    -17.0 1.019e+04 1.265e-09
 25.97199    -16.4 1.024e+04 1.375e-09
 25.99964    -14.3 1.018e+04 1.430e-09
 26.03997    -12.3 1.012e+04 1.382e-09
 26.08030    -10.3 1.005e+04 1.369e-09
 26.11169     -8.6 1.007e+04 1.448e-09
 26.13186     -8.5 1.014e+04 1.532e-09
 26.14151     -7.2 1.024e+04 1.950e-09
 26.16168     -7.2 1.038e+04 2.163e-09
 26.20130     -6.2 1.050e+04 2.899e-09
 26.24163     -5.1 1.046e+04 3.397e-09
 26.27156     -3.7 1.024e+04 2.929e-09
 26.29173     -3.3 9.996e+03 2.015e-09
 26.32229     -2.0 9.854e+03 1.449e-09
 26.36262     -0.7 9.706e+03 1.187e-09
 26.40295      0.9 9.669e+03 1.219e-09
 26.43143      2.5 9.594e+03 1.388e-09
 26.45160      3.1 9.504e+03 1.118e-09
 26.48361      4.7 9.602e+03 1.386e-09
 26.52394      6.1 9.715e+03 1.814e-09
 26.56428      7.2 9.910e+03 2.458e-09
 26.59131      8.0 1.012e+04 3.455e-09
 26.61147      8.9 1.001e+04 2.851e-09
 26.64494      9.6 1.026e+04 3.878e-09
 26.68527      9.8 1.032e+04 4.097e-09
 26.72560     10.1 1.013e+04 3.575e-09
 26.75118     10.6 9.795e+03 2.346e-09
 26.77134     11.4 1.006e+04 2.734e-09
 26.80626     11.8 9.817e+03 1.758e-09
 26.84659     12.2 9.704e+03 1.085e-09
 26.88692     12.9 9.529e+03 8.493e-10
 26.91105     14.2 9.477e+03 8.569e-10
 26.92103     15.4 9.532e+03 9.581e-10
 26.93714     15.8 9.543e+03 9.564e-10
 26.95731     15.9 9.555e+03 9.768e-10
 26.97747     15.6 9.721e+03 1.100e-09
 26.99079     12.9 1.063e+04 1.818e-09
 27.00087     10.6 1.179e+04 3.001e-09
 27.01780      6.5 1.323e+04 1.432e-08
 27.03797      5.3 1.409e+04 3.462e-08
 27.05813      4.2 1.463e+04 3.725e-08
 27.07072      2.4 1.440e+04 2.726e-08
 27.08080      0.1 1.507e+04 2.416e-08
 27.09847     -3.1 1.341e+04 1.194e-08
 27.11863     -4.9 1.157e+04 7.084e-09
 27.13880     -5.0 1.087e+04 5.204e-09
 27.15066     -4.2 1.077e+04 4.084e-09
 27.16074     -4.9 1.080e+04 3.664e-09
 27.17913     -4.1 1.081e+04 2.977e-09
 27.19929     -3.3 1.079e+04 2.617e-09
 27.21946     -2.6 1.093e+04 2.555e-09
 27.23059     -2.7 1.125e+04 3.194e-09
 27.24067     -3.5 1.144e+04 3.977e-09
 27.25979     -2.6 1.158e+04 4.956e-09
 27.29014     -3.2 1.231e+04 9.817e-09
 27.31062     -2.8 1.286e+04 1.488e-08
 27.31216     -3.7 1.320e+04 1.896e-08
 27.33210     -1.3 1.301e+04 1.407e-08
 27.36071     -1.5 1.314e+04 1.770e-08
 27.38038     -1.3 1.306e+04 1.630e-08
 27.39046     -2.0 1.303e+04 1.620e-08
 27.40095     -2.1 1.268e+04 1.134e-08
 27.42111     -2.8 1.251e+04 8.157e-09
 27.44128     -3.6 1.253e+04 7.081e-09
 27.46031     -5.2 1.289e+04 6.868e-09
 27.47040     -8.0 1.341e+04 8.832e-09
 27.48161    -11.6 1.436e+04 1.587e-08
 27.50178    -14.0 1.479e+04 3.081e-08
 27.52194    -15.2 1.463e+04 3.684e-08
 27.54025    -15.5 1.411e+04 2.873e-08
 27.55033    -16.5 1.400e+04 2.764e-08
 27.56227    -18.6 1.362e+04 1.591e-08
 27.58244    -21.7 1.307e+04 1.029e-08
 27.60260    -23.5 1.249e+04 9.809e-09
 27.62018    -24.2 1.222e+04 1.006e-08
 27.63027    -24.7 1.238e+04 1.148e-08
 27.64293    -24.7 1.221e+04 1.116e-08
 27.66310    -24.5 1.193e+04 1.011e-08
 27.68326    -24.1 1.170e+04 7.949e-09
 27.70012    -24.2 1.152e+04 6.157e-09
 27.71020    -24.6 1.158e+04 6.400e-09
 27.72360    -24.7 1.152e+04 4.911e-09
 27.74376    -24.9 1.140e+04 4.140e-09
 27.76393    -24.6 1.126e+04 3.429e-09
 27.78005    -24.5 1.117e+04 3.065e-09
 27.79014    -24.8 1.116e+04 3.068e-09
 27.81444    -24.3 1.101e+04 2.440e-09
 27.85010    -23.1 1.078e+04 1.728e-09
 27.87027    -23.2 1.068e+04 1.448e-09
 27.89520    -21.7 1.059e+04 9.358e-10
 27.93553    -20.1 1.047e+04 6.705e-10
 27.97586    -18.3 1.036e+04 5.620e-10
 28.00997    -16.0 1.027e+04 5.388e-10
 28.03014    -15.8 1.022e+04 4.781e-10
 28.05652    -13.3 1.022e+04 4.905e-10
 28.09685    -11.0 1.031e+04 5.397e-10
 28.13718     -8.7 1.039e+04 6.296e-10
 28.16984     -6.2 1.046e+04 7.630e-10
 28.19001     -5.9 1.038e+04 8.834e-10
 28.21785     -3.3 1.046e+04 1.010e-09
 28.25818     -0.9 1.060e+04 1.024e-09
 28.29851      1.5 1.066e+04 1.007e-09
 28.32971      3.9 1.071e+04 9.929e-10
 28.34988      3.9 1.071e+04 1.005e-09
 28.37917      6.3 1.073e+04 1.015e-09
 28.41950      8.8 1.078e+04 1.046e-09
 28.45983     11.3 1.085e+04 1.174e-09
 28.48255     13.7 1.090e+04 1.451e-09
 28.49214     14.0 1.090e+04 1.546e-09
 28.50975     13.6 1.088e+04 1.580e-09
 28.54049     16.0 1.103e+04 2.278e-09
 28.58082     18.3 1.126e+04 3.181e-09
 28.62116     20.7 1.137e+04 4.265e-09
 28.64945     23.5 1.165e+04 5.345e-09
 28.66962     22.8 1.154e+04 3.994e-09
 28.69164     24.3 1.170e+04 4.413e-09
 28.71170     25.4 1.182e+04 4.592e-09
 28.72919     26.1 1.202e+04 4.676e-09
 28.73927     25.4 1.199e+04 4.033e-09
 28.75204     26.0 1.212e+04 4.415e-09
 28.77220     26.8 1.234e+04 5.287e-09
 28.79237     26.6 1.274e+04 6.923e-09
 28.80913     25.9 1.326e+04 1.122e-08
 28.81921     24.6 1.330e+04 1.243e-08
 28.83270     23.9 1.389e+04 2.466e-08
 28.85286     23.6 1.449e+04 4.719e-08
 28.87303     23.1 1.487e+04 5.794e-08
 28.88906     22.8 1.477e+04 5.252e-08
 28.89914     23.1 1.396e+04 2.934e-08
 28.91336     22.8 1.380e+04 1.811e-08
 28.93353     21.9 1.369e+04 8.973e-09
 28.95369     20.2 1.353e+04 5.581e-09
 28.96909     19.6 1.326e+04 4.652e-09
 28.98936     21.0 1.286e+04 3.432e-09
 29.02447     22.1 1.288e+04 3.120e-09
 29.06480     23.5 1.290e+04 3.136e-09
 29.10513     24.9 1.291e+04 3.116e-09
 29.12906     26.4 1.298e+04 2.997e-09
 29.14923     27.1 1.295e+04 2.361e-09
 29.18579     28.7 1.300e+04 2.200e-09
 29.22612     30.3 1.311e+04 2.009e-09
 29.26645     31.9 1.334e+04 1.871e-09
 29.28893     33.5 1.340e+04 1.880e-09
 29.30910     34.2 1.343e+04 1.527e-09
 29.34711     35.8 1.353e+04 1.556e-09
 29.38744     37.3 1.362e+04 1.670e-09
 29.42777     38.8 1.358e+04 1.884e-09
 29.44880     40.3 1.345e+04 2.125e-09
 29.46897     41.0 1.349e+04 2.126e-09
 29.50844     42.3 1.337e+04 2.511e-09
 29.54877     43.5 1.324e+04 2.789e-09
 29.58851     44.5 1.305e+04 2.962e-09
 29.60867     45.2 1.313e+04 3.537e-09
 29.62943     46.1 1.304e+04 3.611e-09
 29.65307     46.9 1.295e+04 3.585e-09
 29.67324     47.3 1.303e+04 2.692e-09
 29.71009     48.2 1.287e+04 2.691e-09
 29.74838     49.1 1.273e+04 2.545e-09
 29.76854     50.0 1.282e+04 3.122e-09
 29.79075     50.9 1.272e+04 3.214e-09
 29.83108     51.6 1.260e+04 3.284e-09
 29.87142     52.3 1.252e+04 3.336e-09
 29.90825     53.1 1.256e+04 3.361e-09
 29.92832     53.4 1.276e+04 4.922e-09
 29.94180     53.1 1.280e+04 5.151e-09
 29.96197     53.0 1.277e+04 5.393e-09
 29.98213     52.9 1.268e+04 5.518e-09
 29.99807     53.1 1.258e+04 5.573e-09
 30.00815     53.0 1.268e+04 6.555e-09
 30.02246     53.2 1.267e+04 6.588e-09
 30.04263     53.2 1.270e+04 7.022e-09
 30.06279     53.1 1.277e+04 8.762e-09
 30.07801     53.2 1.285e+04 1.229e-08
 30.08809     53.3 1.294e+04 1.350e-08
 30.10312     53.7 1.301e+04 1.716e-08
 30.12329     54.0 1.319e+04 1.793e-08
 30.14345     54.2 1.321e+04 1.743e-08
 30.15794     54.2 1.320e+04 1.550e-08
 30.16802     54.2 1.319e+04 1.462e-08
 30.19397     53.6 1.288e+04 1.113e-08
 30.22799     53.9 1.232e+04 7.524e-09
 30.24815     54.7 1.258e+04 1.038e-08
 30.27473     55.0 1.218e+04 8.180e-09
 30.31506     55.5 1.166e+04 5.940e-09
 30.35539     56.4 1.111e+04 4.118e-09
 30.38786     57.7 1.068e+04 3.155e-09
 30.40802     57.8 1.093e+04 4.101e-09
 30.42587     58.3 1.074e+04 3.569e-09
 30.44594     58.7 1.068e+04 3.554e-09
 30.46610     59.1 1.062e+04 3.655e-09
 30.47768     59.5 1.053e+04 3.900e-09
 30.48776     59.3 1.059e+04 4.468e-09
 30.50643     59.7 1.056e+04 4.900e-09
 30.52660     60.1 1.057e+04 5.432e-09
 30.54676     60.5 1.058e+04 6.009e-09
 30.55762     60.9 1.058e+04 6.591e-09
 30.56770     60.5 1.061e+04 6.997e-09
 30.58710     60.9 1.059e+04 7.411e-09
 30.60726     61.1 1.060e+04 7.810e-09
 30.62743     61.4 1.066e+04 8.224e-09
 30.64759     61.1 1.070e+04 8.260e-09
 30.66776     61.1 1.087e+04 8.921e-09
 30.68792     61.0 1.113e+04 1.023e-08
 30.70740     60.8 1.148e+04 1.282e-08
 30.71749     60.5 1.128e+04 1.090e-08
 30.72825     60.5 1.160e+04 1.373e-08
 30.74842     60.5 1.192e+04 1.703e-08
 30.76858     60.5 1.212e+04 2.012e-08
 30.78734     60.6 1.208e+04 2.057e-08
 30.79742     60.1 1.171e+04 1.556e-08
 30.80892     60.1 1.161e+04 1.527e-08
 30.82339     60.1 1.135e+04 1.418e-08
 30.83348     60.5 1.224e+04 2.648e-08
 30.84925     60.6 1.196e+04 2.221e-08
 30.86727     60.8 1.163e+04 1.832e-08
 30.87736     60.4 1.119e+04 1.473e-08
 30.88958     60.7 1.084e+04 1.210e-08
 30.90974     61.0 1.051e+04 1.002e-08
 30.92991     61.4 1.022e+04 8.440e-09
 30.94721     61.8 9.985e+03 7.367e-09
 30.95729     61.5 9.818e+03 6.723e-09
 30.97024     62.0 9.694e+03 6.333e-09
 30.99041     62.7 9.614e+03 6.208e-09
 31.01057     63.4 9.602e+03 6.210e-09
 31.02714     64.2 9.611e+03 6.250e-09
 31.03723     64.2 9.607e+03 6.221e-09
 31.05090     65.0 9.623e+03 6.298e-09
 31.07107     65.8 9.628e+03 6.382e-09
 31.09123     66.5 9.619e+03 6.438e-09
 31.10708     67.3 9.597e+03 6.498e-09
 31.11716     67.2 9.529e+03 6.272e-09
 31.13156     68.1 9.505e+03 6.308e-09
 31.15173     68.9 9.475e+03 6.463e-09
 31.17189     69.8 9.487e+03 6.881e-09
 31.18701     70.7 9.674e+03 7.764e-09
 31.19710     70.8 9.701e+03 7.496e-09
 31.21223     70.7 1.003e+04 9.281e-09
 31.23239     70.1 1.086e+04 1.323e-08
 31.25256     69.2 1.213e+04 2.220e-08
 31.26695     68.8 1.329e+04 3.616e-08
 31.27703     68.2 1.352e+04 3.953e-08
 31.28780     67.9 1.412e+04 4.854e-08
 31.29783     67.1 1.479e+04 5.957e-08
 31.30682     66.1 1.542e+04 7.291e-08
 31.31186     65.7 1.545e+04 7.493e-08
 31.31800     64.7 1.595e+04 8.684e-08
 31.32808     63.5 1.641e+04 9.999e-08
 31.33816     62.0 1.671e+04 1.151e-07
 31.34679     60.6 1.689e+04 1.302e-07
 31.35183     60.3 1.671e+04 1.188e-07
 31.35833     58.8 1.666e+04 1.194e-07
 31.36841     57.3 1.651e+04 1.150e-07
 31.37849     55.5 1.612e+04 1.019e-07
 31.39367     54.7 1.506e+04 6.862e-08
 31.40865     53.9 1.388e+04 4.036e-08
 31.41874     53.0 1.481e+04 4.699e-08
 31.42682     51.0 1.304e+04 1.874e-08
 31.43690     51.0 1.258e+04 1.580e-08
 31.45421     48.2 1.092e+04 8.045e-09
 31.47438     46.9 1.027e+04 6.805e-09
 31.49454     47.0 1.012e+04 6.469e-09
 31.50675     47.2 1.007e+04 6.275e-09
 31.51684     47.7 9.958e+03 5.521e-09
 31.53487     48.1 9.966e+03 5.348e-09
 31.55504     48.3 9.990e+03 5.106e-09
 31.57520     48.3 1.001e+04 4.854e-09
 31.58669     48.2 1.003e+04 4.815e-09
 31.59677     48.8 9.968e+03 4.664e-09
 31.61554     48.6 1.008e+04 4.898e-09
 31.63570     48.2 1.023e+04 5.335e-09
 31.65587     47.7 1.039e+04 5.780e-09
 31.66662     47.2 1.046e+04 5.891e-09
 31.67671     48.1 1.052e+04 6.249e-09
 31.69620     47.5 1.052e+04 6.193e-09
 31.71636     46.7 1.048e+04 5.896e-09
 31.73648     45.9 1.041e+04 5.563e-09
 31.75664     46.0 1.050e+04 5.758e-09
 31.77686     45.0 1.052e+04 5.642e-09
 31.79702     44.1 1.053e+04 5.527e-09
 31.81641     43.2 1.055e+04 5.228e-09
 31.82649     44.4 1.054e+04 4.876e-09
 31.83736     43.5 1.048e+04 4.371e-09
 31.85752     42.7 1.033e+04 4.100e-09
 31.87769     42.2 1.029e+04 4.108e-09
 31.89635     41.9 1.031e+04 4.294e-09
 31.90643     43.3 1.025e+04 3.908e-09
 31.91802     43.1 1.038e+04 4.535e-09
 31.93818     43.0 1.066e+04 5.859e-09
 31.95835     43.3 1.102e+04 7.951e-09
 31.97628     43.6 1.144e+04 1.065e-08
 31.98636     45.0 1.131e+04 9.590e-09
 31.99391     45.5 1.179e+04 1.263e-08
 32.00400     44.8 1.193e+04 1.246e-08
 32.01884     44.9 1.232e+04 1.429e-08
 32.03901     44.5 1.276e+04 1.644e-08
 32.05622     43.6 1.335e+04 2.073e-08
 32.06630     45.0 1.334e+04 2.030e-08
 32.07934     43.8 1.408e+04 2.798e-08
 32.09951     42.5 1.488e+04 4.072e-08
 32.11967     41.5 1.548e+04 5.479e-08
 32.13615     40.5 1.573e+04 6.097e-08
 32.14624     41.4 1.581e+04 6.127e-08
 32.16000     40.3 1.572e+04 5.990e-08
 32.18017     39.4 1.547e+04 5.549e-08
 32.19524     39.2 1.534e+04 5.509e-08
 32.20528     39.2 1.528e+04 5.409e-08
 32.21536     39.3 1.528e+04 5.363e-08
 32.22103     39.4 1.532e+04 5.344e-08
 32.22607     39.6 1.507e+04 4.775e-08
 32.23553     39.7 1.499e+04 4.541e-08
 32.24561     40.1 1.490e+04 4.261e-08
 32.25569     40.6 1.487e+04 4.013e-08
 32.26100     40.8 1.490e+04 3.837e-08
 32.26604     41.0 1.461e+04 3.320e-08
 32.27586     41.3 1.454e+04 3.120e-08
 32.28594     41.9 1.452e+04 3.046e-08
 32.29149     42.5 1.463e+04 3.093e-08
 32.29643     42.4 1.434e+04 2.983e-08
 32.30097     42.7 1.390e+04 2.543e-08
 32.30611     43.4 1.396e+04 2.572e-08
 32.31619     44.0 1.423e+04 2.742e-08
 32.32627     44.5 1.489e+04 3.155e-08
 32.33589     44.9 1.615e+04 4.061e-08
 32.34093     45.8 1.464e+04 2.833e-08
 32.34644     46.3 1.563e+04 3.433e-08
 32.35652     46.5 1.734e+04 4.729e-08
 32.36660     46.1 1.933e+04 9.800e-08
 32.37586     45.9 1.968e+04 3.611e-07
 32.38090     47.5 1.904e+04 7.730e-08
 32.38677     46.7 1.991e+04 3.326e-07
 32.39685     46.6 1.833e+04 2.022e-06
 32.40693     46.7 1.683e+04 8.557e-06
 32.41583     46.1 1.628e+04 1.606e-05
 32.42084     47.5 1.632e+04 1.433e-05
 32.42453     47.8 1.591e+04 2.388e-05
 32.42957     47.8 1.546e+04 3.529e-05
 32.43461     47.6 1.520e+04 4.130e-05
 32.43775     47.6 1.558e+04 3.206e-05
 32.43890     47.1 1.651e+04 1.278e-05
 32.44080     48.0 1.628e+04 1.678e-05
 32.44469     48.1 1.548e+04 2.728e-05
 32.44974     47.8 1.574e+04 2.078e-05
 32.45577     44.8 2.060e+04 3.001e-06
 32.46081     44.9 1.741e+04 1.592e-05
 32.46741     41.8 1.703e+04 1.231e-05
 32.47751     34.9 2.568e+04 6.352e-07
 32.48759     26.2 2.133e+04 1.819e-07
 32.49576     24.8 1.824e+04 1.384e-07
 32.50080     24.3 1.980e+04 1.349e-07
 32.50776     23.1 1.754e+04 9.218e-08
 32.52293     21.5 1.626e+04 6.968e-08
 32.53583     20.1 1.547e+04 5.691e-08
 32.54591     17.5 1.554e+04 4.893e-08
 32.56331     17.4 1.541e+04 5.555e-08
 32.57917     18.3 1.605e+04 7.477e-08
 32.58926     20.1 1.402e+04 3.445e-08
 32.60364     21.1 1.465e+04 4.694e-08
 32.61576     21.9 1.575e+04 7.117e-08
 32.62585     21.8 1.675e+04 1.052e-07
 32.63888     21.9 1.703e+04 1.290e-07
 32.64892     21.8 1.747e+04 1.587e-07
 32.65563     21.8 1.789e+04 1.905e-07
 32.66067     21.8 1.860e+04 2.284e-07
 32.66908     21.3 1.907e+04 2.959e-07
 32.67917     20.8 1.928e+04 3.814e-07
 32.68925     20.5 1.929e+04 4.847e-07
 32.69560     20.3 1.922e+04 5.897e-07
 32.70064     20.5 1.931e+04 6.160e-07
 32.70942     20.0 1.928e+04 6.330e-07
 32.71950     19.6 1.920e+04 5.976e-07
 32.72958     19.4 1.908e+04 4.850e-07
 32.73557     19.6 1.893e+04 3.462e-07
 32.74061     20.0 1.905e+04 3.387e-07
 32.74975     20.1 1.883e+04 2.399e-07
 32.76492     20.7 1.817e+04 1.471e-07
 32.77563     20.6 1.703e+04 7.153e-08
 32.78572     21.4 1.717e+04 7.965e-08
 32.80530     21.0 1.571e+04 3.960e-08
 32.82546     20.4 1.402e+04 2.128e-08
 32.84549     19.9 1.270e+04 1.296e-08
 32.85557     21.0 1.298e+04 1.861e-08
 32.86580     20.5 1.208e+04 1.170e-08
 32.88596     19.9 1.178e+04 9.714e-09
 32.90613     18.6 1.208e+04 1.051e-08
 32.92542     14.8 1.316e+04 1.674e-08
 32.93550     15.4 1.410e+04 2.945e-08
 32.94646     13.1 1.514e+04 5.613e-08
 32.96662     11.6 1.500e+04 5.984e-08
 32.98679     10.5 1.431e+04 4.563e-08
 33.00536      8.8 1.314e+04 2.427e-08
 33.01544      9.7 1.320e+04 2.079e-08
 33.02712      5.0 1.147e+04 1.040e-08
 33.05747      3.7 1.027e+04 6.225e-09
 33.08549      2.8 9.496e+03 3.122e-09
 33.10565      4.1 9.387e+03 3.619e-09
 33.13822      3.8 9.369e+03 2.955e-09
 33.16463      4.2 9.283e+03 2.372e-09
 33.18479      3.9 9.044e+03 1.655e-09
 33.21889      4.2 9.095e+03 1.885e-09
 33.24536      4.7 9.285e+03 2.326e-09
 33.26552      6.1 9.292e+03 2.108e-09
 33.29955      6.1 9.520e+03 2.476e-09
 33.33988      5.6 9.782e+03 3.175e-09
 33.38021      4.0 1.046e+04 5.602e-09
 33.40523      2.3 1.122e+04 9.487e-09
 33.42539      2.0 1.185e+04 1.395e-08
 33.46087     -0.7 1.217e+04 1.397e-08
 33.50120     -2.1 1.139e+04 8.427e-09
 33.54153     -3.0 1.059e+04 3.872e-09
 33.56510     -3.3 1.014e+04 1.728e-09
 33.58526     -4.4 9.976e+03 1.635e-09
 33.62220     -3.8 9.970e+03 8.751e-10
 33.66253     -2.4 9.708e+03 7.771e-10
 33.70286     -0.5 9.695e+03 8.207e-10
 33.72497      1.1 9.714e+03 1.041e-09
 33.74513      0.5 9.785e+03 1.023e-09
 33.78352      1.8 9.923e+03 1.780e-09
 33.82385      3.6 1.021e+04 3.516e-09
 33.86418      5.5 1.053e+04 4.983e-09
 33.88484      6.9 1.064e+04 5.097e-09
 33.90500      6.5 1.067e+04 5.408e-09
 33.94484      8.0 1.067e+04 4.801e-09
 33.98518      9.4 1.071e+04 4.359e-09
 34.02454     11.0 1.080e+04 4.601e-09
 34.04471     10.8 1.082e+04 4.728e-09
 34.06584     12.6 1.131e+04 5.986e-09
 34.09599     12.9 1.163e+04 6.490e-09
 34.11436     12.1 1.241e+04 8.379e-09
 34.12445     11.3 1.258e+04 1.140e-08
 34.13622      9.0 1.398e+04 2.645e-08
 34.15639      7.8 1.572e+04 7.211e-08
 34.17655      7.4 1.687e+04 1.369e-07
 34.19430      6.7 1.690e+04 1.363e-07
 34.20438      6.6 1.641e+04 1.214e-07
 34.21688      6.2 1.569e+04 7.366e-08
 34.23705      3.4 1.512e+04 4.101e-08
 34.25721      0.1 1.439e+04 3.346e-08
 34.27423     -1.4 1.393e+04 3.172e-08
 34.28432     -2.0 1.302e+04 1.934e-08
 34.29755     -2.4 1.306e+04 2.031e-08
 34.31771     -3.2 1.319e+04 1.928e-08
 34.33495     -4.4 1.331e+04 1.871e-08
 34.34503     -4.2 1.293e+04 1.323e-08
 34.35417     -5.1 1.292e+04 1.330e-08
 34.36425     -4.6 1.289e+04 1.322e-08
 34.37821     -5.5 1.304e+04 1.391e-08
 34.39837     -7.1 1.361e+04 1.615e-08
 34.41854     -9.3 1.419e+04 2.495e-08
 34.43410     -9.9 1.414e+04 3.613e-08
 34.44419     -9.4 1.407e+04 3.336e-08
 34.45887     -9.3 1.383e+04 3.060e-08
 34.47903     -8.5 1.353e+04 1.638e-08
 34.49920    -10.3 1.381e+04 6.590e-09
 34.51404    -12.2 1.247e+04 4.331e-09
 34.52412    -11.4 1.260e+04 4.981e-09
 34.54971    -11.6 1.225e+04 3.176e-09
 34.59014    -12.7 1.213e+04 1.616e-09
 34.63047    -13.2 1.229e+04 1.785e-09
 34.66402    -13.4 1.240e+04 2.432e-09
 34.68419    -13.1 1.218e+04 2.725e-09
 34.71113    -13.0 1.246e+04 2.218e-09
 34.75146    -12.9 1.284e+04 1.398e-09
 34.79179    -12.9 1.308e+04 8.847e-10
 34.82389    -12.8 1.308e+04 7.263e-10
 34.84406    -12.8 1.299e+04 7.397e-10
 34.87246    -12.0 1.263e+04 8.077e-10
 34.91279    -10.7 1.239e+04 9.049e-10
 34.95312     -9.2 1.239e+04 8.520e-10
 34.98376     -7.9 1.255e+04 7.101e-10
 35.00393     -7.7 1.254e+04 6.988e-10
 35.03378     -6.9 1.265e+04 7.778e-10
 35.07411     -6.6 1.245e+04 1.433e-09
 35.11444     -5.3 1.247e+04 2.316e-09
 35.14363     -4.9 1.273e+04 2.215e-09
 35.16380     -4.7 1.264e+04 2.395e-09
 35.19510     -4.6 1.293e+04 2.059e-09
 35.23544     -4.7 1.310e+04 1.865e-09
 35.27577     -4.6 1.293e+04 1.842e-09
 35.30350     -3.9 1.259e+04 1.735e-09
 35.32367     -3.8 1.235e+04 2.061e-09
 35.35643     -2.5 1.231e+04 1.401e-09
 35.39676     -1.2 1.225e+04 9.197e-10
 35.43709     -0.0 1.235e+04 6.811e-10
 35.46337      1.5 1.247e+04 5.722e-10
 35.48354      1.5 1.227e+04 7.394e-10
 35.50567      3.1 1.223e+04 8.369e-10
 35.52583      3.6 1.241e+04 5.234e-10
 35.55808      5.3 1.258e+04 4.959e-10
 35.59841      7.1 1.260e+04 5.174e-10
 35.62324      8.8 1.260e+04 5.996e-10
 35.64341      9.7 1.229e+04 9.379e-10
 35.67908     11.7 1.238e+04 1.034e-09
 35.71941     13.5 1.247e+04 1.263e-09
 35.75974     15.1 1.255e+04 2.018e-09
 35.78311     16.3 1.274e+04 3.706e-09
 35.80328     17.4 1.285e+04 5.653e-09
 35.84040     18.1 1.332e+04 8.692e-09
 35.88073     18.2 1.403e+04 8.791e-09
 35.92106     17.9 1.445e+04 8.202e-09
 35.94298     17.1 1.449e+04 8.385e-09
 35.95297     17.2 1.479e+04 1.423e-08
 35.97128     16.6 1.464e+04 1.441e-08
 35.99145     16.0 1.440e+04 1.455e-08
 36.01161     15.5 1.417e+04 1.419e-08
 36.02272     15.4 1.383e+04 1.226e-08
 36.03281     15.7 1.397e+04 1.374e-08
 36.05194     15.4 1.362e+04 1.125e-08
 36.08229     15.5 1.306e+04 6.940e-09
 36.10285     15.4 1.238e+04 3.571e-09
 36.12302     15.0 1.233e+04 3.420e-09
 36.16305     15.2 1.181e+04 2.354e-09
 36.20338     15.9 1.144e+04 1.897e-09
 36.24256     16.9 1.130e+04 1.897e-09
 36.26272     16.8 1.138e+04 2.151e-09
 36.28404     17.6 1.137e+04 2.249e-09
 36.32437     18.2 1.128e+04 2.267e-09
 36.36470     18.7 1.108e+04 2.162e-09
 36.40243     19.1 1.098e+04 2.125e-09
 36.42250     18.0 1.098e+04 2.605e-09
 36.43509     17.4 1.102e+04 2.971e-09
 36.45525     16.7 1.106e+04 3.923e-09
 36.47542     16.0 1.108e+04 5.636e-09
 36.49225     15.9 1.115e+04 7.678e-09
 36.50233     15.3 1.116e+04 8.048e-09
 36.51575     15.2 1.107e+04 8.289e-09
 36.53591     14.9 1.094e+04 7.374e-09
 36.55608     14.1 1.076e+04 5.747e-09
 36.57219     12.7 1.052e+04 4.280e-09
 36.58227     12.0 1.033e+04 3.719e-09
 36.59641     10.2 1.036e+04 3.785e-09
 36.61658      9.4 1.033e+04 3.986e-09
 36.63674      8.0 1.065e+04 4.886e-09
 36.65212      7.7 1.076e+04 6.038e-09
 36.66220      7.2 1.084e+04 6.602e-09
 36.67599      7.2 1.079e+04 7.467e-09
 36.68607      6.1 1.120e+04 9.330e-09
 36.69724      6.2 1.111e+04 9.102e-09
 36.71740      6.5 1.080e+04 7.765e-09
 36.73206      7.1 1.022e+04 5.806e-09
 36.74214      7.2 1.011e+04 5.473e-09
 36.75773      7.1 9.759e+03 3.217e-09
 36.77790      6.8 9.766e+03 2.837e-09
 36.80825      6.6 9.143e+03 1.881e-09
 36.84867      7.7 8.681e+03 1.722e-09
 36.88204      9.5 8.629e+03 1.766e-09
 36.90220      9.5 8.434e+03 1.529e-09
 36.92934     11.4 8.446e+03 1.583e-09
 36.96967     13.2 8.495e+03 1.664e-09
 37.01000     14.8 8.624e+03 1.948e-09
 37.04191     16.2 8.966e+03 2.803e-09
 37.06208     16.3 8.768e+03 2.443e-09
 37.09066     17.7 9.099e+03 3.373e-09
 37.13099     19.0 9.343e+03 3.743e-09
 37.17132     20.1 9.411e+03 3.644e-09
 37.20178     21.2 9.446e+03 3.236e-09
 37.22195     21.5 9.239e+03 2.841e-09
 37.25198     22.4 9.269e+03 2.641e-09
 37.29232     23.4 9.328e+03 2.377e-09
 37.33265     24.5 9.345e+03 2.003e-09
 37.36165     25.9 9.351e+03 1.623e-09
 37.38182     26.2 9.330e+03 1.641e-09
 37.41331     27.6 9.272e+03 1.318e-09
 37.45364     29.0 9.204e+03 1.117e-09
 37.49397     30.6 9.171e+03 1.076e-09
 37.52152     32.3 9.184e+03 1.079e-09
 37.54169     32.6 9.087e+03 9.964e-10
 37.57463     34.2 9.218e+03 1.058e-09
 37.61496     35.6 9.381e+03 1.114e-09
 37.65529     36.9 9.539e+03 1.235e-09
 37.68139     38.2 9.797e+03 1.350e-09
 37.70156     37.9 1.003e+04 2.300e-09
 37.73596     39.1 1.014e+04 2.184e-09
 37.77629     40.2 1.022e+04 1.803e-09
 37.81662     41.4 1.016e+04 1.501e-09
 37.84126     42.7 1.010e+04 1.453e-09
 37.85118     42.5 1.001e+04 1.830e-09
 37.86687     42.1 1.008e+04 1.500e-09
 37.89728     43.8 1.014e+04 1.987e-09
 37.93761     45.5 1.029e+04 2.627e-09
 37.97794     46.9 1.044e+04 3.038e-09
 38.00113     47.9 1.065e+04 2.937e-09
 38.02130     47.0 1.056e+04 2.598e-09
 38.05860     47.6 1.062e+04 2.503e-09
 38.09894     48.0 1.069e+04 2.568e-09
 38.13927     48.5 1.093e+04 2.830e-09
 38.16090     48.7 1.105e+04 3.005e-09
 38.17089     48.2 1.104e+04 2.994e-09
 38.18948     48.4 1.113e+04 3.204e-09
 38.20965     48.5 1.122e+04 3.484e-09
 38.22982     48.5 1.128e+04 3.786e-09
 38.24074     48.3 1.132e+04 4.079e-09
 38.25082     47.9 1.140e+04 3.895e-09
 38.27015     47.8 1.139e+04 3.872e-09
 38.29031     47.6 1.136e+04 3.790e-09
 38.31048     47.5 1.133e+04 3.748e-09
 38.32077     47.6 1.124e+04 3.626e-09
 38.33086     47.2 1.125e+04 3.449e-09
 38.35081     47.0 1.115e+04 3.323e-09
 38.38115     46.7 1.110e+04 2.742e-09
 38.42158     46.6 1.106e+04 2.334e-09
 38.44195     46.2 1.113e+04 2.240e-09
 38.45193     45.9 1.115e+04 2.418e-09
 38.47046     45.1 1.124e+04 2.718e-09
 38.48055     43.9 1.130e+04 3.232e-09
 38.49197     43.3 1.135e+04 4.374e-09
 38.51213     42.8 1.147e+04 6.038e-09
 38.53230     42.3 1.167e+04 7.726e-09
 38.55040     41.8 1.180e+04 8.449e-09
 38.56048     40.8 1.191e+04 8.864e-09
 38.57263     40.0 1.184e+04 8.344e-09
 38.59279     39.3 1.157e+04 6.985e-09
 38.61296     38.6 1.119e+04 5.603e-09
 38.63033     38.0 1.084e+04 4.613e-09
 38.64042     37.2 1.069e+04 4.394e-09
 38.65329     36.9 1.047e+04 3.861e-09
 38.67346     37.0 1.029e+04 3.457e-09
 38.69362     37.2 1.017e+04 3.145e-09
 38.71027     37.5 1.011e+04 2.843e-09
 38.72035     37.0 1.012e+04 2.835e-09
 38.73395     37.0 1.008e+04 2.519e-09
 38.75412     36.8 1.004e+04 2.241e-09
 38.77428     36.8 1.010e+04 2.081e-09
 38.79020     36.8 1.008e+04 1.976e-09
 38.80038     36.5 1.021e+04 2.312e-09
 38.82489     36.1 1.012e+04 1.826e-09
 38.86522     35.5 1.007e+04 1.827e-09
 38.89537     35.0 1.007e+04 1.982e-09
 38.91544     34.5 1.013e+04 2.270e-09
 38.93561     33.8 1.042e+04 2.879e-09
 38.95007     32.9 1.087e+04 3.931e-09
 38.96016     31.0 1.141e+04 5.357e-09
 38.97594     29.3 1.209e+04 8.676e-09
 38.99610     27.2 1.284e+04 1.471e-08
 39.01627     25.1 1.354e+04 2.386e-08
 39.02711     23.1 1.410e+04 3.446e-08
 39.03077     23.0 1.501e+04 5.928e-08
 39.04009     21.1 1.512e+04 6.414e-08
 39.05660     19.5 1.497e+04 6.329e-08
 39.07677     18.2 1.439e+04 5.134e-08
 39.09693     16.7 1.360e+04 3.478e-08
 39.10994     14.7 1.285e+04 2.351e-08
 39.12003     13.0 1.268e+04 2.106e-08
 39.13726      9.5 1.310e+04 1.997e-08
 39.15743      4.4 1.455e+04 2.883e-08
 39.17759      0.6 1.511e+04 4.560e-08
 39.18988     -1.6 1.478e+04 5.646e-08
 39.19996     -3.3 1.476e+04 6.086e-08
 39.21792     -3.7 1.406e+04 5.189e-08
 39.23809     -4.0 1.334e+04 3.172e-08
 39.25826     -5.1 1.290e+04 1.686e-08
 39.26981     -7.1 1.237e+04 9.645e-09
 39.27990     -9.8 1.166e+04 6.902e-09
 39.29859    -11.0 1.108e+04 6.854e-09
 39.31875    -11.3 1.106e+04 7.524e-09
 39.33892    -11.2 1.103e+04 9.208e-09
 39.34975    -11.2 1.167e+04 1.079e-08
 39.35983    -12.9 1.217e+04 1.183e-08
 39.37925    -14.5 1.335e+04 1.388e-08
 39.39941    -17.6 1.420e+04 1.853e-08
 39.41958    -20.8 1.435e+04 2.967e-08
 39.43974    -24.1 1.401e+04 4.510e-08
 39.45991    -23.9 1.352e+04 4.027e-08
 39.48008    -23.9 1.291e+04 2.435e-08
 39.49954    -25.5 1.259e+04 1.231e-08
 39.50962    -27.6 1.194e+04 8.296e-09
 39.52041    -29.6 1.090e+04 5.258e-09
 39.54057    -30.2 1.025e+04 3.901e-09
 39.56074    -30.2 9.980e+03 3.477e-09
 39.57947    -29.7 9.795e+03 2.795e-09
 39.59973    -30.3 9.601e+03 2.260e-09
 39.63151    -29.1 9.535e+03 2.066e-09
 39.67184    -28.0 9.506e+03 1.971e-09
 39.71217    -27.0 9.510e+03 2.181e-09
 39.73954    -25.8 9.520e+03 2.271e-09
 39.75970    -26.3 9.367e+03 2.065e-09
 39.79284    -25.2 9.399e+03 2.098e-09
 39.83317    -24.2 9.461e+03 2.232e-09
 39.87350    -23.6 9.573e+03 2.886e-09
 39.89931    -23.6 9.700e+03 3.973e-09
 39.90929    -23.6 9.557e+03 3.783e-09
 39.92372    -23.3 9.618e+03 4.593e-09
 39.94388    -22.9 9.874e+03 5.913e-09
 39.96405    -22.3 1.004e+04 6.858e-09
 39.97915    -22.0 1.019e+04 7.797e-09
 39.98923    -22.1 9.989e+03 7.106e-09
 40.00438    -21.7 1.007e+04 7.834e-09
 40.02454    -21.0 1.009e+04 8.257e-09
 40.04471    -21.1 1.013e+04 8.407e-09
 40.05918    -20.6 1.002e+04 8.044e-09
 40.07944    -20.6 9.762e+03 6.968e-09
 40.11548    -20.2 9.721e+03 6.421e-09
 40.15581    -20.0 9.612e+03 5.828e-09
 40.18774    -19.7 9.503e+03 5.479e-09
 40.20791    -18.9 8.972e+03 3.732e-09
 40.21915    -17.6 9.066e+03 4.012e-09
 40.23931    -17.9 9.003e+03 3.866e-09
 40.26663    -17.1 9.205e+03 4.316e-09
 40.28670    -17.3 9.435e+03 4.845e-09
 40.29889    -18.0 9.844e+03 5.436e-09
 40.30897    -19.6 1.032e+04 6.349e-09
 40.32703    -21.3 1.114e+04 9.220e-09
 40.34719    -22.7 1.167e+04 1.346e-08
 40.36736    -23.9 1.206e+04 1.773e-08
 40.37882    -30.9 1.630e+04 3.339e-08
 40.38891    -36.1 1.816e+04 4.001e-08
 40.40769    -47.5 1.852e+04 1.353e-07
 40.41874    -49.8 1.691e+04 2.291e-07
 40.42373    -50.4 1.665e+04 2.096e-07
 40.43280    -49.7 1.661e+04 1.430e-07
 40.44288    -52.5 1.793e+04 5.857e-08
 40.45296    -60.5 1.573e+04 2.302e-08
 40.45871    -68.2 1.182e+04 1.057e-08
 40.46884    -71.0 1.069e+04 7.544e-09
 40.48835    -73.8 9.640e+03 4.347e-09
 40.50852    -74.6 9.411e+03 3.349e-09
 40.52861    -75.2 9.164e+03 2.486e-09
 40.55896    -76.2 8.921e+03 1.858e-09
 40.59946    -75.5 8.621e+03 1.401e-09
 40.63979    -74.0 8.557e+03 1.313e-09
 40.67859    -72.4 8.624e+03 1.361e-09
 40.69876    -73.2 8.515e+03 1.220e-09
 40.72045    -71.6 8.601e+03 1.517e-09
 40.76078    -69.8 8.775e+03 2.005e-09
 40.80111    -67.9 9.112e+03 2.536e-09
 40.83846    -66.3 9.485e+03 2.916e-09
 40.85863    -66.9 9.429e+03 2.793e-09
 40.88177    -65.7 9.776e+03 3.117e-09
 40.91192    -65.0 1.007e+04 3.824e-09
 40.92829    -65.3 1.007e+04 4.318e-09
 40.93837    -65.5 1.000e+04 4.346e-09
 40.95216    -65.5 1.009e+04 5.349e-09
 40.97232    -65.2 1.016e+04 6.754e-09
 40.99249    -64.4 1.027e+04 8.018e-09
 41.00822    -63.5 1.034e+04 8.572e-09
 41.01830    -63.5 1.020e+04 7.149e-09
 41.03282    -62.6 1.020e+04 6.760e-09
 41.05298    -61.8 1.018e+04 5.457e-09
 41.07315    -61.3 1.016e+04 4.096e-09
 41.08816    -61.3 1.011e+04 3.367e-09
 41.09824    -61.3 1.010e+04 3.270e-09
 41.12366    -60.4 1.014e+04 2.580e-09
 41.15820    -58.8 9.713e+03 1.735e-09
 41.17837    -58.2 9.572e+03 1.583e-09
 41.20442    -56.4 9.566e+03 1.303e-09
 41.24475    -54.3 9.628e+03 1.236e-09
 41.28508    -52.7 9.883e+03 1.278e-09
 41.31807    -51.1 9.860e+03 2.087e-09
 41.33824    -50.8 9.815e+03 1.940e-09
 41.35826    -48.4 1.030e+04 2.814e-09
 41.37843    -48.5 1.042e+04 3.170e-09
 41.39589    -47.7 1.090e+04 3.098e-09
 41.40790    -48.0 1.074e+04 4.151e-09
 41.41798    -47.9 1.067e+04 4.011e-09
 41.43613    -47.3 1.090e+04 4.299e-09
 41.45629    -46.4 1.076e+04 5.352e-09
 41.47646    -45.8 1.120e+04 4.921e-09
 41.48783    -45.6 1.119e+04 5.202e-09
 41.49791    -45.4 1.100e+04 4.683e-09
 41.51679    -44.7 1.099e+04 3.920e-09
 41.53696    -44.2 1.063e+04 3.719e-09
 41.56730    -42.7 1.109e+04 2.446e-09
 41.60773    -41.6 1.119e+04 1.766e-09
 41.63781    -39.8 1.100e+04 1.600e-09
 41.65798    -38.9 1.093e+04 1.231e-09
 41.68839    -37.2 1.087e+04 1.379e-09
 41.72872    -35.3 1.075e+04 1.896e-09
 41.76905    -33.2 1.109e+04 2.650e-09
 41.79759    -31.6 1.114e+04 3.094e-09
 41.81775    -31.1 1.119e+04 2.981e-09
 41.83954    -30.5 1.120e+04 3.957e-09
 41.85960    -29.8 1.127e+04 4.567e-09
 41.87742    -29.2 1.139e+04 4.655e-09
 41.88751    -29.0 1.137e+04 4.386e-09
 41.89993    -28.6 1.146e+04 4.405e-09
 41.92010    -28.5 1.151e+04 4.432e-09
 41.94027    -28.3 1.155e+04 4.526e-09
 41.95341    -28.7 1.170e+04 5.035e-09
 41.96042    -28.6 1.149e+04 4.373e-09
 41.96744    -28.6 1.151e+04 4.492e-09
 41.98060    -28.8 1.154e+04 5.043e-09
 42.00076    -29.1 1.160e+04 5.773e-09
 42.02093    -29.2 1.159e+04 6.456e-09
 42.03729    -29.3 1.150e+04 6.612e-09
 42.04738    -29.3 1.145e+04 6.367e-09
 42.06126    -29.2 1.131e+04 6.085e-09
 42.08142    -28.8 1.098e+04 5.204e-09
 42.10159    -28.4 1.080e+04 4.337e-09
 42.11723    -28.0 1.062e+04 3.404e-09
 42.13749    -28.0 1.064e+04 2.906e-09
 42.17236    -27.2 1.053e+04 2.508e-09
 42.21269    -26.2 1.060e+04 2.767e-09
 42.25303    -25.0 1.053e+04 3.259e-09
 42.27720    -24.0 1.059e+04 4.039e-09
 42.28718    -23.7 1.060e+04 4.118e-09
 42.30324    -23.2 1.059e+04 4.450e-09
 42.32341    -22.7 1.064e+04 4.885e-09
 42.34358    -22.3 1.077e+04 5.410e-09
 42.35703    -22.1 1.097e+04 5.907e-09
 42.36712    -21.4 1.091e+04 5.642e-09
 42.38391    -21.4 1.111e+04 6.045e-09
 42.40407    -21.7 1.133e+04 6.594e-09
 42.42424    -22.5 1.155e+04 7.375e-09
 42.43697    -24.0 1.186e+04 8.826e-09
 42.44705    -22.6 1.178e+04 8.410e-09
 42.46457    -24.7 1.214e+04 1.070e-08
 42.48473    -27.5 1.246e+04 1.350e-08
 42.50490    -32.2 1.331e+04 1.599e-08
 42.51690    -40.7 1.500e+04 1.957e-08
 42.52699    -40.5 1.573e+04 2.476e-08
 42.53867    -49.4 1.460e+04 2.801e-08
 42.54875    -48.3 1.414e+04 1.997e-08
 42.56540    -54.3 1.296e+04 1.974e-08
 42.58556    -58.3 1.237e+04 1.513e-08
 42.59684    -62.7 1.247e+04 1.007e-08
 42.60692    -63.5 1.220e+04 8.631e-09
 42.62589    -68.5 1.227e+04 7.391e-09
 42.64606    -72.4 1.235e+04 8.493e-09
 42.66622    -74.6 1.240e+04 1.137e-08
 42.67677    -76.2 1.251e+04 1.228e-08
 42.68686    -76.1 1.241e+04 1.102e-08
 42.70655    -78.2 1.225e+04 1.021e-08
 42.72672    -80.6 1.193e+04 8.727e-09
 42.74663    -83.0 1.187e+04 8.524e-09
 42.75671    -82.8 1.184e+04 8.119e-09
 42.76705    -84.8 1.196e+04 9.387e-09
 42.78722    -86.6 1.211e+04 1.136e-08
 42.80738    -88.1 1.212e+04 1.253e-08
 42.82656    -89.5 1.207e+04 1.269e-08
 42.83664    -89.1 1.196e+04 1.146e-08
 42.84771    -90.3 1.164e+04 1.029e-08
 42.86788    -91.4 1.130e+04 8.429e-09
 42.88804    -92.5 1.098e+04 7.054e-09
 42.90650    -93.2 1.077e+04 6.355e-09
 42.91658    -92.8 1.079e+04 6.503e-09
 42.92837    -93.3 1.072e+04 6.234e-09
 42.94854    -93.6 1.068e+04 6.083e-09
 42.97889    -93.9 1.066e+04 6.037e-09
 43.01931    -95.2 1.078e+04 6.287e-09
 43.05648    -96.3 1.107e+04 7.584e-09
 43.07665    -95.9 1.097e+04 7.017e-09
 43.09998    -96.8 1.115e+04 7.803e-09
 43.14031    -97.8 1.130e+04 8.158e-09
 43.18064    -98.5 1.136e+04 8.225e-09
 43.21635    -98.8 1.129e+04 7.576e-09
 43.23652    -98.1 1.107e+04 6.012e-09
 43.26130    -98.1 1.086e+04 4.625e-09
 43.30163    -98.3 1.063e+04 3.548e-09
 43.33178    -97.7 1.052e+04 3.012e-09
 43.35185    -97.7 1.049e+04 2.965e-09
 43.37202    -97.3 1.051e+04 3.005e-09
 43.38611    -97.3 1.048e+04 3.062e-09
 43.39629    -96.6 1.052e+04 2.853e-09
 43.42262    -96.2 1.053e+04 3.192e-09
 43.46296    -95.9 1.050e+04 3.365e-09
 43.50329    -95.4 1.043e+04 3.341e-09
 43.53609    -94.6 1.042e+04 3.261e-09
 43.55626    -93.2 1.031e+04 2.884e-09
 43.58395    -92.5 1.044e+04 2.927e-09
 43.62428    -92.0 1.062e+04 3.386e-09
 43.66461    -91.4 1.080e+04 4.192e-09
 43.69596    -91.0 1.097e+04 4.874e-09
 43.71049    -89.7 1.089e+04 4.522e-09
 43.71947    -90.2 1.070e+04 3.583e-09
 43.74527    -89.8 1.073e+04 3.636e-09
 43.78560    -89.5 1.067e+04 3.554e-09
 43.81575    -88.4 1.075e+04 3.652e-09
 43.83582    -88.2 1.067e+04 3.604e-09
 43.85564    -87.8 1.062e+04 3.594e-09
 43.86572    -87.3 1.065e+04 3.374e-09
 43.87615    -87.1 1.059e+04 3.481e-09
 43.89632    -86.8 1.054e+04 3.734e-09
 43.91648    -86.7 1.061e+04 4.058e-09
 43.93557    -86.5 1.077e+04 5.089e-09
 43.94565    -85.7 1.070e+04 4.204e-09
 43.95681    -85.8 1.078e+04 4.963e-09
 43.98716    -85.5 1.096e+04 6.915e-09
 44.01570    -84.8 1.114e+04 9.339e-09
 44.03587    -82.8 1.069e+04 5.793e-09
 44.06792    -81.9 1.077e+04 7.523e-09
 44.10825    -80.9 1.083e+04 8.605e-09
 44.14858    -80.0 1.055e+04 8.459e-09
 44.17557    -78.8 1.018e+04 6.635e-09
 44.19574    -76.2 1.022e+04 6.473e-09
 44.22924    -74.7 1.000e+04 5.645e-09
 44.26957    -72.9 9.867e+03 5.234e-09
 44.30991    -70.8 9.705e+03 4.767e-09
 44.33544    -68.7 9.657e+03 4.343e-09
 44.35561    -66.3 1.012e+04 6.241e-09
 44.39057    -64.3 1.014e+04 6.138e-09
 44.43090    -62.8 1.040e+04 6.481e-09
 44.47123    -61.9 1.102e+04 9.603e-09
 44.49521    -60.7 1.180e+04 1.528e-08
 44.50520    -58.8 1.169e+04 1.373e-08
 44.52145    -58.9 1.245e+04 2.031e-08
 44.54161    -59.0 1.334e+04 3.260e-08
 44.56178    -59.3 1.418e+04 4.632e-08
 44.57505    -59.4 1.449e+04 5.341e-08
 44.58513    -58.1 1.505e+04 6.003e-08
 44.60211    -59.0 1.497e+04 6.167e-08
 44.62228    -59.7 1.412e+04 4.056e-08
 44.64244    -60.7 1.289e+04 2.104e-08
 44.65499    -61.5 1.180e+04 1.219e-08
 44.66507    -60.8 1.280e+04 2.133e-08
 44.68277    -61.1 1.187e+04 1.400e-08
 44.70294    -60.8 1.144e+04 1.087e-08
 44.72310    -60.5 1.116e+04 8.549e-09
 44.75345    -58.7 1.119e+04 8.018e-09
 44.79388    -57.2 1.073e+04 5.682e-09
 44.81505    -55.5 1.041e+04 4.264e-09
 44.82504    -55.5 1.087e+04 5.542e-09
 44.84410    -54.9 1.069e+04 4.818e-09
 44.86426    -53.6 1.033e+04 3.933e-09
 44.87971    -52.8 1.024e+04 3.569e-09
 44.88989    -53.9 1.068e+04 4.149e-09
 44.91487    -50.6 1.050e+04 3.547e-09
 44.94502    -47.7 1.030e+04 3.530e-09
 44.96464    -46.1 1.050e+04 4.020e-09
 44.97473    -44.9 1.079e+04 5.004e-09
 44.98525    -43.9 1.195e+04 7.445e-09
 45.00542    -42.7 1.357e+04 1.371e-08
 45.02559    -41.9 1.643e+04 2.803e-08
 45.04066    -49.6 1.989e+04 4.497e-08
 45.04952    -65.4 2.570e+04 1.012e-07
 45.05456    -64.5 3.243e+04 9.463e-08
 45.06078    -90.0 2.258e+04 3.111e-06
 45.06831   -102.8 1.553e+04 4.356e-05
 45.07198   -113.3 1.380e+04 2.330e-04
 45.07450   -115.4 1.328e+04 3.352e-04
 45.07837   -126.9 1.436e+04 1.361e-04
 45.08341   -138.9 1.879e+04 4.908e-06
 45.08846   -148.3 2.164e+04 4.574e-07
 45.09196   -151.6 2.186e+04 1.877e-07
 45.09448   -155.5 2.207e+04 1.437e-07
 45.10108   -158.7 2.091e+04 9.339e-08
 45.11119   -163.6 1.630e+04 3.412e-08
 45.12127   -164.8 1.421e+04 2.250e-08
 45.12946   -163.0 1.364e+04 1.966e-08
 45.13450   -165.0 1.394e+04 2.000e-08
 45.14653   -163.4 1.346e+04 1.674e-08
 45.16674   -158.5 1.108e+04 1.019e-08
 45.18691   -154.9 9.897e+03 6.650e-09
 45.20445   -152.7 9.649e+03 5.270e-09
 45.21453   -152.8 9.628e+03 5.267e-09
 45.22724   -150.4 9.355e+03 4.476e-09
 45.24741   -148.1 9.072e+03 3.922e-09
 45.26757   -145.9 8.893e+03 3.539e-09
 45.28438   -143.9 8.789e+03 3.255e-09
 45.29447   -143.4 8.741e+03 3.164e-09
 45.30790   -141.3 8.667e+03 2.853e-09
 45.32807   -139.2 8.686e+03 2.636e-09
 45.35841   -136.9 8.767e+03 2.540e-09
 45.39884   -134.5 8.788e+03 2.461e-09
 45.42899   -132.0 8.762e+03 2.353e-09
 45.44425   -131.4 8.835e+03 2.464e-09
 45.45444   -131.2 8.738e+03 2.281e-09
 45.47950   -129.2 8.917e+03 2.527e-09
 45.50965   -128.0 9.088e+03 3.089e-09
 45.52419   -127.5 9.225e+03 3.699e-09
 45.53427   -126.9 9.092e+03 3.150e-09
 45.54989   -125.9 9.235e+03 3.790e-09
 45.57005   -125.1 9.378e+03 4.146e-09
 45.59022   -124.3 9.465e+03 4.276e-09
 45.60412   -123.6 9.485e+03 4.297e-09
 45.61421   -122.7 9.293e+03 3.712e-09
 45.63055   -121.8 9.303e+03 3.556e-09
 45.65072   -120.9 9.308e+03 3.400e-09
 45.67088   -120.0 9.321e+03 3.334e-09
 45.68406   -119.1 9.331e+03 3.333e-09
 45.69414   -118.0 9.194e+03 2.804e-09
 45.71121   -117.0 9.301e+03 2.817e-09
 45.73138   -116.3 9.481e+03 3.062e-09
 45.75154   -115.5 9.661e+03 3.578e-09
 45.76400   -114.7 9.853e+03 4.289e-09
 45.77408   -113.6 9.716e+03 3.593e-09
 45.79187   -112.7 9.927e+03 4.518e-09
 45.81204   -111.6 1.016e+04 5.494e-09
 45.83220   -110.5 1.039e+04 6.462e-09
 45.84393   -109.4 1.057e+04 7.198e-09
 45.85401   -108.5 1.049e+04 6.907e-09
 45.87254   -107.4 1.068e+04 7.638e-09
 45.89270   -106.3 1.080e+04 8.019e-09
 45.91287   -105.2 1.094e+04 8.448e-09
 45.92387   -104.2 1.110e+04 9.052e-09
 45.93395   -103.3 1.113e+04 9.294e-09
 45.95320   -102.3 1.138e+04 1.060e-08
 45.97336   -101.3 1.172e+04 1.277e-08
 45.99353   -100.4 1.221e+04 1.619e-08
 46.00380    -99.6 1.272e+04 2.087e-08
 46.01388    -98.9 1.288e+04 2.212e-08
 46.03386    -98.3 1.349e+04 2.966e-08
 46.05023    -98.0 1.398e+04 3.755e-08
 46.06031    -97.2 1.382e+04 3.654e-08
 46.07365    -97.0 1.429e+04 4.516e-08
 46.08374    -96.5 1.452e+04 5.054e-08
 46.09436    -96.7 1.470e+04 5.503e-08
 46.11452    -96.8 1.445e+04 5.316e-08
 46.13469    -96.3 1.390e+04 4.095e-08
 46.15359    -95.7 1.338e+04 2.790e-08
 46.16367    -95.0 1.365e+04 3.412e-08
 46.17502    -94.7 1.316e+04 2.242e-08
 46.19518    -94.5 1.272e+04 1.458e-08
 46.21535    -94.5 1.231e+04 1.017e-08
 46.23362    -94.0 1.200e+04 7.447e-09
 46.24370    -93.4 1.218e+04 8.757e-09
 46.25568    -92.6 1.198e+04 7.000e-09
 46.28603    -91.5 1.196e+04 5.889e-09
 46.32645    -89.6 1.168e+04 2.820e-09
 46.36679    -88.3 1.175e+04 1.582e-09
 46.39359    -86.9 1.183e+04 1.182e-09
 46.41375    -85.7 1.194e+04 1.614e-09
 46.44745    -84.4 1.203e+04 1.370e-09
 46.48778    -83.0 1.204e+04 1.344e-09
 46.52811    -81.8 1.222e+04 1.498e-09
 46.55346    -80.6 1.236e+04 1.697e-09
 46.57362    -79.5 1.239e+04 2.090e-09
 46.60877    -78.3 1.245e+04 2.130e-09
 46.64910    -76.9 1.246e+04 1.906e-09
 46.68943    -75.2 1.262e+04 1.328e-09
 46.71333    -73.7 1.256e+04 1.019e-09
 46.73349    -73.3 1.273e+04 2.189e-09
 46.77010    -72.0 1.282e+04 1.869e-09
 46.81043    -70.7 1.284e+04 1.847e-09
 46.85076    -69.5 1.278e+04 2.310e-09
 46.87320    -68.1 1.278e+04 2.987e-09
 46.89336    -68.4 1.291e+04 5.391e-09
 46.93142    -66.9 1.304e+04 5.614e-09
 46.97175    -65.4 1.312e+04 5.624e-09
 47.01208    -63.9 1.316e+04 5.399e-09
 47.03307    -62.2 1.316e+04 5.047e-09
 47.05323    -62.4 1.323e+04 5.501e-09
 47.09274    -60.7 1.324e+04 4.838e-09
 47.13307    -59.0 1.332e+04 4.153e-09
 47.17277    -57.4 1.333e+04 3.822e-09
 47.19294    -57.2 1.353e+04 2.019e-09
 47.21086    -55.9 1.369e+04 1.770e-09
 47.23102    -55.5 1.368e+04 6.688e-09
 47.25407    -54.5 1.373e+04 6.953e-09
 47.29440    -53.6 1.374e+04 7.614e-09
 47.33264    -52.6 1.370e+04 8.531e-09
 47.35281    -52.4 1.380e+04 5.158e-09
 47.37506    -51.4 1.373e+04 5.468e-09
 47.41539    -50.2 1.348e+04 5.221e-09
 47.45572    -48.7 1.344e+04 3.766e-09
 47.49251    -47.3 1.348e+04 2.399e-09
 47.51268    -47.0 1.363e+04 1.591e-09
 47.53638    -45.6 1.351e+04 1.325e-09
 47.57671    -43.9 1.346e+04 1.282e-09
 47.61705    -42.4 1.340e+04 1.528e-09
 47.65238    -41.0 1.327e+04 2.083e-09
 47.67255    -40.6 1.320e+04 1.724e-09
 47.68753    -39.6 1.319e+04 2.395e-09
 47.70760    -39.5 1.306e+04 2.643e-09
 47.72776    -38.9 1.323e+04 3.787e-09
 47.74221    -39.3 1.307e+04 5.325e-09
 47.75229    -38.8 1.307e+04 4.349e-09
 47.76809    -38.7 1.303e+04 7.509e-09
 47.78826    -38.5 1.319e+04 1.243e-08
 47.80601    -38.1 1.356e+04 1.924e-08
 47.81609    -38.6 1.411e+04 2.970e-08
 47.82214    -38.4 1.465e+04 4.104e-08
 47.83222    -38.0 1.431e+04 3.082e-08
 47.84875    -38.4 1.464e+04 3.454e-08
 47.86892    -39.0 1.485e+04 3.752e-08
 47.88908    -39.3 1.497e+04 4.181e-08
 47.90208    -39.2 1.490e+04 4.375e-08
 47.91216    -38.5 1.436e+04 2.589e-08
 47.92942    -38.2 1.425e+04 2.717e-08
 47.94958    -37.7 1.404e+04 2.470e-08
 47.96975    -37.0 1.375e+04 1.800e-08
 47.98201    -36.5 1.342e+04 1.249e-08
 47.99209    -35.6 1.342e+04 1.242e-08
 48.01008    -34.9 1.320e+04 9.963e-09
 48.03024    -34.3 1.296e+04 8.838e-09
 48.06059    -32.3 1.292e+04 8.762e-09
 48.10102    -30.7 1.246e+04 6.036e-09
 48.13199    -29.4 1.237e+04 4.042e-09
 48.15216    -27.4 1.263e+04 7.276e-09
 48.18168    -26.8 1.260e+04 5.622e-09
 48.22201    -27.2 1.250e+04 4.848e-09
 48.26234    -27.4 1.250e+04 7.116e-09
 48.29187    -27.3 1.249e+04 8.181e-09
 48.30185    -27.0 1.288e+04 8.707e-09
 48.31256    -27.2 1.283e+04 8.907e-09
 48.34291    -27.5 1.284e+04 8.607e-09
 48.38138    -27.8 1.272e+04 7.307e-09
 48.40154    -29.0 1.267e+04 6.474e-09
 48.42367    -28.8 1.271e+04 7.913e-09
 48.45174    -27.8 1.282e+04 1.034e-08
 48.47190    -28.2 1.323e+04 1.368e-08
 48.50433    -26.9 1.309e+04 1.101e-08
 48.54466    -25.1 1.276e+04 7.647e-09
 48.58499    -23.1 1.244e+04 4.853e-09
 48.61161    -21.1 1.246e+04 3.184e-09
 48.63177    -21.0 1.252e+04 2.974e-09
 48.66565    -19.2 1.251e+04 2.569e-09
 48.70598    -17.5 1.276e+04 2.507e-09
 48.74631    -15.9 1.285e+04 2.952e-09
 48.77138    -14.2 1.273e+04 3.503e-09
 48.79154    -13.4 1.285e+04 3.277e-09
 48.82698    -11.6 1.303e+04 2.986e-09
 48.86731     -9.6 1.294e+04 2.201e-09
 48.90764     -7.6 1.299e+04 1.521e-09
 48.93135     -5.7 1.307e+04 1.218e-09
 48.95151     -4.9 1.314e+04 1.050e-09
 48.98830     -2.9 1.321e+04 9.659e-10
 49.02863     -0.8 1.324e+04 8.653e-10
 49.06896      1.4 1.315e+04 8.784e-10
 49.09122      3.2 1.292e+04 1.034e-09
 49.11138      4.4 1.313e+04 9.009e-10
 49.14962      6.5 1.290e+04 1.076e-09
 49.18995      8.7 1.271e+04 1.246e-09
 49.23028     10.8 1.262e+04 1.324e-09
 49.25109     12.7 1.267e+04 1.283e-09
 49.27125     13.7 1.279e+04 1.249e-09
 49.31095     15.7 1.270e+04 1.287e-09
 49.35128     17.6 1.270e+04 1.235e-09
 49.39079     19.5 1.268e+04 1.092e-09
 49.41096     20.6 1.277e+04 1.063e-09
 49.43194     22.5 1.281e+04 8.625e-10
 49.47227     24.3 1.285e+04 6.983e-10
 49.51260     26.1 1.283e+04 6.308e-10
 49.55066     28.1 1.282e+04 6.169e-10
 49.56979     28.8 1.294e+04 6.070e-10
 49.57206     28.3 1.295e+04 4.617e-10
 49.59326     30.4 1.297e+04 4.877e-10
 49.63359     32.6 1.300e+04 5.044e-10
 49.67393     34.7 1.302e+04 5.296e-10
 49.71053     36.8 1.301e+04 5.895e-10
 49.73070     37.3 1.300e+04 7.388e-10
 49.75459     39.5 1.293e+04 9.796e-10
 49.79492     41.8 1.292e+04 1.274e-09
 49.83525     44.2 1.289e+04 1.548e-09
 49.87040     46.4 1.289e+04 1.601e-09
 49.89057     46.8 1.302e+04 1.417e-09
 49.91591     48.9 1.299e+04 1.345e-09
 49.95624     51.1 1.290e+04 1.227e-09
 49.99657     53.3 1.277e+04 1.177e-09
 50.03027     55.6 1.275e+04 1.187e-09
 50.05044     56.1 1.290e+04 9.819e-10
 50.07724     58.3 1.282e+04 1.093e-09
 50.11757     60.6 1.277e+04 1.229e-09
 50.15790     62.8 1.280e+04 1.326e-09
 50.19014     64.8 1.289e+04 1.356e-09
 50.21031     65.2 1.300e+04 1.299e-09
 50.23856     67.0 1.309e+04 1.351e-09
 50.27889     68.7 1.312e+04 1.435e-09
 50.31922     70.4 1.313e+04 1.534e-09
 50.35001     72.0 1.314e+04 1.638e-09
 50.37018     72.9 1.322e+04 1.942e-09
 50.39988     74.4 1.331e+04 1.870e-09
 50.44021     75.8 1.333e+04 1.794e-09
 50.48055     76.9 1.328e+04 1.725e-09
 50.50988     77.7 1.318e+04 1.637e-09
 50.53005     78.4 1.344e+04 1.735e-09
 50.56121     78.8 1.332e+04 1.827e-09
 50.60154     79.1 1.323e+04 1.852e-09
 50.64187     79.4 1.309e+04 1.803e-09
 50.66975     80.1 1.291e+04 1.570e-09
 50.68992     80.6 1.281e+04 2.895e-09
 50.72242     81.6 1.282e+04 1.814e-09
 50.76275     82.1 1.278e+04 1.503e-09
 50.80319     83.1 1.265e+04 1.170e-09
 50.82962     84.5 1.233e+04 1.139e-09
 50.84979     84.4 1.225e+04 1.233e-09
 50.88385     86.0 1.214e+04 1.232e-09
 50.92419     87.7 1.209e+04 1.280e-09
 50.96452     89.4 1.199e+04 1.522e-09
 50.98949     90.9 1.207e+04 2.053e-09
 51.00966     90.6 1.193e+04 1.692e-09
 51.04518     91.7 1.208e+04 2.285e-09
 51.08551     92.1 1.213e+04 2.884e-09
 51.11566     92.7 1.204e+04 3.238e-09
 51.13573     93.1 1.195e+04 3.518e-09
 51.14917     93.6 1.187e+04 3.723e-09
 51.16943     93.5 1.172e+04 2.935e-09
 51.19632     94.5 1.161e+04 3.323e-09
 51.21639     95.2 1.155e+04 3.541e-09
 51.22910     95.7 1.151e+04 3.774e-09
 51.23919     95.9 1.154e+04 2.842e-09
 51.25672     96.5 1.155e+04 2.857e-09
 51.27689     97.2 1.155e+04 2.899e-09
 51.29705     97.8 1.154e+04 2.964e-09
 51.30904     98.4 1.155e+04 3.096e-09
 51.31912     97.9 1.137e+04 2.037e-09
 51.32765     98.5 1.132e+04 2.222e-09
 51.33773     98.3 1.129e+04 1.837e-09
 51.35755     98.7 1.121e+04 2.000e-09
 51.37771     98.9 1.119e+04 2.443e-09
 51.38897     99.0 1.128e+04 3.289e-09
 51.39906     99.4 1.108e+04 2.679e-09
 51.41805     99.4 1.119e+04 3.708e-09
 51.43821     99.2 1.148e+04 6.498e-09
 51.45838     99.3 1.167e+04 9.224e-09
 51.46901     98.9 1.213e+04 1.636e-08
 51.48927    100.3 1.211e+04 1.320e-08
 51.52915    100.2 1.215e+04 1.661e-08
 51.56948    100.2 1.189e+04 1.499e-08
 51.60881    100.6 1.128e+04 1.005e-08
 51.62897    101.5 1.135e+04 9.397e-09
 51.65014    102.0 1.071e+04 6.013e-09
 51.69047    102.7 1.006e+04 3.330e-09
 51.73081    103.5 9.625e+03 2.174e-09
 51.76868    104.7 9.582e+03 2.107e-09
 51.78884    105.7 9.680e+03 2.058e-09
 51.81147    106.9 9.694e+03 2.231e-09
 51.85180    107.8 9.806e+03 2.580e-09
 51.89213    108.2 9.855e+03 2.695e-09
 51.91310    108.3 9.819e+03 2.610e-09
 51.92936    109.2 9.988e+03 3.475e-09
 51.94871    109.4 1.017e+04 3.727e-09
 51.97279    109.4 1.007e+04 3.435e-09
 52.01312    109.6 9.839e+03 2.569e-09
 52.05345    110.1 9.576e+03 1.630e-09
 52.08842    110.6 9.306e+03 1.038e-09
 52.10858    110.5 9.543e+03 1.544e-09
 52.13412    111.4 9.347e+03 1.202e-09
 52.17445    112.7 9.395e+03 1.131e-09
 52.21478    114.2 9.397e+03 1.129e-09
 52.24829    115.8 9.414e+03 1.131e-09
 52.26845    115.2 9.548e+03 1.607e-09
 52.29544    116.8 9.553e+03 1.667e-09
 52.33577    118.5 9.607e+03 1.762e-09
 52.37610    120.0 9.733e+03 1.920e-09
 52.40816    121.6 9.933e+03 2.149e-09
 52.42832    121.4 1.026e+04 3.365e-09
 52.44658    122.1 1.031e+04 3.372e-09
 52.46665    122.8 1.034e+04 3.342e-09
 52.48682    123.5 1.038e+04 3.350e-09
 52.49798    124.3 1.050e+04 3.444e-09
 52.49925    124.1 1.077e+04 4.349e-09
 52.50825    124.0 1.086e+04 4.427e-09
 52.52715    124.6 1.094e+04 4.394e-09
 52.54731    125.2 1.098e+04 4.326e-09
 52.56748    125.8 1.100e+04 4.306e-09
 52.57792    126.4 1.104e+04 4.320e-09
 52.58800    126.5 1.100e+04 5.693e-09
 52.60781    127.2 1.115e+04 5.797e-09
 52.62797    127.9 1.143e+04 6.263e-09
 52.64777    128.5 1.180e+04 7.281e-09
 52.65785    127.7 1.225e+04 1.150e-08
 52.66831    128.6 1.280e+04 1.745e-08
 52.68847    129.9 1.349e+04 2.840e-08
 52.70864    130.5 1.427e+04 4.056e-08
 52.72371    130.2 1.498e+04 5.536e-08
 52.73265    130.2 1.564e+04 7.912e-08
 52.73769    131.2 1.497e+04 1.451e-07
 52.74383    131.7 1.551e+04 2.015e-07
 52.75391    132.1 1.598e+04 2.629e-07
 52.76399    132.2 1.641e+04 3.138e-07
 52.77262    132.0 1.663e+04 3.157e-07
 52.77766    132.5 1.710e+04 3.825e-07
 52.78416    131.6 1.718e+04 3.794e-07
 52.79070    130.6 1.728e+04 3.635e-07
 52.79574    130.2 1.713e+04 1.995e-07
 52.80432    129.5 1.712e+04 1.718e-07
 52.81258    129.0 1.707e+04 1.451e-07
 52.81762    128.7 1.701e+04 2.093e-07
 52.82449    128.2 1.694e+04 2.032e-07
 52.83457    127.6 1.677e+04 1.905e-07
 52.84975    127.2 1.702e+04 2.117e-07
 52.86487    126.9 1.681e+04 1.807e-07
 52.87490    126.8 1.658e+04 1.533e-07
 52.88499    126.8 1.614e+04 1.178e-07
 52.89252    126.7 1.572e+04 9.287e-08
 52.89761    127.4 1.672e+04 1.034e-07
 52.91029    127.8 1.599e+04 5.320e-08
 52.93046    127.4 1.515e+04 2.513e-08
 52.95062    126.0 1.428e+04 1.931e-08
 52.96751    124.8 1.422e+04 1.990e-08
 52.97759    123.5 1.335e+04 1.581e-08
 52.99095    122.5 1.314e+04 1.896e-08
 53.01112    121.6 1.337e+04 2.577e-08
 53.03128    120.4 1.381e+04 3.283e-08
 53.04744    118.8 1.422e+04 3.797e-08
 53.05753    118.8 1.326e+04 2.396e-08
 53.07162    116.8 1.330e+04 2.375e-08
 53.08343    114.8 1.331e+04 2.382e-08
 53.09351    116.0 1.236e+04 1.375e-08
 53.11195    114.5 1.238e+04 1.415e-08
 53.12738    113.5 1.247e+04 1.593e-08
 53.13746    113.7 1.200e+04 1.246e-08
 53.15228    113.2 1.223e+04 1.515e-08
 53.17244    112.9 1.234e+04 1.697e-08
 53.19261    112.8 1.230e+04 1.686e-08
 53.20731    112.9 1.206e+04 1.510e-08
 53.21740    113.2 1.197e+04 1.503e-08
 53.23294    113.4 1.158e+04 1.313e-08
 53.25310    113.6 1.110e+04 1.058e-08
 53.27327    113.9 1.062e+04 8.290e-09
 53.28725    114.3 1.023e+04 6.573e-09
 53.29733    114.9 1.047e+04 5.924e-09
 53.31360    115.4 1.016e+04 4.651e-09
 53.33377    115.9 9.896e+03 3.898e-09
 53.35393    116.6 9.657e+03 3.740e-09
 53.36718    117.7 9.651e+03 3.742e-09
 53.37727    117.8 9.409e+03 3.550e-09
 53.39426    119.0 9.420e+03 3.611e-09
 53.41443    120.1 9.454e+03 3.839e-09
 53.43459    121.3 9.505e+03 4.265e-09
 53.44712    122.5 9.602e+03 4.927e-09
 53.45720    122.6 9.705e+03 4.326e-09
 53.47492    123.8 9.817e+03 5.151e-09
 53.49509    125.1 9.944e+03 6.241e-09
 53.51526    126.4 1.010e+04 7.624e-09
 53.52705    127.6 1.029e+04 9.278e-09
 53.53714    128.0 1.045e+04 8.596e-09
 53.55559    129.2 1.068e+04 1.033e-08
 53.57575    130.5 1.097e+04 1.240e-08
 53.59592    131.3 1.127e+04 1.469e-08
 53.60699    131.4 1.168e+04 1.755e-08
 53.61707    132.1 1.153e+04 1.755e-08
 53.63625    131.8 1.225e+04 2.205e-08
 53.65641    130.2 1.371e+04 3.235e-08
 53.66869    126.7 1.591e+04 5.791e-08
 53.67368    127.2 1.541e+04 5.735e-08
 53.68152    124.8 1.663e+04 8.872e-08
 53.68683    122.2 1.762e+04 1.447e-07
 53.69187    122.7 1.752e+04 1.570e-07
 53.70169    120.5 1.812e+04 2.671e-07
 53.71177    118.5 1.852e+04 3.555e-07
 53.72175    115.9 1.858e+04 3.570e-07
 53.72679    117.3 1.865e+04 4.060e-07
 53.73194    114.5 1.865e+04 3.698e-07
 53.74202    112.3 1.833e+04 2.799e-07
 53.75673    110.0 1.750e+04 1.403e-07
 53.76686    111.6 1.778e+04 1.474e-07
 53.77741    108.9 1.617e+04 5.248e-08
 53.79757    105.9 1.376e+04 1.850e-08
 53.81774    103.2 1.140e+04 8.845e-09
 53.83671    101.7 1.054e+04 7.151e-09
 53.84680    101.7 1.050e+04 7.259e-09
 53.85807    101.8 1.042e+04 7.112e-09
 53.87823    101.9 1.042e+04 7.181e-09
 53.89840    102.1 1.049e+04 7.661e-09
 53.91665    102.1 1.080e+04 9.503e-09
 53.92673    101.6 1.107e+04 1.010e-08
 53.93873    101.5 1.170e+04 1.445e-08
 53.95890    101.7 1.238e+04 2.144e-08
 53.97906    102.3 1.303e+04 3.018e-08
 53.99658    103.1 1.351e+04 3.556e-08
 54.00667    102.2 1.401e+04 4.064e-08
 54.01939    102.9 1.394e+04 3.942e-08
 54.03956    103.6 1.363e+04 3.399e-08
 54.05972    104.3 1.314e+04 2.600e-08
 54.07652    104.8 1.256e+04 1.883e-08
 54.08660    103.8 1.406e+04 2.134e-08
 54.10006    104.0 1.328e+04 1.582e-08
 54.12022    104.0 1.261e+04 1.341e-08
 54.14039    104.2 1.216e+04 1.268e-08
 54.15645    104.5 1.192e+04 1.255e-08
 54.16654    103.7 1.296e+04 2.232e-08
 54.18072    104.1 1.256e+04 2.132e-08
 54.20088    104.5 1.225e+04 2.008e-08
 54.22105    104.8 1.193e+04 1.862e-08
 54.23639    105.1 1.160e+04 1.764e-08
 54.24647    105.3 1.209e+04 2.490e-08
 54.25394    105.7 1.181e+04 2.227e-08
 54.26403    106.5 1.199e+04 2.509e-08
 54.28154    107.1 1.173e+04 2.266e-08
 54.30171    107.7 1.157e+04 2.082e-08
 54.31632    108.3 1.146e+04 1.913e-08
 54.32641    108.2 1.154e+04 1.409e-08
 54.34204    108.3 1.142e+04 1.129e-08
 54.36221    108.3 1.126e+04 8.884e-09
 54.38237    108.2 1.097e+04 6.882e-09
 54.39626    108.0 1.071e+04 5.552e-09
 54.40634    106.9 1.008e+04 4.560e-09
 54.42270    106.7 9.844e+03 3.974e-09
 54.44287    106.6 9.567e+03 3.733e-09
 54.46303    106.7 9.428e+03 3.744e-09
 54.47619    106.9 9.419e+03 3.762e-09
 54.48628    106.6 9.287e+03 3.552e-09
 54.50336    107.0 9.277e+03 3.806e-09
 54.52353    107.4 9.338e+03 4.197e-09
 54.54370    107.7 9.466e+03 4.801e-09
 54.55613    108.0 9.690e+03 5.818e-09
 54.56621    108.0 9.695e+03 6.117e-09
 54.58403    108.0 1.007e+04 8.344e-09
 54.60419    108.0 1.061e+04 1.227e-08
 54.62436    108.0 1.136e+04 1.886e-08
 54.63606    108.0 1.226e+04 2.853e-08
 54.64615    108.6 1.235e+04 3.117e-08
 54.66469    108.7 1.333e+04 4.556e-08
 54.68485    108.6 1.402e+04 5.257e-08
 54.70502    107.8 1.412e+04 5.173e-08
 54.71600    106.9 1.410e+04 4.536e-08
 54.72608    107.3 1.423e+04 4.983e-08
 54.74535    106.3 1.400e+04 3.958e-08
 54.76552    105.0 1.348e+04 2.759e-08
 54.78568    103.3 1.280e+04 1.888e-08
 54.79593    101.7 1.206e+04 1.408e-08
 54.80602    102.7 1.237e+04 1.285e-08
 54.82601    101.2 1.175e+04 9.476e-09
 54.83920    100.4 1.127e+04 7.749e-09
 54.84929    100.1 1.171e+04 1.402e-08
 54.86579    100.1 1.157e+04 1.304e-08
 54.87587    100.7 1.122e+04 1.125e-08
 54.88651    100.8 1.111e+04 1.020e-08
 54.90667    101.1 1.094e+04 8.663e-09
 54.92684    101.6 1.075e+04 7.063e-09
 54.94572    102.0 1.059e+04 5.722e-09
 54.95580    102.6 1.052e+04 4.542e-09
 54.96717    103.1 1.038e+04 4.029e-09
 54.98734    103.9 1.037e+04 3.975e-09
 55.00750    104.7 1.043e+04 4.038e-09
 55.02566    105.5 1.056e+04 4.335e-09
 55.03574    106.2 1.055e+04 3.526e-09
 55.04783    107.0 1.068e+04 4.017e-09
 55.06800    108.0 1.087e+04 4.779e-09
 55.08816    108.9 1.115e+04 5.799e-09
 55.10559    109.4 1.155e+04 7.175e-09
 55.11567    110.1 1.148e+04 5.666e-09
 55.12849    110.2 1.190e+04 7.058e-09
 55.14866    110.1 1.249e+04 9.795e-09
 55.16883    109.7 1.334e+04 1.653e-08
 55.18553    109.0 1.443e+04 3.229e-08
 55.19561    109.7 1.389e+04 2.067e-08
 55.20916    108.8 1.488e+04 4.016e-08
 55.22932    107.8 1.572e+04 6.899e-08
 55.24949    106.7 1.617e+04 8.135e-08
 55.26546    105.5 1.614e+04 7.845e-08
 55.27554    106.2 1.574e+04 6.350e-08
 55.28982    105.3 1.551e+04 5.597e-08
 55.30998    104.9 1.486e+04 3.706e-08
 55.33015    104.5 1.398e+04 2.011e-08
 55.34540    103.8 1.299e+04 1.164e-08
 55.35548    104.6 1.301e+04 1.221e-08
 55.37048    104.3 1.236e+04 8.030e-09
 55.40083    104.2 1.192e+04 6.641e-09
 55.42466    105.2 1.157e+04 5.488e-09
 55.42910    105.6 1.183e+04 7.433e-09
 55.43551    105.5 1.211e+04 6.084e-09
 55.45114    106.1 1.168e+04 4.616e-09
 55.48149    108.0 1.151e+04 3.985e-09
 55.52192    110.0 1.108e+04 2.979e-09
 55.56225    112.2 1.089e+04 2.604e-09
 55.58540    114.5 1.082e+04 2.364e-09
 55.60556    115.3 1.057e+04 1.861e-09
 55.64291    118.0 1.057e+04 1.825e-09
 55.68324    120.5 1.064e+04 1.712e-09
 55.72357    123.0 1.073e+04 1.519e-09
 55.74527    125.4 1.078e+04 1.350e-09
 55.76543    126.7 1.070e+04 1.568e-09
 55.80423    129.0 1.075e+04 1.472e-09
 55.84457    131.4 1.077e+04 1.469e-09
 55.88490    133.6 1.082e+04 1.519e-09
 55.92523    136.9 1.083e+04 2.028e-09
 55.96556    138.8 1.098e+04 2.443e-09
 56.00589    140.5 1.119e+04 3.100e-09
 56.04484    142.0 1.145e+04 3.909e-09
 56.06501    143.1 1.150e+04 4.952e-09
 56.08655    144.0 1.181e+04 6.091e-09
 56.12688    144.3 1.199e+04 6.770e-09
 56.16721    144.2 1.200e+04 6.805e-09
 56.20471    143.7 1.192e+04 6.552e-09
 56.22488    144.2 1.194e+04 6.942e-09
 56.24787    144.0 1.163e+04 5.510e-09
 56.28821    144.1 1.133e+04 4.229e-09
 56.32854    144.3 1.110e+04 3.340e-09
 56.36458    145.0 1.094e+04 2.765e-09
 56.38475    145.4 1.084e+04 2.597e-09
 56.40920    146.5 1.076e+04 2.450e-09
 56.44953    148.0 1.073e+04 2.335e-09
 56.48986    149.3 1.073e+04 2.196e-09
 56.52445    150.6 1.071e+04 2.053e-09
 56.54462    150.6 1.083e+04 2.500e-09
 56.57052    151.8 1.083e+04 2.470e-09
 56.59518    153.1 1.083e+04 2.471e-09
 56.61534    153.0 1.094e+04 2.468e-09
 56.64100    153.8 1.097e+04 2.620e-09
 56.66107    154.5 1.101e+04 2.806e-09
 56.68124    155.2 1.109e+04 3.068e-09
 56.69421    155.8 1.121e+04 3.452e-09
 56.70429    155.7 1.133e+04 3.923e-09
 56.72157    156.1 1.150e+04 4.455e-09
 56.74173    156.5 1.167e+04 5.035e-09
 56.76190    156.8 1.181e+04 5.643e-09
 56.77415    157.1 1.190e+04 6.215e-09
 56.78423    156.7 1.191e+04 6.159e-09
 56.80223    156.9 1.189e+04 6.458e-09
 56.82240    157.0 1.187e+04 6.465e-09
 56.84256    157.2 1.180e+04 6.411e-09
 56.85408    157.5 1.168e+04 6.243e-09
 56.86416    157.3 1.157e+04 5.938e-09
 56.88289    157.7 1.147e+04 5.810e-09
 56.90306    158.1 1.140e+04 5.682e-09
 56.92322    158.6 1.136e+04 5.565e-09
 56.93402    159.0 1.134e+04 5.489e-09
 56.94410    158.8 1.126e+04 5.425e-09
 56.96355    159.2 1.126e+04 5.415e-09
 56.98372    159.5 1.124e+04 5.407e-09
 57.00387    159.8 1.121e+04 5.401e-09
 57.02403    159.8 1.116e+04 5.401e-09
 57.04422    159.8 1.114e+04 5.374e-09
 57.06438    159.8 1.112e+04 5.273e-09
 57.08380    159.8 1.109e+04 5.109e-09
 57.09389    159.7 1.102e+04 5.034e-09
 57.10471    159.8 1.096e+04 4.773e-09
 57.12488    160.0 1.090e+04 4.496e-09
 57.14504    160.2 1.085e+04 4.278e-09
 57.16374    160.5 1.083e+04 4.237e-09
 57.17382    160.4 1.071e+04 4.136e-09
 57.18024    160.8 1.072e+04 4.156e-09
 57.19033    160.6 1.045e+04 3.197e-09
 57.20554    161.0 1.050e+04 3.343e-09
 57.22571    161.5 1.058e+04 3.645e-09
 57.24367    161.9 1.073e+04 4.113e-09
 57.25376    161.9 1.063e+04 3.889e-09
 57.26604    162.3 1.084e+04 4.489e-09
 57.28620    162.7 1.109e+04 5.304e-09
 57.30637    163.0 1.135e+04 6.353e-09
 57.32361    163.3 1.166e+04 7.767e-09
 57.33369    163.2 1.153e+04 7.152e-09
 57.34670    163.3 1.187e+04 8.648e-09
 57.36686    163.1 1.219e+04 1.057e-08
 57.38703    162.5 1.272e+04 1.455e-08
 57.40354    160.9 1.390e+04 2.580e-08
 57.41363    160.0 1.378e+04 2.320e-08
 57.42736    157.6 1.524e+04 4.583e-08
 57.44753    154.4 1.641e+04 7.339e-08
 57.46769    150.2 1.676e+04 7.768e-08
 57.48348    145.8 1.656e+04 7.061e-08
 57.49356    144.9 1.583e+04 5.662e-08
 57.50802    141.5 1.493e+04 4.126e-08
 57.52819    138.8 1.340e+04 2.355e-08
 57.54835    136.3 1.153e+04 1.235e-08
 57.56341    134.1 1.004e+04 7.451e-09
 57.57350    135.3 1.043e+04 8.545e-09
 57.58868    133.9 9.697e+03 6.474e-09
 57.60885    133.1 9.555e+03 6.181e-09
 57.62902    132.8 9.534e+03 6.114e-09
 57.64335    132.6 9.538e+03 6.116e-09
 57.65343    133.4 9.587e+03 6.255e-09
 57.66935    133.1 9.612e+03 6.288e-09
 57.68951    132.7 9.698e+03 6.441e-09
 57.70968    131.8 9.946e+03 7.051e-09
 57.72328    130.7 1.030e+04 8.380e-09
 57.73337    131.0 1.048e+04 9.032e-09
 57.75001    127.6 1.192e+04 1.533e-08
 57.76550    124.2 1.336e+04 2.521e-08
 57.77554    124.2 1.403e+04 3.333e-08
 57.78520    122.5 1.458e+04 4.180e-08
 57.79528    120.5 1.507e+04 5.145e-08
 57.80312    118.0 1.591e+04 6.337e-08
 57.80816    117.8 1.645e+04 7.682e-08
 57.81545    115.1 1.690e+04 8.205e-08
 57.82553    111.9 1.824e+04 8.856e-08
 57.83561     91.7 3.301e+04 1.434e-07
 57.84306     64.3 3.041e+04 9.573e-07
 57.84811     60.6 2.407e+04 1.955e-06
 57.85323     36.7 1.922e+04 7.997e-06
 57.85825     30.7 1.794e+04 7.695e-06
 57.86584     12.5 3.510e+04 4.182e-07
 57.87595    -29.0 5.265e+04 1.172e-08
 57.88310    -53.7 1.411e+04 1.221e-08
 57.88815    -45.5 3.115e+04 1.367e-08
 57.89611    -51.5 1.892e+04 1.194e-08
 57.91128    -52.3 1.794e+04 9.399e-09
 57.93150    -54.7 1.047e+04 8.673e-09
 57.95166    -52.8 9.983e+03 7.659e-09
 57.96309    -51.2 9.584e+03 6.495e-09
 57.97317    -50.3 9.439e+03 6.192e-09
 57.99199    -48.6 9.100e+03 5.408e-09
 58.01216    -46.9 8.865e+03 4.845e-09
 58.03233    -45.2 8.726e+03 4.553e-09
 58.06267    -43.5 8.667e+03 4.406e-09
 58.10299    -41.7 8.762e+03 4.852e-09
 58.14332    -38.8 9.419e+03 6.383e-09
 58.18376    -38.9 1.079e+04 1.245e-08
 58.21391    -38.9 1.157e+04 1.836e-08
 58.23398    -39.0 1.195e+04 2.121e-08
 58.25415    -39.2 1.206e+04 2.187e-08
 58.27275    -39.7 1.198e+04 1.940e-08
 58.28283    -38.5 1.197e+04 2.073e-08
 58.29448    -39.2 1.151e+04 1.572e-08
 58.31464    -40.5 1.086e+04 1.139e-08
 58.33481    -41.8 1.040e+04 9.160e-09
 58.35076    -42.8 1.026e+04 8.215e-09
 58.35855    -42.5 1.063e+04 9.693e-09
 58.36276    -41.3 1.065e+04 9.791e-09
 58.37514    -42.4 1.051e+04 9.291e-09
 58.39530    -43.8 1.056e+04 9.304e-09
 58.41547    -47.6 1.128e+04 1.082e-08
 58.43262    -53.2 1.393e+04 2.196e-08
 58.44270    -50.5 1.343e+04 2.044e-08
 58.45580    -56.1 1.563e+04 4.241e-08
 58.47597    -61.7 1.700e+04 7.585e-08
 58.49613    -67.5 1.745e+04 9.486e-08
 58.51255    -74.0 1.736e+04 9.247e-08
 58.52263    -73.3 1.779e+04 1.017e-07
 58.53646    -79.9 1.674e+04 7.606e-08
 58.55663    -85.3 1.530e+04 4.880e-08
 58.57679    -88.5 1.422e+04 3.485e-08
 58.59249    -89.9 1.363e+04 2.636e-08
 58.60257    -89.5 1.345e+04 2.129e-08
 58.61712    -90.7 1.299e+04 1.469e-08
 58.63729    -91.9 1.264e+04 1.122e-08
 58.65746    -93.0 1.242e+04 1.008e-08
 58.67242    -93.7 1.236e+04 9.881e-09
 58.68250    -93.8 1.234e+04 7.845e-09
 58.69779    -94.4 1.232e+04 8.817e-09
 58.71795    -95.0 1.226e+04 9.950e-09
 58.73812    -95.3 1.215e+04 1.057e-08
 58.75236    -95.5 1.209e+04 1.070e-08
 58.76244    -95.5 1.197e+04 1.044e-08
 58.77845    -95.5 1.191e+04 1.054e-08
 58.79861    -95.4 1.173e+04 1.061e-08
 58.81878    -95.2 1.161e+04 1.030e-08
 58.83229    -95.1 1.152e+04 9.803e-09
 58.84237    -94.9 1.141e+04 9.183e-09
 58.85911    -94.9 1.131e+04 8.552e-09
 58.87928    -95.0 1.121e+04 7.830e-09
 58.89944    -95.1 1.109e+04 7.196e-09
 58.91223    -95.3 1.096e+04 6.773e-09
 58.92231    -95.3 1.086e+04 6.473e-09
 58.93602    -95.6 1.079e+04 6.360e-09
 58.94610    -95.0 1.107e+04 7.944e-09
 58.95994    -95.3 1.101e+04 7.752e-09
 58.98010    -95.7 1.099e+04 7.723e-09
 58.99216    -96.3 1.102e+04 7.891e-09
 59.00225    -96.5 1.083e+04 7.157e-09
 59.02043    -97.2 1.083e+04 7.365e-09
 59.04060    -97.9 1.081e+04 7.543e-09
 59.06077    -98.7 1.077e+04 7.703e-09
 59.07210    -99.4 1.073e+04 7.904e-09
 59.08218    -99.3 1.060e+04 7.499e-09
 59.10110    -99.9 1.063e+04 7.870e-09
 59.12126   -100.5 1.067e+04 8.282e-09
 59.14143   -101.0 1.071e+04 8.755e-09
 59.15203   -101.4 1.075e+04 9.248e-09
 59.16212   -101.2 1.062e+04 8.775e-09
 59.18176   -101.6 1.063e+04 9.057e-09
 59.20192   -101.8 1.063e+04 9.217e-09
 59.22188   -102.1 1.063e+04 9.254e-09
 59.23197   -101.6 1.037e+04 8.169e-09
 59.24225   -101.7 1.030e+04 8.002e-09
 59.26242   -101.6 1.022e+04 7.674e-09
 59.28259   -101.5 1.012e+04 7.231e-09
 59.30182   -101.2 1.000e+04 6.742e-09
 59.31190   -101.0 9.850e+03 6.127e-09
 59.32292   -100.7 9.828e+03 5.977e-09
 59.34308   -100.5 9.827e+03 5.906e-09
 59.36325   -100.3 9.835e+03 5.884e-09
 59.38185   -100.0 9.813e+03 5.808e-09
 59.40212    -99.3 9.721e+03 5.659e-09
 59.43402    -98.2 9.620e+03 5.244e-09
 59.47435    -96.9 9.474e+03 4.705e-09
 59.51468    -95.3 9.361e+03 4.117e-09
 59.54182    -93.6 9.263e+03 3.643e-09
 59.56199    -93.2 9.129e+03 3.541e-09
 59.59535    -91.4 9.046e+03 3.203e-09
 59.63568    -89.5 8.945e+03 2.898e-09
 59.67601    -87.5 8.839e+03 2.641e-09
 59.70169    -85.4 8.763e+03 2.394e-09
 59.72186    -85.2 8.843e+03 2.599e-09
 59.75667    -83.0 8.869e+03 2.509e-09
 59.79700    -80.8 8.896e+03 2.465e-09
 59.83733    -78.6 8.986e+03 2.493e-09
 59.86156    -76.4 9.136e+03 2.544e-09
 59.88173    -76.5 9.434e+03 3.126e-09
 59.91799    -74.6 9.656e+03 3.218e-09
 59.94140    -73.1 9.745e+03 3.280e-09
 59.95138    -73.9 9.903e+03 3.944e-09
 59.96821    -73.4 1.003e+04 4.497e-09
 59.98838    -72.9 1.021e+04 5.237e-09
 60.00854    -72.3 1.043e+04 5.999e-09
 60.02124    -71.8 1.070e+04 6.952e-09
 60.03132    -72.8 1.103e+04 8.340e-09
 60.04887    -72.3 1.127e+04 9.312e-09
 60.06904    -71.8 1.145e+04 9.900e-09
 60.08921    -71.4 1.148e+04 1.003e-08
 60.10117    -71.0 1.151e+04 9.399e-09
 60.10842    -71.9 1.140e+04 8.093e-09
 60.11662    -71.9 1.137e+04 7.320e-09
 60.12954    -71.6 1.133e+04 5.681e-09
 60.14970    -71.4 1.131e+04 4.542e-09
 60.16987    -71.1 1.130e+04 3.944e-09
 60.18111    -70.8 1.130e+04 3.771e-09
 60.19119    -72.1 1.120e+04 3.614e-09
 60.21020    -71.8 1.134e+04 3.990e-09
 60.23036    -71.3 1.143e+04 4.641e-09
 60.25053    -70.9 1.152e+04 5.626e-09
 60.26104    -70.5 1.160e+04 6.909e-09
 60.27112    -71.5 1.151e+04 7.866e-09
 60.29086    -70.7 1.161e+04 8.726e-09
 60.32091    -69.8 1.173e+04 9.232e-09
 60.34117    -71.5 1.177e+04 1.056e-08
 60.36163    -70.4 1.191e+04 1.172e-08
 60.40197    -69.4 1.192e+04 1.198e-08
 60.44230    -68.2 1.186e+04 1.146e-08
 60.48088    -67.1 1.179e+04 1.056e-08
 60.50104    -67.9 1.168e+04 9.515e-09
 60.52296    -66.8 1.191e+04 9.325e-09
 60.56329    -65.8 1.228e+04 1.094e-08
 60.60362    -64.6 1.275e+04 1.396e-08
 60.63377    -64.6 1.318e+04 1.784e-08
 60.65063    -63.7 1.332e+04 1.959e-08
 60.66081    -66.0 1.282e+04 1.341e-08
 60.68428    -64.7 1.287e+04 1.333e-08
 60.72461    -63.2 1.261e+04 1.030e-08
 60.76494    -61.6 1.236e+04 7.385e-09
 60.80062    -60.3 1.219e+04 5.318e-09
 60.82078    -64.5 1.120e+04 2.205e-09
 60.84561    -64.2 1.123e+04 3.021e-09
 60.88594    -64.1 1.149e+04 4.555e-09
 60.92627    -64.4 1.172e+04 7.470e-09
 60.96049    -64.9 1.207e+04 1.047e-08
 60.98065    -67.3 1.153e+04 7.802e-09
 61.00693    -67.8 1.158e+04 7.492e-09
 61.04726    -68.8 1.141e+04 6.670e-09
 61.08759    -69.6 1.130e+04 6.378e-09
 61.12036    -70.2 1.129e+04 6.676e-09
 61.14052    -69.7 1.082e+04 3.290e-09
 61.16825    -69.6 1.096e+04 4.154e-09
 61.20859    -69.4 1.115e+04 5.374e-09
 61.24892    -69.3 1.157e+04 7.103e-09
 61.27716    -68.2 1.164e+04 7.855e-09
 61.28714    -67.7 1.162e+04 8.719e-09
 61.29011    -67.9 1.199e+04 1.006e-08
 61.30029    -66.7 1.146e+04 7.121e-09
 61.31940    -67.7 1.192e+04 9.493e-09
 61.33947    -68.8 1.295e+04 1.393e-08
 61.35963    -70.1 1.420e+04 2.555e-08
 61.37005    -70.8 1.519e+04 4.728e-08
 61.38013    -69.8 1.408e+04 3.150e-08
 61.39996    -70.3 1.481e+04 4.630e-08
 61.42013    -70.9 1.502e+04 5.107e-08
 61.43990    -71.4 1.473e+04 4.677e-08
 61.44998    -70.7 1.426e+04 4.238e-08
 61.46046    -70.7 1.358e+04 2.725e-08
 61.48062    -71.0 1.234e+04 1.241e-08
 61.50079    -71.8 1.111e+04 5.614e-09
 61.51984    -72.3 1.026e+04 3.289e-09
 61.52992    -71.8 1.037e+04 3.597e-09
 61.54112    -71.8 9.953e+03 2.658e-09
 61.56129    -71.3 9.764e+03 2.325e-09
 61.58145    -69.9 9.713e+03 2.225e-09
 61.59977    -68.4 9.716e+03 2.211e-09
 61.60985    -68.4 1.000e+04 2.764e-09
 61.62178    -67.2 1.017e+04 2.785e-09
 61.64195    -66.3 1.056e+04 3.144e-09
 61.66211    -65.5 1.103e+04 4.219e-09
 61.67971    -64.8 1.180e+04 6.543e-09
 61.68979    -66.4 1.253e+04 1.270e-08
 61.70244    -65.4 1.332e+04 2.066e-08
 61.72261    -63.9 1.396e+04 3.232e-08
 61.74278    -61.1 1.437e+04 4.361e-08
 61.75964    -57.0 1.516e+04 4.512e-08
 61.76973    -63.0 1.587e+04 4.289e-08
 61.78311    -63.4 1.907e+04 3.537e-08
 61.79818    -82.8 5.413e+04 1.880e-08
 61.80455   -107.8 2.497e+04 2.022e-06
 61.80959   -102.9 5.365e+04 3.372e-08
 61.81830   -129.1 3.393e+04 5.027e-07
 61.82838   -146.6 1.941e+04 5.153e-06
 61.83846   -158.3 1.770e+04 8.476e-06
 61.84452   -163.8 1.767e+04 7.310e-06
 61.84956   -157.5 1.758e+04 6.265e-06
 61.85863   -162.4 1.807e+04 4.471e-06
 61.86726   -167.8 1.927e+04 9.962e-07
 61.87231   -167.3 1.920e+04 1.232e-06
 61.87879   -173.5 1.873e+04 1.331e-07
 61.88449   -178.1 1.469e+04 2.751e-08
 61.88953   -172.5 1.817e+04 8.421e-08
 61.89896   -177.2 1.393e+04 2.061e-08
 61.90904   -178.0 1.215e+04 1.367e-08
 61.91913   -178.0 1.174e+04 1.220e-08
 61.92446   -177.9 1.164e+04 1.165e-08
 61.92950   -177.0 1.132e+04 1.046e-08
 61.94438   -176.6 1.113e+04 9.531e-09
 61.96460   -176.6 1.080e+04 8.216e-09
 61.98476   -176.2 1.036e+04 7.015e-09
 61.99945   -175.4 1.022e+04 6.725e-09
 62.00953   -175.0 1.030e+04 6.931e-09
 62.02509   -174.2 1.025e+04 6.852e-09
 62.04526   -173.3 1.032e+04 7.218e-09
 62.06542   -172.5 1.060e+04 8.451e-09
 62.07938   -171.7 1.092e+04 1.009e-08
 62.08947   -171.5 1.081e+04 9.794e-09
 62.10575   -170.7 1.107e+04 1.108e-08
 62.12592   -170.0 1.129e+04 1.204e-08
 62.14608   -169.3 1.142e+04 1.246e-08
 62.15932   -168.7 1.145e+04 1.254e-08
 62.16940   -168.6 1.146e+04 1.241e-08
 62.18642   -168.0 1.147e+04 1.224e-08
 62.20658   -167.4 1.142e+04 1.086e-08
 62.22675   -166.7 1.129e+04 9.022e-09
 62.23925   -166.1 1.113e+04 7.342e-09
 62.24934   -165.7 1.110e+04 7.474e-09
 62.26708   -165.0 1.090e+04 6.143e-09
 62.28724   -164.2 1.070e+04 5.211e-09
 62.30741   -163.4 1.050e+04 4.562e-09
 62.31919   -162.3 1.032e+04 4.036e-09
 62.32927   -161.8 1.037e+04 4.327e-09
 62.34774   -160.7 1.021e+04 3.867e-09
 62.36791   -159.3 1.007e+04 3.363e-09
 62.38807   -157.8 9.976e+03 2.932e-09
 62.39922   -156.6 9.925e+03 2.622e-09
 62.40930   -156.3 9.989e+03 2.992e-09
 62.42840   -155.0 9.971e+03 2.864e-09
 62.44768   -153.6 9.968e+03 2.794e-09
 62.46794   -154.0 9.829e+03 2.746e-09
 62.49918   -152.2 9.732e+03 2.483e-09
 62.53902   -150.4 9.613e+03 2.213e-09
 62.55919   -149.4 9.860e+03 2.803e-09
 62.57984   -147.8 9.758e+03 2.513e-09
 62.62017   -146.1 9.662e+03 2.276e-09
 62.66050   -144.5 9.586e+03 2.054e-09
 62.69889   -142.9 9.526e+03 1.814e-09
 62.71906   -142.2 9.713e+03 2.172e-09
 62.74116   -140.7 9.646e+03 1.860e-09
 62.78149   -139.1 9.600e+03 1.568e-09
 62.82182   -137.4 9.591e+03 1.338e-09
 62.85876   -135.6 9.616e+03 1.188e-09
 62.87893   -135.4 9.713e+03 1.359e-09
 62.90249   -133.6 9.728e+03 1.214e-09
 62.94282   -131.9 9.761e+03 1.127e-09
 62.98315   -130.0 9.808e+03 1.088e-09
 63.01863   -128.1 9.830e+03 1.079e-09
 63.03880   -128.3 9.892e+03 1.077e-09
 63.06381   -126.4 9.911e+03 1.072e-09
 63.10414   -124.7 1.012e+04 1.084e-09
 63.14447   -123.0 1.025e+04 1.200e-09
 63.17850   -121.3 1.033e+04 1.370e-09
 63.19867   -121.6 1.030e+04 1.114e-09
 63.22513   -120.0 1.036e+04 1.128e-09
 63.26546   -118.3 1.050e+04 1.093e-09
 63.30580   -116.7 1.059e+04 1.045e-09
 63.33837   -115.2 1.069e+04 1.009e-09
 63.35854   -115.2 1.051e+04 7.744e-10
 63.38646   -113.7 1.073e+04 7.815e-10
 63.42679   -112.4 1.094e+04 9.201e-10
 63.46712   -111.1 1.098e+04 1.199e-09
 63.49824   -110.0 1.107e+04 1.574e-09
 63.51841   -110.4 1.110e+04 1.919e-09
 63.54778   -109.3 1.127e+04 2.516e-09
 63.58811   -108.3 1.145e+04 2.952e-09
 63.61829   -107.2 1.161e+04 3.120e-09
 63.63846   -107.3 1.159e+04 3.017e-09
 63.65811   -106.1 1.173e+04 3.134e-09
 63.67828   -107.0 1.182e+04 3.180e-09
 63.70911   -105.9 1.207e+04 3.432e-09
 63.74944   -105.1 1.228e+04 4.291e-09
 63.78977   -104.5 1.255e+04 5.942e-09
 63.81798   -104.2 1.288e+04 8.024e-09
 63.83815   -106.1 1.293e+04 7.870e-09
 63.87043   -106.5 1.304e+04 8.602e-09
 63.91076   -106.9 1.303e+04 8.459e-09
 63.95109   -107.0 1.291e+04 6.292e-09
 63.97785   -106.6 1.272e+04 3.769e-09
 63.99802   -107.3 1.294e+04 2.046e-09
 64.03175   -106.2 1.296e+04 1.409e-09
 64.07208   -104.9 1.291e+04 1.212e-09
 64.11242   -103.3 1.288e+04 1.177e-09
 64.13772   -101.6 1.289e+04 1.171e-09
 64.15789   -102.0 1.310e+04 1.236e-09
 64.19308   -100.5 1.313e+04 1.277e-09
 64.23341    -99.0 1.314e+04 1.317e-09
 64.27374    -97.4 1.319e+04 1.337e-09
 64.29760    -95.8 1.331e+04 1.317e-09
 64.31776    -96.2 1.348e+04 1.137e-09
 64.35440    -94.5 1.358e+04 1.051e-09
 64.39473    -92.8 1.363e+04 9.949e-10
 64.43506    -91.2 1.362e+04 9.765e-10
 64.45747    -89.5 1.355e+04 9.889e-10
 64.47763    -89.5 1.358e+04 1.054e-09
 64.51573    -87.8 1.339e+04 1.360e-09
 64.55606    -86.0 1.322e+04 1.828e-09
 64.59639    -84.2 1.313e+04 2.394e-09
 64.61734    -82.4 1.309e+04 2.856e-09
 64.63750    -82.5 1.331e+04 3.033e-09
 64.67705    -80.9 1.329e+04 3.081e-09
 64.71738    -79.3 1.317e+04 2.974e-09
 64.75704    -77.6 1.315e+04 2.553e-09
 64.77721    -77.5 1.320e+04 2.210e-09
 64.78881    -75.6 1.323e+04 1.800e-09
 64.80898    -75.7 1.313e+04 1.881e-09
 64.83837    -73.7 1.318e+04 1.665e-09
 64.87870    -71.6 1.321e+04 1.611e-09
 64.91691    -69.7 1.335e+04 1.605e-09
 64.93708    -69.6 1.352e+04 1.288e-09
 64.95937    -68.0 1.367e+04 1.640e-09
 64.99970    -66.6 1.351e+04 2.430e-09
 65.04003    -65.4 1.337e+04 3.306e-09
 65.07678    -64.3 1.325e+04 3.714e-09
 65.09695    -63.9 1.314e+04 3.245e-09
 65.12069    -62.8 1.307e+04 3.314e-09
 65.16102    -61.5 1.284e+04 3.184e-09
 65.20135    -59.9 1.271e+04 2.848e-09
 65.23665    -58.0 1.269e+04 2.643e-09
 65.25672    -57.2 1.269e+04 2.679e-09
 65.27174    -56.0 1.268e+04 2.627e-09
 65.29190    -55.2 1.272e+04 2.628e-09
 65.31207    -54.3 1.276e+04 2.650e-09
 65.32647    -53.5 1.275e+04 2.731e-09
 65.33656    -53.2 1.275e+04 2.866e-09
 65.35240    -52.3 1.271e+04 3.045e-09
 65.37256    -51.4 1.268e+04 3.212e-09
 65.38396    -50.4 1.265e+04 3.328e-09
 65.39404    -50.6 1.244e+04 3.044e-09
 65.40641    -49.5 1.240e+04 2.947e-09
 65.41649    -49.3 1.240e+04 3.081e-09
 65.43306    -48.3 1.238e+04 2.837e-09
 65.45323    -47.1 1.240e+04 2.639e-09
 65.47339    -46.0 1.249e+04 2.510e-09
 65.48634    -44.9 1.259e+04 2.415e-09
 65.49643    -44.9 1.259e+04 2.458e-09
 65.51372    -44.0 1.262e+04 2.363e-09
 65.53389    -42.9 1.263e+04 2.329e-09
 65.55405    -41.8 1.268e+04 2.330e-09
 65.56628    -40.8 1.270e+04 2.412e-09
 65.57636    -40.8 1.267e+04 2.552e-09
 65.59438    -39.6 1.266e+04 2.597e-09
 65.61455    -38.4 1.269e+04 2.683e-09
 65.63471    -37.2 1.272e+04 2.784e-09
 65.64621    -36.1 1.274e+04 2.875e-09
 65.65630    -36.0 1.270e+04 2.981e-09
 65.67505    -34.7 1.274e+04 3.029e-09
 65.69521    -33.5 1.281e+04 3.123e-09
 65.71538    -32.4 1.285e+04 3.258e-09
 65.72615    -31.1 1.287e+04 3.486e-09
 65.73623    -31.1 1.286e+04 3.836e-09
 65.75571    -29.7 1.297e+04 4.291e-09
 65.77587    -28.5 1.317e+04 4.929e-09
 65.80622    -27.3 1.332e+04 5.757e-09
 65.84665    -24.9 1.343e+04 6.986e-09
 65.87613    -23.1 1.371e+04 8.238e-09
 65.89630    -23.3 1.367e+04 8.159e-09
 65.92731    -21.7 1.385e+04 9.325e-09
 65.95933    -20.0 1.392e+04 9.737e-09
 65.97950    -20.3 1.359e+04 9.291e-09
 66.00797    -18.3 1.359e+04 7.745e-09
 66.03600    -16.1 1.342e+04 5.882e-09
 66.05617    -16.3 1.343e+04 6.726e-09
 66.08863    -14.0 1.321e+04 5.885e-09
 66.12896    -11.5 1.303e+04 5.514e-09
 66.16930     -9.0 1.292e+04 5.822e-09
 66.19587     -6.6 1.286e+04 7.673e-09
 66.21604     -7.6 1.288e+04 9.545e-09
 66.24996     -5.7 1.310e+04 1.243e-08
 66.29029     -4.0 1.348e+04 1.761e-08
 66.32044     -2.8 1.372e+04 2.366e-08
 66.34051     -1.7 1.380e+04 2.470e-08
 66.35555     -1.2 1.380e+04 2.449e-08
 66.37581     -2.1 1.305e+04 1.475e-08
 66.41128     -1.0 1.306e+04 1.537e-08
 66.45161      0.0 1.318e+04 1.541e-08
 66.49194      0.9 1.321e+04 1.508e-08
 66.51561      1.8 1.335e+04 1.480e-08
 66.53578      1.4 1.278e+04 9.674e-09
 66.57261      1.6 1.288e+04 9.052e-09
 66.61294      1.3 1.299e+04 1.026e-08
 66.65327      1.5 1.308e+04 1.247e-08
 66.67548      1.5 1.302e+04 1.231e-08
 66.69565      2.1 1.246e+04 7.983e-09
 66.73393      1.6 1.236e+04 6.243e-09
 66.77426      1.1 1.201e+04 6.274e-09
 66.81459      1.5 1.204e+04 7.306e-09
 66.83535      1.6 1.215e+04 6.961e-09
 66.85552      3.6 1.199e+04 6.865e-09
 66.89525      2.7 1.217e+04 6.131e-09
 66.93558      2.0 1.267e+04 1.141e-08
 66.97506      2.6 1.320e+04 1.676e-08
 66.99522      4.3 1.275e+04 1.311e-08
 67.01625      4.2 1.258e+04 1.191e-08
 67.05658      5.0 1.195e+04 4.538e-09
 67.09691      5.4 1.151e+04 1.602e-09
 67.12985      6.9 1.124e+04 8.669e-10
 67.14771      6.8 1.108e+04 9.078e-10
 67.15509      8.6 1.117e+04 1.131e-09
 67.17757     10.1 1.114e+04 7.468e-10
 67.21790     11.9 1.111e+04 6.584e-10
 67.25823     14.0 1.122e+04 6.486e-10
 67.29480     15.7 1.133e+04 7.882e-10
 67.31496     17.4 1.133e+04 9.779e-10
 67.33889     18.9 1.153e+04 1.160e-09
 67.37922     20.0 1.164e+04 1.573e-09
 67.41956     21.4 1.170e+04 2.196e-09
 67.45467     22.8 1.208e+04 2.466e-09
 67.47483     24.5 1.201e+04 2.354e-09
 67.50022     25.5 1.237e+04 2.186e-09
 67.54055     26.3 1.255e+04 2.245e-09
 67.58088     27.6 1.272e+04 2.452e-09
 67.61454     29.1 1.293e+04 2.373e-09
 67.63470     30.7 1.294e+04 2.543e-09
 67.66154     32.4 1.318e+04 2.196e-09
 67.70187     33.8 1.343e+04 1.858e-09
 67.74220     35.2 1.350e+04 1.867e-09
 67.77441     36.5 1.349e+04 2.121e-09
 67.79457     37.9 1.350e+04 2.330e-09
 67.82287     39.2 1.355e+04 2.525e-09
 67.86320     40.5 1.360e+04 2.653e-09
 67.90353     41.5 1.355e+04 2.682e-09
 67.93428     42.5 1.347e+04 2.758e-09
 67.95444     43.5 1.347e+04 2.682e-09
 67.98419     44.5 1.339e+04 2.679e-09
 68.02452     46.0 1.322e+04 2.442e-09
 68.06485     47.6 1.305e+04 2.233e-09
 68.09415     49.4 1.307e+04 2.306e-09
 68.11431     50.3 1.300e+04 2.305e-09
 68.14551     51.9 1.305e+04 2.487e-09
 68.18584     53.7 1.330e+04 3.239e-09
 68.22618     55.4 1.355e+04 4.973e-09
 68.25402     56.9 1.377e+04 7.553e-09
 68.27418     57.6 1.367e+04 4.889e-09
 68.30037     59.1 1.375e+04 7.186e-09
 68.32054     58.3 1.383e+04 5.165e-09
 68.34717     59.9 1.390e+04 6.955e-09
 68.38750     61.2 1.409e+04 9.504e-09
 68.41389     62.2 1.430e+04 1.141e-08
 68.43405     63.3 1.426e+04 1.104e-08
 68.46816     63.7 1.457e+04 1.250e-08
 68.50849     64.0 1.461e+04 1.228e-08
 68.54882     64.2 1.439e+04 1.241e-08
 68.57376     64.4 1.409e+04 1.312e-08
 68.59392     64.9 1.396e+04 1.083e-08
 68.62948     65.2 1.367e+04 1.166e-08
 68.66982     65.5 1.342e+04 1.154e-08
 68.71015     66.2 1.296e+04 9.227e-09
 68.73353     67.1 1.274e+04 7.090e-09
 68.74352     67.7 1.285e+04 7.187e-09
 68.76037     68.1 1.273e+04 5.934e-09
 68.78053     69.0 1.251e+04 4.043e-09
 68.80070     69.2 1.253e+04 3.212e-09
 68.83104     71.0 1.247e+04 2.130e-09
 68.87147     72.5 1.240e+04 1.494e-09
 68.89350     74.3 1.220e+04 1.428e-09
 68.91366     76.0 1.223e+04 1.440e-09
 68.95213     78.2 1.220e+04 1.458e-09
 68.99246     80.4 1.219e+04 1.735e-09
 69.03279     82.5 1.233e+04 2.546e-09
 69.05327     83.9 1.237e+04 2.816e-09
 69.07344     86.0 1.252e+04 2.962e-09
 69.10328     86.4 1.260e+04 4.584e-09
 69.12303     87.0 1.265e+04 6.676e-09
 69.13311     88.0 1.268e+04 5.548e-09
 69.14351     88.6 1.275e+04 8.275e-09
 69.16368     89.2 1.284e+04 1.101e-08
 69.18384     89.8 1.289e+04 1.288e-08
 69.20296     90.3 1.283e+04 1.201e-08
 69.21304     91.3 1.297e+04 1.390e-08
 69.22417     91.7 1.288e+04 1.268e-08
 69.24434     92.1 1.271e+04 1.020e-08
 69.26450     92.4 1.253e+04 7.515e-09
 69.28290     92.7 1.238e+04 5.438e-09
 69.29298     93.6 1.259e+04 7.979e-09
 69.30483     94.0 1.242e+04 5.804e-09
 69.32500     94.4 1.233e+04 4.442e-09
 69.34516     95.0 1.230e+04 3.508e-09
 69.36283     95.4 1.227e+04 3.072e-09
 69.37291     96.1 1.235e+04 4.211e-09
 69.38550     96.9 1.226e+04 3.901e-09
 69.40566     97.9 1.225e+04 3.892e-09
 69.42583     98.9 1.230e+04 3.926e-09
 69.44277     99.8 1.237e+04 3.992e-09
 69.45285    100.2 1.247e+04 5.245e-09
 69.46616    101.2 1.256e+04 5.353e-09
 69.48078    102.1 1.267e+04 5.504e-09
 69.49086    102.1 1.284e+04 6.589e-09
 69.50649    102.9 1.289e+04 6.664e-09
 69.52270    103.8 1.294e+04 6.677e-09
 69.53278    103.8 1.314e+04 7.318e-09
 69.54682    104.6 1.318e+04 7.180e-09
 69.56698    105.4 1.323e+04 6.943e-09
 69.58715    106.3 1.329e+04 6.671e-09
 69.60264    107.1 1.331e+04 6.535e-09
 69.61272    106.9 1.337e+04 6.352e-09
 69.62748    107.6 1.342e+04 5.951e-09
 69.64765    108.3 1.350e+04 5.643e-09
 69.66781    108.9 1.359e+04 5.635e-09
 69.68257    109.5 1.366e+04 5.884e-09
 69.69265    109.3 1.359e+04 4.571e-09
 69.70814    109.8 1.372e+04 4.765e-09
 69.72831    110.3 1.389e+04 5.472e-09
 69.74847    110.6 1.403e+04 6.905e-09
 69.76251    110.9 1.416e+04 9.143e-09
 69.77259    110.5 1.414e+04 6.216e-09
 69.78881    110.6 1.417e+04 7.874e-09
 69.80897    110.7 1.435e+04 9.734e-09
 69.82914    110.9 1.467e+04 1.002e-08
 69.84244    110.8 1.488e+04 1.085e-08
 69.85253    110.2 1.481e+04 8.631e-09
 69.87965    110.0 1.484e+04 7.639e-09
 69.92008    109.2 1.468e+04 7.510e-09
 69.96041    108.1 1.461e+04 8.344e-09
 69.99243    107.4 1.430e+04 1.107e-08
 70.01259    107.2 1.400e+04 6.743e-09
 70.04107    106.8 1.382e+04 8.787e-09
 70.08140    106.7 1.366e+04 1.072e-08
 70.12173    106.8 1.363e+04 1.164e-08
 70.15230    107.1 1.364e+04 1.154e-08
 70.17246    107.0 1.323e+04 7.986e-09
 70.20239    107.6 1.312e+04 7.461e-09
 70.24272    108.3 1.301e+04 7.391e-09
 70.28305    109.0 1.297e+04 7.589e-09
 70.31217    109.8 1.290e+04 8.023e-09
 70.33233    110.7 1.263e+04 5.350e-09
 70.36372    111.8 1.259e+04 5.925e-09
 70.40405    113.0 1.265e+04 6.260e-09
 70.44438    114.3 1.280e+04 6.610e-09
 70.47204    115.6 1.289e+04 6.987e-09
 70.49220    117.0 1.280e+04 6.748e-09
 70.51486    117.3 1.289e+04 7.288e-09
 70.53493    118.0 1.298e+04 7.550e-09
 70.55178    118.7 1.305e+04 7.236e-09
 70.56186    119.3 1.296e+04 7.884e-09
 70.57526    120.1 1.305e+04 7.416e-09
 70.59542    120.9 1.314e+04 6.619e-09
 70.61559    121.6 1.318e+04 5.764e-09
 70.63171    122.3 1.320e+04 4.940e-09
 70.64179    122.9 1.317e+04 5.869e-09
 70.65130    123.5 1.318e+04 5.023e-09
 70.66138    123.4 1.317e+04 4.616e-09
 70.67609    123.9 1.320e+04 3.961e-09
 70.69625    124.3 1.327e+04 3.382e-09
 70.71165    124.6 1.342e+04 2.930e-09
 70.72173    125.4 1.328e+04 3.326e-09
 70.73658    125.6 1.337e+04 2.981e-09
 70.75675    125.9 1.337e+04 2.921e-09
 70.77691    126.3 1.337e+04 2.927e-09
 70.79158    126.7 1.335e+04 3.019e-09
 70.80166    127.3 1.329e+04 3.311e-09
 70.81725    127.7 1.328e+04 3.517e-09
 70.83741    128.1 1.329e+04 3.748e-09
 70.85758    128.5 1.328e+04 4.000e-09
 70.87152    128.9 1.324e+04 4.357e-09
 70.88160    129.0 1.323e+04 4.328e-09
 70.89791    129.2 1.319e+04 5.040e-09
 70.91807    129.2 1.328e+04 6.271e-09
 70.93824    129.1 1.336e+04 8.249e-09
 70.95145    128.9 1.353e+04 1.129e-08
 70.96153    129.1 1.347e+04 1.246e-08
 70.97857    128.4 1.394e+04 1.830e-08
 70.99873    126.5 1.474e+04 2.791e-08
 71.01381    125.2 1.524e+04 3.411e-08
 71.02384    124.0 1.571e+04 3.869e-08
 71.03129    121.7 1.651e+04 4.967e-08
 71.03633    121.9 1.653e+04 5.096e-08
 71.04401    118.9 1.716e+04 7.906e-08
 71.05409    116.3 1.745e+04 1.292e-07
 71.06417    114.4 1.762e+04 1.907e-07
 71.07126    112.6 1.785e+04 2.231e-07
 71.07630    112.6 1.798e+04 2.699e-07
 71.08434    110.7 1.816e+04 2.735e-07
 71.09442    108.8 1.818e+04 2.629e-07
 71.10451    107.1 1.813e+04 2.368e-07
 71.11122    105.5 1.793e+04 2.100e-07
 71.11626    105.1 1.831e+04 2.865e-07
 71.12467    103.7 1.818e+04 2.519e-07
 71.13475    103.4 1.797e+04 2.370e-07
 71.14484    103.1 1.784e+04 1.919e-07
 71.16001    102.1 1.764e+04 1.400e-07
 71.18022    101.6 1.675e+04 7.964e-08
 71.19126    101.1 1.605e+04 5.135e-08
 71.20134     99.1 1.583e+04 4.870e-08
 71.22055     98.9 1.537e+04 3.791e-08
 71.23656     98.8 1.509e+04 3.302e-08
 71.24664     99.4 1.554e+04 5.647e-08
 71.26089     99.3 1.535e+04 5.005e-08
 71.27119     99.0 1.505e+04 4.103e-08
 71.28127     98.7 1.447e+04 3.070e-08
 71.30122     98.6 1.412e+04 2.361e-08
 71.32138     98.6 1.375e+04 1.610e-08
 71.34104     98.5 1.350e+04 1.191e-08
 71.35113     98.5 1.327e+04 9.795e-09
 71.37189     98.1 1.308e+04 6.729e-09
 71.41109     97.9 1.265e+04 4.457e-09
 71.43126     98.3 1.239e+04 3.253e-09
 71.45265     98.6 1.221e+04 3.174e-09
 71.49298     99.2 1.212e+04 3.393e-09
 71.53332     99.9 1.216e+04 3.103e-09
 71.57096    100.7 1.214e+04 2.395e-09
 71.59113    101.2 1.206e+04 3.371e-09
 71.61398    101.9 1.202e+04 2.350e-09
 71.65431    102.4 1.200e+04 1.344e-09
 71.69464    102.9 1.183e+04 8.655e-10
 71.73083    103.9 1.167e+04 8.511e-10
 71.75100    104.2 1.159e+04 8.691e-10
 71.77530    105.7 1.154e+04 9.161e-10
 71.81193    107.6 1.152e+04 1.139e-09
 71.83209    108.4 1.157e+04 1.022e-09
 71.85596    110.3 1.161e+04 1.534e-09
 71.89070    112.3 1.176e+04 2.185e-09
 71.91087    112.5 1.161e+04 1.760e-09
 71.93663    114.5 1.177e+04 2.328e-09
 71.97696    116.4 1.200e+04 2.838e-09
 72.01729    118.2 1.225e+04 3.269e-09
 72.04744    119.2 1.234e+04 3.453e-09
 72.06046    120.0 1.235e+04 3.616e-09
 72.07054    120.3 1.234e+04 3.553e-09
 72.08767    121.1 1.236e+04 3.794e-09
 72.10784    121.9 1.244e+04 4.073e-09
 72.12800    122.7 1.253e+04 4.426e-09
 72.14039    123.5 1.256e+04 4.700e-09
 72.15048    123.7 1.271e+04 4.832e-09
 72.16833    124.4 1.273e+04 5.184e-09
 72.18850    125.1 1.272e+04 5.203e-09
 72.20866    125.8 1.275e+04 4.980e-09
 72.22033    126.6 1.282e+04 4.606e-09
 72.23041    126.6 1.291e+04 5.475e-09
 72.24899    127.3 1.298e+04 5.169e-09
 72.26916    127.9 1.308e+04 4.878e-09
 72.28933    128.7 1.313e+04 4.823e-09
 72.30026    129.5 1.321e+04 4.879e-09
 72.31035    129.1 1.335e+04 5.736e-09
 72.32966    129.7 1.354e+04 6.022e-09
 72.34982    130.2 1.373e+04 6.795e-09
 72.36999    130.6 1.397e+04 8.281e-09
 72.38020    130.6 1.420e+04 1.063e-08
 72.39028    129.7 1.427e+04 1.082e-08
 72.40708    129.5 1.443e+04 1.372e-08
 72.41716    129.1 1.457e+04 1.438e-08
 72.43048    128.7 1.476e+04 1.784e-08
 72.45005    127.9 1.492e+04 1.927e-08
 72.46013    127.0 1.475e+04 1.751e-08
 72.47082    125.9 1.473e+04 1.730e-08
 72.49098    124.8 1.459e+04 1.596e-08
 72.51115    123.9 1.439e+04 1.393e-08
 72.52999    123.1 1.421e+04 1.290e-08
 72.54007    122.7 1.413e+04 1.279e-08
 72.55148    122.3 1.413e+04 1.299e-08
 72.57164    121.9 1.427e+04 1.377e-08
 72.59181    121.5 1.457e+04 1.471e-08
 72.62215    120.7 1.470e+04 1.393e-08
 72.66258    119.3 1.475e+04 1.227e-08
 72.69005    118.0 1.456e+04 8.682e-09
 72.71022    117.0 1.446e+04 8.047e-09
 72.74324    116.1 1.416e+04 5.324e-09
 72.78358    115.8 1.400e+04 3.605e-09
 72.82391    115.7 1.409e+04 2.487e-09
 72.84992    115.5 1.408e+04 1.743e-09
 72.87009    115.5 1.377e+04 1.642e-09
 72.90457    116.0 1.367e+04 1.637e-09
 72.94490    116.4 1.362e+04 1.700e-09
 72.98245    116.9 1.372e+04 1.885e-09
 73.00261    117.4 1.355e+04 1.814e-09
 73.00979    117.2 1.350e+04 2.270e-09
 73.02996    118.1 1.305e+04 2.425e-09
 73.05571    117.4 1.318e+04 3.047e-09
 73.07578    116.8 1.320e+04 4.042e-09
 73.08953    116.3 1.319e+04 5.388e-09
 73.09962    116.9 1.290e+04 4.866e-09
 73.11611    116.4 1.286e+04 5.810e-09
 73.13628    115.8 1.283e+04 6.052e-09
 73.15644    115.3 1.280e+04 5.838e-09
 73.16947    115.0 1.263e+04 5.239e-09
 73.17955    115.6 1.249e+04 5.290e-09
 73.19677    115.3 1.246e+04 4.710e-09
 73.21694    114.9 1.249e+04 3.982e-09
 73.23710    114.5 1.248e+04 3.350e-09
 73.24940    113.9 1.234e+04 2.880e-09
 73.25949    114.7 1.225e+04 3.520e-09
 73.27743    114.2 1.206e+04 3.036e-09
 73.29760    113.7 1.184e+04 2.687e-09
 73.31777    113.2 1.162e+04 2.617e-09
 73.32934    112.7 1.161e+04 2.673e-09
 73.33942    113.2 1.145e+04 2.721e-09
 73.35810    112.5 1.149e+04 2.931e-09
 73.37826    111.7 1.157e+04 3.810e-09
 73.39843    111.0 1.180e+04 5.260e-09
 73.40927    110.6 1.212e+04 6.126e-09
 73.41936    110.8 1.200e+04 6.414e-09
 73.43876    110.3 1.208e+04 6.359e-09
 73.45892    110.1 1.205e+04 5.653e-09
 73.47909    109.8 1.196e+04 4.117e-09
 73.49926    109.4 1.192e+04 3.100e-09
 73.51942    108.4 1.201e+04 2.248e-09
 73.54977    107.9 1.162e+04 2.252e-09
 73.59020    107.7 1.151e+04 2.434e-09
 73.62035    107.6 1.142e+04 3.258e-09
 73.63900    107.7 1.140e+04 4.147e-09
 73.64908    107.6 1.142e+04 4.679e-09
 73.66058    107.5 1.145e+04 5.959e-09
 73.68074    107.4 1.148e+04 6.830e-09
 73.71109    106.9 1.152e+04 8.099e-09
 73.75152    106.7 1.142e+04 7.961e-09
 73.78898    106.1 1.116e+04 6.909e-09
 73.80914    105.2 1.115e+04 6.906e-09
 73.83218    104.7 1.071e+04 5.189e-09
 73.87251    104.4 1.044e+04 4.783e-09
 73.91284    104.3 1.045e+04 5.011e-09
 73.94885    104.2 1.060e+04 6.143e-09
 73.96901    103.8 1.037e+04 5.701e-09
 73.99350    103.7 1.077e+04 8.055e-09
 74.03384    103.5 1.113e+04 1.072e-08
 74.07417    103.2 1.128e+04 1.179e-08
 74.10872    103.0 1.119e+04 1.140e-08
 74.12888    102.5 1.069e+04 8.843e-09
 74.15297    102.5 1.051e+04 7.911e-09
 74.17313    103.8 1.056e+04 7.814e-09
 74.19516    103.9 1.053e+04 7.222e-09
 74.22531    103.4 1.042e+04 6.567e-09
 74.24538    103.0 1.048e+04 6.692e-09
 74.26554    102.6 1.062e+04 7.155e-09
 74.27848    102.2 1.080e+04 7.970e-09
 74.28856    102.3 1.047e+04 6.435e-09
 74.30587    102.0 1.064e+04 7.160e-09
 74.32604    101.6 1.078e+04 7.791e-09
 74.34621    101.3 1.084e+04 8.040e-09
 74.35841    101.1 1.082e+04 7.795e-09
 74.36849    101.6 1.064e+04 7.147e-09
 74.38654    101.5 1.068e+04 7.075e-09
 74.40670    101.5 1.070e+04 6.719e-09
 74.42687    101.5 1.077e+04 6.467e-09
 74.43835    101.3 1.086e+04 6.576e-09
 74.44843    102.0 1.092e+04 7.420e-09
 74.46720    101.4 1.122e+04 7.994e-09
 74.48736     99.6 1.200e+04 1.074e-08
 74.50753     97.3 1.321e+04 2.019e-08
 74.51828     95.7 1.428e+04 4.023e-08
 74.52836     96.3 1.447e+04 4.231e-08
 74.54786     95.3 1.517e+04 6.465e-08
 74.56803     94.3 1.510e+04 6.335e-08
 74.58813     93.8 1.446e+04 4.800e-08
 74.60830     93.0 1.362e+04 2.979e-08
 74.62852     91.3 1.243e+04 1.598e-08
 74.64869     89.5 1.149e+04 1.055e-08
 74.66807     89.2 1.107e+04 8.945e-09
 74.67815     89.0 1.113e+04 9.475e-09
 74.68902     89.2 1.095e+04 8.743e-09
 74.70918     89.6 1.080e+04 7.969e-09
 74.72935     90.0 1.067e+04 7.158e-09
 74.74800     90.4 1.055e+04 6.416e-09
 74.75669     90.3 1.058e+04 6.620e-09
 74.75820     90.4 1.071e+04 7.236e-09
 74.76968     90.7 1.061e+04 6.611e-09
 74.78985     91.2 1.066e+04 6.501e-09
 74.81001     91.5 1.070e+04 6.550e-09
 74.82794     92.3 1.085e+04 6.857e-09
 74.83802     92.0 1.086e+04 7.016e-09
 74.85034     92.3 1.098e+04 7.333e-09
 74.88069     93.4 1.115e+04 8.506e-09
 74.90807     94.2 1.160e+04 1.060e-08
 74.92824     93.4 1.177e+04 1.256e-08
 74.95127     93.7 1.202e+04 1.388e-08
 74.97134     93.9 1.213e+04 1.468e-08
 74.98781     94.0 1.231e+04 1.566e-08
 74.99789     93.5 1.218e+04 1.554e-08
 75.01167     93.5 1.241e+04 1.625e-08
 75.03183     93.0 1.390e+04 2.107e-08
 75.05200     91.7 1.605e+04 3.616e-08
 75.06774     89.6 1.784e+04 7.299e-08
 75.07783     91.0 1.517e+04 2.156e-08
 75.09233     88.8 1.770e+04 4.045e-08
 75.11249     87.5 1.874e+04 8.392e-08
 75.12757     86.9 1.858e+04 6.738e-08
 75.13760     86.1 1.894e+04 8.777e-08
 75.14758     86.6 1.923e+04 1.024e-07
 75.15262     84.8 1.905e+04 5.039e-08
 75.15777     82.0 2.002e+04 8.461e-08
 75.16785     80.0 2.095e+04 1.762e-07
 75.17793     77.7 1.973e+04 9.374e-07
 75.18755     75.7 1.720e+04 7.302e-06
 75.19259     72.2 1.765e+04 4.788e-06
 75.19810     68.7 1.623e+04 2.035e-05
 75.20818     64.0 1.642e+04 1.849e-05
 75.21827     59.6 1.808e+04 5.291e-06
 75.22752     56.2 1.966e+04 1.157e-06
 75.23256     55.8 1.915e+04 1.127e-06
 75.23843     55.2 1.881e+04 4.929e-07
 75.24851     55.3 1.911e+04 2.036e-07
 75.25860     54.5 1.863e+04 1.172e-07
 75.27377     55.7 1.798e+04 7.057e-08
 75.29398     52.1 1.654e+04 3.224e-08
 75.30755     47.7 1.392e+04 2.617e-08
 75.31763     52.2 1.610e+04 3.476e-08
 75.33337     48.3 1.377e+04 3.108e-08
 75.34346     47.3 1.379e+04 3.511e-08
 75.35448     46.4 1.342e+04 3.694e-08
 75.37465     45.5 1.329e+04 3.296e-08
 75.38748     41.8 1.418e+04 2.617e-08
 75.39757     44.8 1.407e+04 3.099e-08
 75.41498     36.5 1.566e+04 3.136e-08
 75.43514     27.9 1.596e+04 5.734e-08
 75.45531     23.4 1.673e+04 8.335e-08
 75.46742     18.7 1.585e+04 7.165e-08
 75.47750     21.0 1.658e+04 9.144e-08
 75.49055     16.8 1.443e+04 4.084e-08
 75.50058     16.4 1.414e+04 3.463e-08
 75.51576     12.9 1.251e+04 1.650e-08
 75.53597      7.3 1.059e+04 5.833e-09
 75.54736      3.8 9.862e+03 3.965e-09
 75.55744      4.3 9.930e+03 4.288e-09
 75.57630      2.7 9.737e+03 3.898e-09
 75.59647      1.3 9.714e+03 3.872e-09
 75.61663      0.0 9.733e+03 4.257e-09
 75.62729     -1.1 9.773e+03 4.793e-09
 75.63737     -0.4 9.809e+03 4.842e-09
 75.65696     -1.4 9.834e+03 5.289e-09
 75.67713     -2.5 9.821e+03 5.480e-09
 75.69714     -3.4 9.663e+03 5.435e-09
 75.70723     -2.8 9.827e+03 5.864e-09
 75.71746     -3.7 9.594e+03 5.630e-09
 75.73762     -4.5 9.341e+03 4.966e-09
 75.75779     -5.4 9.075e+03 4.189e-09
 75.77708     -6.0 8.836e+03 3.523e-09
 75.78716     -5.5 9.018e+03 4.235e-09
 75.80830     -6.3 8.680e+03 3.116e-09
 75.84713     -6.9 8.361e+03 2.474e-09
 75.86729     -6.1 8.480e+03 2.715e-09
 75.88906     -6.9 8.089e+03 2.054e-09
 75.92939     -7.5 7.954e+03 1.894e-09
 75.96972     -7.8 8.017e+03 2.116e-09
 76.00700     -8.1 8.334e+03 2.793e-09
 76.02716     -8.1 8.596e+03 3.332e-09
 76.05038     -8.5 8.733e+03 3.595e-09
 76.09072     -9.1 8.702e+03 3.253e-09
 76.13105     -9.4 8.461e+03 2.670e-09
 76.16687     -9.3 8.211e+03 2.070e-09
 76.18703     -9.8 8.133e+03 1.854e-09
 76.21171     -8.7 7.888e+03 1.469e-09
 76.25204     -7.4 7.843e+03 1.334e-09
 76.29237     -5.9 7.848e+03 1.315e-09
 76.32674     -4.8 8.030e+03 1.474e-09
 76.34690     -4.8 8.188e+03 1.686e-09
 76.37303     -4.0 9.016e+03 3.117e-09
 76.41336     -3.6 1.024e+04 6.724e-09
 76.45369     -3.4 1.138e+04 1.322e-08
 76.48385     -2.6 1.217e+04 1.944e-08
 76.49649     -3.0 1.269e+04 2.487e-08
 76.50656     -2.9 1.287e+04 2.678e-08
 76.52406     -2.3 1.354e+04 3.579e-08
 76.54424     -2.4 1.403e+04 4.376e-08
 76.56441     -2.4 1.414e+04 4.530e-08
 76.57643     -2.5 1.391e+04 3.832e-08
 76.58651     -2.0 1.391e+04 3.968e-08
 76.60474     -1.9 1.342e+04 2.927e-08
 76.62491     -2.2 1.279e+04 2.035e-08
 76.64507     -2.7 1.213e+04 1.503e-08
 76.65636     -3.0 1.160e+04 1.236e-08
 76.66645     -2.3 1.208e+04 1.541e-08
 76.68540     -2.3 1.182e+04 1.402e-08
 76.70557     -2.2 1.177e+04 1.359e-08
 76.72573     -2.5 1.227e+04 1.516e-08
 76.73630     -4.7 1.401e+04 2.306e-08
 76.74638     -3.3 1.385e+04 2.264e-08
 76.76606     -6.6 1.630e+04 4.777e-08
 76.78623     -9.0 1.770e+04 1.217e-07
 76.80131    -10.2 1.849e+04 2.449e-07
 76.80651    -10.8 1.872e+04 3.096e-07
 76.81131    -10.2 1.868e+04 2.736e-07
 76.81614    -10.1 1.880e+04 2.787e-07
 76.82142    -10.7 1.910e+04 3.463e-07
 76.83150    -11.9 1.912e+04 3.566e-07
 76.84159    -12.8 1.887e+04 3.031e-07
 76.85106    -13.7 1.836e+04 2.016e-07
 76.85610    -14.0 1.836e+04 2.000e-07
 76.86684    -15.6 1.733e+04 1.113e-07
 76.88609    -17.5 1.572e+04 5.469e-08
 76.89617    -17.4 1.572e+04 5.424e-08
 76.90722    -20.1 1.376e+04 2.899e-08
 76.92739    -20.9 1.284e+04 2.270e-08
 76.94755    -21.1 1.227e+04 1.814e-08
 76.96602    -21.1 1.177e+04 1.462e-08
 76.97610    -20.9 1.191e+04 1.547e-08
 76.98788    -20.9 1.147e+04 1.253e-08
 77.00805    -21.0 1.106e+04 1.012e-08
 77.02822    -21.0 1.071e+04 8.344e-09
 77.04596    -21.0 1.053e+04 7.356e-09
 77.05604    -21.1 1.076e+04 8.126e-09
 77.06855    -21.2 1.073e+04 7.926e-09
 77.08871    -21.4 1.085e+04 7.923e-09
 77.09924    -21.9 1.137e+04 8.836e-09
 77.10932    -20.3 1.083e+04 8.146e-09
 77.12589    -20.7 1.115e+04 8.389e-09
 77.13597    -21.8 1.185e+04 1.045e-08
 77.14921    -22.7 1.255e+04 1.464e-08
 77.16937    -23.4 1.321e+04 2.219e-08
 77.18954    -23.7 1.375e+04 3.201e-08
 77.20583    -23.7 1.404e+04 3.928e-08
 77.21586    -24.2 1.449e+04 4.679e-08
 77.22473    -24.2 1.458e+04 4.903e-08
 77.23481    -24.2 1.458e+04 4.897e-08
 77.24999    -24.4 1.444e+04 4.619e-08
 77.27020    -24.5 1.370e+04 3.318e-08
 77.28576    -24.8 1.288e+04 2.350e-08
 77.29584    -25.8 1.284e+04 2.311e-08
 77.31053    -26.0 1.214e+04 1.706e-08
 77.33070    -25.7 1.161e+04 1.336e-08
 77.35086    -25.2 1.123e+04 1.101e-08
 77.36570    -24.4 1.092e+04 9.234e-09
 77.37578    -24.8 1.096e+04 9.365e-09
 77.39119    -23.9 1.070e+04 7.933e-09
 77.41136    -23.0 1.047e+04 6.684e-09
 77.43153    -22.2 1.026e+04 5.627e-09
 77.44563    -21.3 1.007e+04 4.788e-09
 77.45571    -21.4 1.019e+04 5.160e-09
 77.47186    -20.6 1.007e+04 4.598e-09
 77.49202    -19.7 9.981e+03 4.252e-09
 77.51219    -18.7 9.967e+03 4.123e-09
 77.52557    -17.9 9.979e+03 4.095e-09
 77.53565    -18.0 1.021e+04 4.959e-09
 77.55252    -17.3 1.030e+04 5.285e-09
 77.57268    -16.6 1.043e+04 5.854e-09
 77.59285    -16.0 1.059e+04 6.646e-09
 77.60550    -15.5 1.077e+04 7.488e-09
 77.61558    -15.6 1.105e+04 8.915e-09
 77.63318    -15.1 1.116e+04 9.294e-09
 77.65335    -14.6 1.130e+04 9.071e-09
 77.67351    -14.4 1.129e+04 7.985e-09
 77.68450    -14.3 1.116e+04 7.005e-09
 77.68634    -14.2 1.121e+04 7.074e-09
 77.69552    -14.6 1.125e+04 6.915e-09
 77.71384    -14.5 1.113e+04 6.061e-09
 77.73401    -14.3 1.105e+04 5.586e-09
 77.75417    -13.9 1.104e+04 5.419e-09
 77.76537    -13.6 1.105e+04 5.400e-09
 77.77545    -13.8 1.114e+04 5.490e-09
 77.79450    -13.7 1.135e+04 5.799e-09
 77.81467    -13.6 1.152e+04 6.710e-09
 77.83484    -13.6 1.173e+04 8.148e-09
 77.84531    -13.8 1.201e+04 1.006e-08
 77.85539    -13.7 1.194e+04 1.022e-08
 77.87517    -13.8 1.216e+04 1.181e-08
 77.89533    -14.1 1.234e+04 1.323e-08
 77.91516    -14.4 1.245e+04 1.419e-08
 77.92524    -14.0 1.223e+04 1.273e-08
 77.93566    -14.1 1.230e+04 1.315e-08
 77.95583    -14.3 1.241e+04 1.373e-08
 77.97599    -16.1 1.367e+04 1.602e-08
 77.99509    -20.7 1.671e+04 3.117e-08
 78.00518    -19.1 1.722e+04 2.406e-08
 78.01123    -25.0 1.887e+04 8.048e-08
 78.02127    -26.5 1.940e+04 1.032e-07
 78.03135    -30.5 1.937e+04 2.680e-07
 78.04001    -32.8 1.890e+04 4.470e-07
 78.04505    -32.8 1.874e+04 7.704e-07
 78.05152    -34.6 1.843e+04 1.074e-06
 78.06160    -36.5 1.840e+04 1.130e-06
 78.07168    -39.3 1.898e+04 5.648e-07
 78.07997    -45.0 1.960e+04 1.745e-07
 78.08501    -46.4 1.985e+04 2.391e-07
 78.09185    -55.2 1.796e+04 6.135e-08
 78.10193    -61.4 1.530e+04 3.533e-08
 78.11201    -63.5 1.462e+04 3.035e-08
 78.11994    -64.6 1.462e+04 2.909e-08
 78.12498    -66.4 1.465e+04 2.933e-08
 78.13727    -66.5 1.461e+04 2.766e-08
 78.15496    -69.4 1.432e+04 2.620e-08
 78.16505    -73.0 1.471e+04 2.839e-08
 78.17765    -76.9 1.429e+04 2.823e-08
 78.19781    -79.2 1.419e+04 2.874e-08
 78.21798    -81.0 1.443e+04 3.096e-08
 78.23305    -83.1 1.496e+04 3.562e-08
 78.23984    -84.6 1.542e+04 4.020e-08
 78.24489    -86.3 1.617e+04 5.122e-08
 78.25317    -87.7 1.647e+04 6.249e-08
 78.26325    -88.8 1.657e+04 7.343e-08
 78.26966    -89.6 1.648e+04 8.135e-08
 78.27470    -91.1 1.682e+04 9.956e-08
 78.27981    -91.5 1.652e+04 9.172e-08
 78.28485    -92.1 1.657e+04 9.511e-08
 78.29859    -92.0 1.619e+04 8.169e-08
 78.31484    -91.6 1.533e+04 5.858e-08
 78.32492    -92.9 1.524e+04 5.331e-08
 78.33897    -92.4 1.398e+04 3.162e-08
 78.35914    -92.0 1.275e+04 1.880e-08
 78.37930    -91.7 1.173e+04 1.220e-08
 78.39477    -91.3 1.097e+04 9.068e-09
 78.40485    -92.3 1.040e+04 7.722e-09
 78.41963    -90.9 1.004e+04 7.030e-09
 78.43980    -89.3 9.871e+03 6.740e-09
 78.45997    -87.8 9.802e+03 6.613e-09
 78.47471    -86.2 9.766e+03 6.550e-09
 78.48479    -86.2 9.768e+03 6.604e-09
 78.50030    -84.5 9.760e+03 6.650e-09
 78.52046    -82.7 9.809e+03 6.971e-09
 78.54063    -81.0 9.933e+03 7.481e-09
 78.55464    -79.3 1.008e+04 8.195e-09
 78.56472    -79.1 1.030e+04 9.029e-09
 78.58096    -77.3 1.049e+04 1.001e-08
 78.60112    -75.6 1.070e+04 1.110e-08
 78.62129    -74.0 1.092e+04 1.230e-08
 78.63458    -72.4 1.122e+04 1.377e-08
 78.64466    -72.3 1.120e+04 1.375e-08
 78.66162    -70.8 1.147e+04 1.485e-08
 78.68179    -69.6 1.188e+04 1.649e-08
 78.70195    -68.6 1.244e+04 1.924e-08
 78.71451    -67.9 1.308e+04 2.373e-08
 78.72459    -67.8 1.235e+04 1.866e-08
 78.74228    -67.1 1.292e+04 2.285e-08
 78.76245    -66.3 1.350e+04 2.886e-08
 78.78261    -65.5 1.398e+04 3.541e-08
 78.79445    -65.0 1.430e+04 4.024e-08
 78.80453    -65.5 1.354e+04 3.075e-08
 78.82294    -65.8 1.421e+04 3.491e-08
 78.84311    -67.0 1.494e+04 4.149e-08
 78.85497    -68.3 1.553e+04 4.790e-08
 78.85996    -67.2 1.646e+04 6.365e-08
 78.86822    -69.5 1.725e+04 6.906e-08
 78.87428    -72.6 1.821e+04 8.500e-08
 78.87932    -77.1 1.927e+04 1.311e-07
 78.88838    -80.0 1.932e+04 1.756e-07
 78.89847    -82.6 1.986e+04 2.365e-07
 78.90855    -85.7 2.171e+04 3.440e-07
 78.91425    -90.3 2.399e+04 5.827e-07
 78.91929    -98.0 2.310e+04 1.426e-06
 78.92872   -102.9 2.132e+04 2.463e-06
 78.93880   -106.8 1.953e+04 3.475e-06
 78.94888   -109.3 1.824e+04 4.678e-06
 78.95422   -110.3 1.757e+04 5.855e-06
 78.95926   -112.2 1.798e+04 4.236e-06
 78.96905   -112.2 1.810e+04 4.379e-06
 78.97913   -113.2 1.858e+04 3.990e-06
 78.98914   -117.7 2.028e+04 1.883e-06
 78.99419   -119.2 2.212e+04 8.206e-07
 78.99929   -126.1 2.357e+04 1.560e-07
 79.00938   -134.2 1.854e+04 2.665e-08
 79.01946   -138.9 1.246e+04 1.301e-08
 79.02911   -139.7 1.074e+04 1.061e-08
 79.03415   -139.3 1.049e+04 1.002e-08
 79.04472   -139.0 1.018e+04 8.664e-09
 79.06493   -138.3 9.814e+03 7.325e-09
 79.08510   -136.6 9.397e+03 6.113e-09
 79.10410   -134.9 9.177e+03 5.437e-09
 79.11419   -134.2 9.127e+03 5.384e-09
 79.12543   -132.7 9.053e+03 5.050e-09
 79.14559   -131.2 8.990e+03 4.840e-09
 79.16576   -129.5 8.963e+03 4.756e-09
 79.18404   -127.8 8.958e+03 4.743e-09
 79.19412   -127.4 9.023e+03 4.964e-09
 79.20609   -126.0 9.073e+03 4.979e-09
 79.22625   -124.7 9.274e+03 5.248e-09
 79.24642   -123.6 9.489e+03 5.957e-09
 79.26397   -122.4 9.768e+03 7.095e-09
 79.27406   -122.2 9.906e+03 7.636e-09
 79.28675   -121.1 1.027e+04 9.326e-09
 79.30692   -120.2 1.069e+04 1.148e-08
 79.32708   -119.3 1.111e+04 1.399e-08
 79.34391   -118.5 1.152e+04 1.668e-08
 79.35399   -118.6 1.173e+04 1.813e-08
 79.36741   -117.8 1.210e+04 2.098e-08
 79.38758   -117.1 1.238e+04 2.308e-08
 79.40774   -116.5 1.251e+04 2.404e-08
 79.42384   -115.9 1.253e+04 2.421e-08
 79.43393   -115.9 1.278e+04 2.687e-08
 79.44027   -115.4 1.268e+04 2.606e-08
 79.45036   -115.8 1.146e+04 1.564e-08
 79.46824   -115.2 1.143e+04 1.543e-08
 79.48841   -114.6 1.142e+04 1.542e-08
 79.50378   -113.9 1.146e+04 1.548e-08
 79.51386   -114.0 1.144e+04 1.544e-08
 79.52874   -113.3 1.151e+04 1.569e-08
 79.54890   -112.6 1.162e+04 1.625e-08
 79.56907   -112.0 1.179e+04 1.732e-08
 79.58371   -111.4 1.204e+04 1.915e-08
 79.59380   -111.5 1.196e+04 1.876e-08
 79.60940   -111.0 1.225e+04 2.102e-08
 79.62956   -110.5 1.255e+04 2.333e-08
 79.64973   -110.0 1.281e+04 2.470e-08
 79.66365   -109.7 1.289e+04 2.502e-08
 79.67373   -109.6 1.245e+04 2.077e-08
 79.69006   -109.2 1.245e+04 1.972e-08
 79.71023   -108.7 1.234e+04 1.744e-08
 79.73039   -108.2 1.211e+04 1.455e-08
 79.74358   -107.6 1.185e+04 1.173e-08
 79.75367   -107.4 1.161e+04 1.020e-08
 79.77072   -107.0 1.149e+04 8.484e-09
 79.80107   -106.6 1.124e+04 7.006e-09
 79.82371   -104.6 1.101e+04 5.696e-09
 79.84388   -102.1 1.051e+04 3.595e-09
 79.88183    -99.7 1.051e+04 3.486e-09
 79.92216    -97.1 1.061e+04 3.677e-09
 79.95231    -94.4 1.065e+04 3.567e-09
 79.97238    -93.1 1.069e+04 3.709e-09
 79.98339    -91.7 1.070e+04 3.739e-09
 80.00365    -90.6 1.062e+04 3.651e-09
 80.02573    -87.5 1.069e+04 4.150e-09
 80.04589    -86.0 1.024e+04 2.609e-09
 80.08348    -82.6 1.014e+04 2.666e-09
 80.12329    -79.0 1.005e+04 2.819e-09
 80.14345    -77.8 1.002e+04 2.806e-09
 80.16414    -74.6 1.006e+04 3.104e-09
 80.20448    -71.0 1.015e+04 3.521e-09
 80.23463    -68.5 1.029e+04 4.234e-09
 80.25469    -66.6 1.030e+04 4.524e-09
 80.27486    -65.0 1.030e+04 4.765e-09
 80.29305    -63.2 1.030e+04 4.932e-09
 80.30313    -62.7 1.037e+04 5.173e-09
 80.32537    -60.3 1.041e+04 5.469e-09
 80.36580    -56.1 1.039e+04 5.874e-09
 80.40613    -52.5 1.040e+04 5.938e-09
 80.44303    -48.7 1.038e+04 6.101e-09
 80.46320    -48.2 1.057e+04 6.895e-09
 80.48679    -44.6 1.084e+04 7.823e-09
 80.52712    -41.4 1.138e+04 9.766e-09
 80.56745    -38.4 1.209e+04 1.309e-08
 80.59760    -37.3 1.243e+04 1.573e-08
 80.61079    -36.3 1.272e+04 1.654e-08
 80.61599    -34.2 1.281e+04 1.989e-08
 80.62287    -34.2 1.280e+04 2.001e-08
 80.63784    -33.0 1.324e+04 2.295e-08
 80.65800    -32.3 1.370e+04 2.474e-08
 80.67817    -32.0 1.409e+04 2.520e-08
 80.69272    -31.9 1.431e+04 2.457e-08
 80.70281    -32.1 1.458e+04 2.839e-08
 80.71850    -32.6 1.462e+04 2.732e-08
 80.73867    -33.1 1.410e+04 2.504e-08
 80.75883    -33.6 1.349e+04 2.182e-08
 80.77266    -34.1 1.283e+04 1.772e-08
 80.78274    -34.5 1.298e+04 1.923e-08
 80.79916    -34.8 1.222e+04 1.374e-08
 80.81933    -34.8 1.156e+04 1.025e-08
 80.83949    -34.6 1.123e+04 8.648e-09
 80.85259    -34.3 1.116e+04 8.226e-09
 80.86268    -34.3 1.071e+04 6.583e-09
 80.87982    -34.0 1.070e+04 6.433e-09
 80.89999    -34.3 1.141e+04 8.022e-09
 80.92015    -35.2 1.307e+04 1.641e-08
 80.93253    -35.7 1.470e+04 3.757e-08
 80.94261    -34.8 1.313e+04 1.844e-08
 80.96049    -34.8 1.492e+04 4.134e-08
 80.98065    -34.9 1.652e+04 7.736e-08
 81.00082    -36.6 1.783e+04 1.197e-07
 81.01241    -38.5 1.824e+04 1.294e-07
 81.02250    -38.6 1.814e+04 1.046e-07
 81.03606    -41.0 1.879e+04 1.543e-07
 81.04609    -42.5 1.911e+04 1.856e-07
 81.05233    -43.9 1.940e+04 2.185e-07
 81.05737    -43.7 1.938e+04 1.977e-07
 81.06626    -45.0 1.963e+04 2.433e-07
 81.07634    -46.1 1.977e+04 2.823e-07
 81.08642    -47.0 1.976e+04 3.062e-07
 81.09230    -47.7 1.968e+04 3.110e-07
 81.09734    -47.5 1.970e+04 3.054e-07
 81.10659    -48.1 1.931e+04 2.902e-07
 81.11667    -48.2 1.890e+04 2.454e-07
 81.12675    -48.3 1.847e+04 2.026e-07
 81.14193    -48.4 1.793e+04 1.646e-07
 81.16214    -47.7 1.705e+04 1.147e-07
 81.17233    -46.8 1.576e+04 6.922e-08
 81.18242    -46.6 1.543e+04 5.730e-08
 81.19605    -45.7 1.432e+04 3.721e-08
 81.20614    -46.0 1.428e+04 3.703e-08
 81.22264    -44.6 1.338e+04 2.664e-08
 81.24219    -43.2 1.282e+04 2.091e-08
 81.25227    -42.9 1.263e+04 1.889e-08
 81.26297    -41.6 1.232e+04 1.606e-08
 81.28313    -40.1 1.204e+04 1.412e-08
 81.30330    -38.3 1.184e+04 1.285e-08
 81.32212    -36.4 1.182e+04 1.226e-08
 81.33220    -36.3 1.168e+04 1.099e-08
 81.34363    -34.5 1.171e+04 1.090e-08
 81.36380    -33.0 1.178e+04 1.088e-08
 81.38396    -31.7 1.185e+04 1.091e-08
 81.40206    -30.6 1.197e+04 1.144e-08
 81.41214    -30.7 1.179e+04 1.077e-08
 81.42429    -29.7 1.187e+04 1.164e-08
 81.44446    -28.7 1.202e+04 1.279e-08
 81.46462    -27.8 1.216e+04 1.357e-08
 81.48199    -27.0 1.226e+04 1.400e-08
 81.49207    -26.7 1.172e+04 1.151e-08
 81.50495    -25.8 1.171e+04 1.121e-08
 81.52512    -24.8 1.161e+04 1.058e-08
 81.54529    -23.7 1.146e+04 9.738e-09
 81.56193    -22.7 1.128e+04 8.852e-09
 81.57201    -22.4 1.083e+04 6.958e-09
 81.58562    -21.2 1.071e+04 6.459e-09
 81.61596    -19.2 1.057e+04 5.780e-09
 81.65639    -15.1 1.053e+04 5.588e-09
 81.68654    -12.4 1.045e+04 4.979e-09
 81.70661    -11.2 1.039e+04 4.738e-09
 81.72180     -9.6 1.040e+04 4.680e-09
 81.73188     -9.4 1.026e+04 3.923e-09
 81.74694     -8.2 1.034e+04 4.213e-09
 81.76711     -6.8 1.046e+04 4.672e-09
 81.78131     -5.6 1.055e+04 5.162e-09
 81.79140     -5.8 1.028e+04 5.305e-09
 81.80173     -4.4 1.032e+04 5.651e-09
 81.81181     -4.2 1.032e+04 5.715e-09
 81.82760     -2.8 1.041e+04 6.052e-09
 81.84777     -1.5 1.049e+04 6.293e-09
 81.86793     -0.3 1.053e+04 6.391e-09
 81.88167      1.0 1.057e+04 6.501e-09
 81.89175      0.8 1.063e+04 6.770e-09
 81.90826      2.0 1.073e+04 6.909e-09
 81.92843      2.9 1.081e+04 6.968e-09
 81.94859      3.9 1.084e+04 6.956e-09
 81.96160      4.8 1.090e+04 6.971e-09
 81.97168      4.2 1.095e+04 7.202e-09
 81.98893      4.9 1.096e+04 7.162e-09
 82.00909      5.8 1.093e+04 7.077e-09
 82.02926      6.7 1.092e+04 6.994e-09
 82.04154      7.7 1.087e+04 6.783e-09
 82.05162      6.9 1.086e+04 6.970e-09
 82.06959      8.1 1.080e+04 6.396e-09
 82.08975      9.1 1.080e+04 5.905e-09
 82.10992      9.7 1.087e+04 5.624e-09
 82.14026     10.9 1.116e+04 5.421e-09
 82.17051     10.0 1.206e+04 5.523e-09
 82.19058     10.3 1.291e+04 5.705e-09
 82.20141     10.4 1.405e+04 6.771e-09
 82.21149      9.9 1.363e+04 6.455e-09
 82.23091      9.2 1.417e+04 1.004e-08
 82.25108      8.7 1.438e+04 1.807e-08
 82.27124      8.3 1.463e+04 3.136e-08
 82.29141      8.7 1.533e+04 5.815e-08
 82.31157      9.0 1.616e+04 8.087e-08
 82.33174      9.0 1.648e+04 8.578e-08
 82.34681      8.7 1.653e+04 8.313e-08
 82.35614      8.8 1.653e+04 6.815e-08
 82.36118      9.1 1.665e+04 7.002e-08
 82.36647      8.5 1.572e+04 4.701e-08
 82.37661      6.7 1.481e+04 2.595e-08
 82.39224      6.2 1.420e+04 1.355e-08
 82.41240      5.6 1.361e+04 7.721e-09
 82.43113      5.5 1.319e+04 5.967e-09
 82.44121      5.6 1.296e+04 5.649e-09
 82.45273      6.1 1.267e+04 5.276e-09
 82.47290      6.9 1.254e+04 5.145e-09
 82.49306      7.8 1.249e+04 5.028e-09
 82.51106      8.7 1.243e+04 4.924e-09
 82.52115      9.1 1.234e+04 5.155e-09
 82.53339     10.0 1.230e+04 4.989e-09
 82.55356     10.9 1.224e+04 4.776e-09
 82.57372     11.7 1.219e+04 4.633e-09
 82.59100     12.7 1.211e+04 4.583e-09
 82.60108     13.2 1.204e+04 4.646e-09
 82.61406     14.4 1.202e+04 4.623e-09
 82.63422     15.3 1.201e+04 4.545e-09
 82.65439     16.2 1.236e+04 4.915e-09
 82.67093     16.7 1.259e+04 5.487e-09
 82.68111     16.9 1.189e+04 4.612e-09
 82.69482     18.4 1.257e+04 6.762e-09
 82.71488     19.0 1.277e+04 8.216e-09
 82.73505     19.9 1.327e+04 1.262e-08
 82.75087     20.5 1.356e+04 1.690e-08
 82.76095     21.3 1.295e+04 1.006e-08
 82.77538     22.4 1.330e+04 1.279e-08
 82.79555     22.9 1.342e+04 1.404e-08
 82.81571     23.7 1.353e+04 1.490e-08
 82.83080     24.1 1.356e+04 1.490e-08
 82.84089     25.2 1.338e+04 1.239e-08
 82.85604     25.5 1.382e+04 1.363e-08
 82.87621     25.2 1.412e+04 1.618e-08
 82.89637     25.3 1.422e+04 2.242e-08
 82.91074     26.0 1.452e+04 3.026e-08
 82.92082     26.2 1.475e+04 3.145e-08
 82.93670     26.9 1.506e+04 3.809e-08
 82.95183     27.4 1.518e+04 4.015e-08
 82.96191     25.6 1.472e+04 3.282e-08
 82.97703     26.1 1.449e+04 2.910e-08
 82.99067     26.4 1.435e+04 2.544e-08
 83.00076     26.3 1.401e+04 2.367e-08
 83.01737     26.8 1.397e+04 2.074e-08
 83.03753     27.7 1.407e+04 2.020e-08
 83.05770     28.7 1.400e+04 1.970e-08
 83.07061     29.4 1.402e+04 1.964e-08
 83.08069     29.2 1.339e+04 1.366e-08
 83.09803     29.9 1.350e+04 1.434e-08
 83.11819     30.4 1.360e+04 1.601e-08
 83.13836     31.0 1.379e+04 2.046e-08
 83.15054     32.1 1.395e+04 2.650e-08
 83.16063     32.1 1.346e+04 1.869e-08
 83.17869     33.5 1.365e+04 2.267e-08
 83.19886     34.8 1.380e+04 2.526e-08
 83.21902     35.9 1.369e+04 2.548e-08
 83.23048     36.7 1.363e+04 2.377e-08
 83.24056     36.9 1.306e+04 1.670e-08
 83.25935     37.7 1.312e+04 1.719e-08
 83.27952     38.5 1.321e+04 1.789e-08
 83.29968     38.9 1.361e+04 2.081e-08
 83.31041     39.0 1.413e+04 2.897e-08
 83.32050     39.1 1.381e+04 2.177e-08
 83.34001     39.6 1.445e+04 3.784e-08
 83.36018     40.5 1.512e+04 5.590e-08
 83.38027     41.8 1.531e+04 6.781e-08
 83.40043     42.8 1.509e+04 5.143e-08
 83.42068     43.2 1.458e+04 3.843e-08
 83.44084     43.5 1.411e+04 2.780e-08
 83.46020     43.5 1.343e+04 1.651e-08
 83.47029     43.9 1.332e+04 1.871e-08
 83.48117     43.7 1.268e+04 1.330e-08
 83.50134     44.8 1.179e+04 1.148e-08
 83.52150     46.3 1.205e+04 7.801e-09
 83.53709     46.3 1.243e+04 6.011e-09
 83.54564     47.1 1.235e+04 5.871e-09
 83.55022     47.6 1.230e+04 6.409e-09
 83.56183     48.1 1.167e+04 7.855e-09
 83.58200     49.8 1.154e+04 6.468e-09
 83.60216     50.7 1.167e+04 5.727e-09
 83.62007     51.9 1.159e+04 5.376e-09
 83.63016     52.2 1.164e+04 5.938e-09
 83.64250     53.4 1.156e+04 5.477e-09
 83.66266     54.3 1.163e+04 4.804e-09
 83.68283     55.2 1.173e+04 4.848e-09
 83.70001     56.0 1.184e+04 5.246e-09
 83.71009     56.2 1.183e+04 6.034e-09
 83.72316     57.4 1.188e+04 6.386e-09
 83.74332     58.6 1.193e+04 6.808e-09
 83.76349     59.8 1.206e+04 7.469e-09
 83.77994     61.0 1.205e+04 8.001e-09
 83.79003     61.0 1.207e+04 8.023e-09
 83.80382     62.0 1.207e+04 8.395e-09
 83.82399     63.0 1.207e+04 9.005e-09
 83.84415     64.0 1.206e+04 9.145e-09
 83.85988     65.0 1.204e+04 8.855e-09
 83.86996     64.7 1.196e+04 8.058e-09
 83.88448     65.5 1.181e+04 7.613e-09
 83.90465     66.4 1.164e+04 7.309e-09
 83.92481     67.4 1.156e+04 7.043e-09
 83.93981     68.5 1.150e+04 6.750e-09
 83.94990     68.3 1.149e+04 6.826e-09
 83.96514     69.4 1.151e+04 6.604e-09
 83.98531     70.3 1.164e+04 6.631e-09
 84.00547     70.7 1.191e+04 7.258e-09
 84.01975     70.7 1.234e+04 9.053e-09
 84.02983     71.1 1.186e+04 6.821e-09
 84.04581     71.5 1.215e+04 8.015e-09
 84.06597     71.8 1.252e+04 1.078e-08
 84.08614     72.3 1.277e+04 1.485e-08
 84.09968     72.9 1.287e+04 1.869e-08
 84.10977     72.9 1.240e+04 1.333e-08
 84.12235     73.5 1.261e+04 1.858e-08
 84.13243     72.5 1.228e+04 1.723e-08
 84.14663     73.8 1.246e+04 2.147e-08
 84.16680     75.0 1.259e+04 2.413e-08
 84.17962     76.2 1.255e+04 2.333e-08
 84.18970     76.7 1.281e+04 2.696e-08
 84.20713     77.9 1.268e+04 2.530e-08
 84.22730     79.1 1.236e+04 2.098e-08
 84.24746     80.4 1.192e+04 1.619e-08
 84.25955     81.6 1.157e+04 1.238e-08
 84.26964     82.0 1.174e+04 1.376e-08
 84.28779     82.9 1.147e+04 1.071e-08
 84.30796     83.8 1.125e+04 8.802e-09
 84.32812     84.8 1.106e+04 8.104e-09
 84.33949     86.0 1.099e+04 8.026e-09
 84.34957     86.3 1.098e+04 7.920e-09
 84.36845     87.6 1.097e+04 8.043e-09
 84.38862     89.0 1.099e+04 8.274e-09
 84.40878     90.3 1.100e+04 8.470e-09
 84.41942     91.6 1.099e+04 8.452e-09
 84.42951     92.2 1.086e+04 7.665e-09
 84.44912     93.6 1.081e+04 7.599e-09
 84.46928     95.1 1.073e+04 7.391e-09
 84.48928     96.5 1.060e+04 6.918e-09
 84.49936     97.3 1.054e+04 6.398e-09
 84.50961     98.8 1.044e+04 5.971e-09
 84.52978    100.3 1.032e+04 5.427e-09
 84.54994    101.8 1.018e+04 4.839e-09
 84.56921    103.2 1.006e+04 4.283e-09
 84.57929    104.4 1.013e+04 4.511e-09
 84.59027    105.7 1.004e+04 4.102e-09
 84.61044    106.9 9.984e+03 3.860e-09
 84.63060    108.0 9.980e+03 3.845e-09
 84.64915    109.2 1.000e+04 3.902e-09
 84.65923    110.8 1.013e+04 4.288e-09
 84.67094    111.8 1.019e+04 4.470e-09
 84.69110    112.0 1.046e+04 5.050e-09
 84.70761    110.4 1.162e+04 7.260e-09
 84.71769    110.7 1.190e+04 7.212e-09
 84.72908    104.7 1.527e+04 2.254e-08
 84.73916    109.6 1.497e+04 1.603e-08
 84.74651    106.1 1.564e+04 2.779e-08
 84.75654    103.5 1.642e+04 4.800e-08
 84.76662    101.7 1.667e+04 7.412e-08
 84.77399    100.7 1.633e+04 8.485e-08
 84.77903    102.3 1.648e+04 9.359e-08
 84.78679    101.4 1.648e+04 9.049e-08
 84.79687    100.3 1.630e+04 7.916e-08
 84.80696     97.6 1.642e+04 5.964e-08
 84.81396     95.0 1.617e+04 4.340e-08
 84.81900     96.8 1.667e+04 5.709e-08
 84.82712     92.3 1.664e+04 4.500e-08
 84.83720     89.5 1.583e+04 3.754e-08
 84.84729     85.6 1.530e+04 3.878e-08
 84.85393     84.4 1.479e+04 3.781e-08
 84.85897     85.1 1.527e+04 4.427e-08
 84.86745     82.7 1.524e+04 4.748e-08
 84.87753     81.7 1.498e+04 4.764e-08
 84.88762     80.2 1.506e+04 5.150e-08
 84.89389     79.8 1.498e+04 5.327e-08
 84.89894     80.3 1.552e+04 6.236e-08
 84.90778     79.9 1.533e+04 5.767e-08
 84.91787     79.4 1.515e+04 5.448e-08
 84.92795     79.6 1.447e+04 4.346e-08
 84.93386     79.4 1.434e+04 4.188e-08
 84.93890     79.8 1.469e+04 4.466e-08
 84.95320     80.6 1.380e+04 3.203e-08
 84.96889     81.8 1.269e+04 2.045e-08
 84.97897     82.7 1.342e+04 2.405e-08
 84.99358     83.1 1.205e+04 1.427e-08
 85.01375     82.5 1.064e+04 8.883e-09
 85.03391     82.2 9.606e+03 6.401e-09
 85.04882     82.8 9.558e+03 5.912e-09
 85.05890     85.1 1.028e+04 6.969e-09
 85.07425     86.0 1.043e+04 7.071e-09
 85.09441     86.6 1.088e+04 7.768e-09
 85.11458     86.5 1.172e+04 9.662e-09
 85.12876     84.8 1.322e+04 1.528e-08
 85.13375     87.6 1.315e+04 1.354e-08
 85.13969     87.5 1.312e+04 1.380e-08
 85.14977     85.1 1.444e+04 2.200e-08
 85.15985     85.0 1.453e+04 2.669e-08
 85.16863     83.9 1.524e+04 3.494e-08
 85.17367     85.2 1.556e+04 3.472e-08
 85.18002     78.1 2.057e+04 6.764e-08
 85.19010     64.4 2.416e+04 3.738e-07
 85.19764     60.2 2.089e+04 1.103e-06
 85.20265     59.2 2.096e+04 1.214e-06
 85.20770     54.6 1.934e+04 2.383e-06
 85.21107     53.3 1.933e+04 2.563e-06
 85.21359     53.6 1.902e+04 3.025e-06
 85.21778     49.4 1.842e+04 3.561e-06
 85.22282     46.9 1.916e+04 3.380e-06
 85.23041     37.5 2.156e+04 2.222e-06
 85.24051     19.4 2.691e+04 9.529e-07
 85.24856      3.9 2.431e+04 7.974e-07
 85.25360     -1.1 2.271e+04 8.749e-07
 85.26068     -5.4 2.014e+04 8.677e-07
 85.27076     -6.5 1.917e+04 9.560e-07
 85.28084     -7.0 1.914e+04 9.114e-07
 85.28853     -7.7 1.954e+04 6.433e-07
 85.29357     -9.6 2.044e+04 3.681e-07
 85.29781    -12.5 2.170e+04 1.566e-07
 85.30286    -12.8 2.090e+04 2.198e-07
 85.31618    -17.5 2.121e+04 9.702e-08
 85.33640    -22.6 1.992e+04 4.470e-08
 85.35656    -27.3 1.671e+04 2.166e-08
 85.36856    -29.5 1.442e+04 1.444e-08
 85.37864    -33.5 1.334e+04 9.457e-09
 85.39689    -33.2 1.277e+04 7.432e-09
 85.41706    -32.9 1.198e+04 5.736e-09
 85.43722    -32.9 1.087e+04 4.527e-09
 85.44850    -33.1 9.749e+03 3.941e-09
 85.45858    -36.1 9.262e+03 3.891e-09
 85.47756    -35.8 9.033e+03 3.812e-09
 85.49772    -35.5 8.910e+03 4.036e-09
 85.51789    -35.0 9.055e+03 4.686e-09
 85.52843    -34.4 9.279e+03 5.553e-09
 85.53851    -36.1 9.628e+03 6.508e-09
 85.55822    -35.8 9.798e+03 7.414e-09
 85.57838    -35.8 9.905e+03 8.307e-09
 85.59828    -36.2 9.991e+03 9.137e-09
 85.60837    -37.5 1.010e+04 9.491e-09
 85.61871    -37.7 1.015e+04 1.008e-08
 85.63888    -37.7 1.032e+04 1.075e-08
 85.65904    -37.5 1.052e+04 1.123e-08
 85.67822    -37.2 1.061e+04 1.148e-08
 85.68830    -37.5 1.043e+04 1.086e-08
 85.69938    -36.9 1.048e+04 1.087e-08
 85.71954    -36.2 1.058e+04 1.104e-08
 85.73971    -35.4 1.068e+04 1.131e-08
 85.75815    -34.7 1.069e+04 1.142e-08
 85.76824    -34.5 1.058e+04 1.101e-08
 85.78004    -33.6 1.058e+04 1.109e-08
 85.80020    -32.6 1.061e+04 1.124e-08
 85.82037    -32.0 1.055e+04 1.087e-08
 85.83809    -30.8 1.048e+04 1.050e-08
 85.84817    -30.5 1.042e+04 1.009e-08
 85.86070    -29.9 1.031e+04 9.384e-09
 85.87823    -28.3 1.019e+04 8.395e-09
 85.88831    -29.3 1.082e+04 1.154e-08
 85.90103    -29.0 1.074e+04 1.116e-08
 85.91802    -27.8 1.051e+04 9.941e-09
 85.92811    -27.7 1.042e+04 9.497e-09
 85.94136    -27.1 1.030e+04 8.843e-09
 85.96153    -26.1 1.011e+04 7.917e-09
 85.98169    -25.7 1.003e+04 7.452e-09
 85.99806    -24.9 9.984e+03 6.875e-09
 86.01832    -23.5 1.005e+04 6.967e-09
 86.05247    -21.4 9.873e+03 5.955e-09
 86.07799    -20.2 9.795e+03 5.393e-09
 86.08798    -19.3 9.867e+03 5.620e-09
 86.10269    -18.6 9.850e+03 5.557e-09
 86.12285    -18.1 9.960e+03 5.600e-09
 86.14302    -18.0 1.028e+04 5.765e-09
 86.15783    -18.3 1.063e+04 6.698e-09
 86.16791    -17.7 1.092e+04 7.565e-09
 86.18335    -18.6 1.140e+04 1.071e-08
 86.20351    -19.1 1.190e+04 1.564e-08
 86.22368    -19.4 1.234e+04 2.047e-08
 86.23776    -19.5 1.254e+04 2.245e-08
 86.24785    -19.5 1.339e+04 3.256e-08
 86.26401    -19.9 1.332e+04 3.118e-08
 86.28417    -20.2 1.280e+04 2.252e-08
 86.30434    -20.8 1.217e+04 1.481e-08
 86.31770    -21.4 1.172e+04 1.037e-08
 86.32778    -22.1 1.186e+04 1.050e-08
 86.34467    -22.4 1.154e+04 7.988e-09
 86.36484    -22.1 1.134e+04 6.479e-09
 86.38500    -21.4 1.128e+04 5.416e-09
 86.39764    -20.8 1.130e+04 4.712e-09
 86.40772    -21.0 1.147e+04 5.011e-09
 86.42533    -20.3 1.148e+04 4.704e-09
 86.44550    -19.5 1.148e+04 4.631e-09
 86.46339    -18.7 1.156e+04 4.625e-09
 86.47347    -18.6 1.163e+04 4.428e-09
 86.47757    -18.1 1.181e+04 4.761e-09
 86.48765    -18.3 1.203e+04 5.583e-09
 86.50600    -17.8 1.219e+04 6.319e-09
 86.52616    -17.4 1.242e+04 7.528e-09
 86.54633    -17.2 1.270e+04 9.414e-09
 86.55751    -17.0 1.300e+04 1.208e-08
 86.56759    -17.6 1.315e+04 1.382e-08
 86.58666    -17.5 1.340e+04 1.718e-08
 86.60682    -17.3 1.359e+04 2.022e-08
 86.62699    -17.1 1.371e+04 2.198e-08
 86.63744    -16.9 1.374e+04 2.261e-08
 86.64752    -17.3 1.373e+04 2.264e-08
 86.66732    -16.9 1.368e+04 2.112e-08
 86.68748    -16.5 1.363e+04 2.060e-08
 86.70729    -16.2 1.368e+04 2.081e-08
 86.71738    -16.4 1.364e+04 2.081e-08
 86.72782    -15.8 1.376e+04 2.293e-08
 86.74798    -15.3 1.394e+04 2.566e-08
 86.76815    -14.7 1.410e+04 2.817e-08
 86.78723    -14.2 1.422e+04 2.960e-08
 86.79731    -14.0 1.442e+04 3.306e-08
 86.80848    -13.6 1.459e+04 3.629e-08
 86.82864    -13.2 1.468e+04 3.767e-08
 86.84881    -12.9 1.472e+04 3.711e-08
 86.86716    -12.8 1.469e+04 3.461e-08
 86.87725    -12.9 1.518e+04 4.713e-08
 86.88914    -13.0 1.510e+04 4.496e-08
 86.90931    -13.1 1.495e+04 4.236e-08
 86.92947    -13.0 1.475e+04 3.986e-08
 86.94710    -12.8 1.453e+04 3.603e-08
 86.95718    -12.8 1.477e+04 4.269e-08
 86.96980    -12.4 1.442e+04 3.361e-08
 86.98997    -12.0 1.403e+04 2.454e-08
 87.01013    -11.8 1.364e+04 1.765e-08
 87.02703    -11.6 1.331e+04 1.385e-08
 87.03712    -11.6 1.328e+04 1.381e-08
 87.04875    -10.7 1.304e+04 1.158e-08
 87.06901    -11.5 1.310e+04 1.177e-08
 87.09708     -9.4 1.274e+04 9.593e-09
 87.11725     -8.6 1.280e+04 1.110e-08
 87.13122     -7.2 1.276e+04 1.022e-08
 87.15129     -7.0 1.275e+04 1.029e-08
 87.17146     -6.1 1.282e+04 1.077e-08
 87.18690     -5.8 1.275e+04 1.058e-08
 87.19699     -5.7 1.271e+04 1.123e-08
 87.22197     -4.8 1.276e+04 1.145e-08
 87.25695     -3.8 1.279e+04 1.204e-08
 87.27712     -4.2 1.274e+04 1.193e-08
 87.30273     -3.5 1.288e+04 1.241e-08
 87.33288     -3.2 1.319e+04 1.501e-08
 87.34677     -3.2 1.332e+04 1.631e-08
 87.35686     -3.4 1.295e+04 1.394e-08
 87.37311     -3.2 1.297e+04 1.404e-08
 87.39328     -3.1 1.291e+04 1.357e-08
 87.41344     -3.1 1.289e+04 1.303e-08
 87.42671     -3.2 1.285e+04 1.255e-08
 87.43679     -3.4 1.256e+04 1.070e-08
 87.46395     -3.6 1.262e+04 1.105e-08
 87.50438     -3.7 1.298e+04 1.342e-08
 87.54471     -4.6 1.316e+04 1.452e-08
 87.57669     -5.6 1.314e+04 1.281e-08
 87.59686     -6.1 1.296e+04 1.236e-08
 87.62538     -6.5 1.278e+04 7.718e-09
 87.66571     -6.7 1.265e+04 4.682e-09
 87.70604     -6.6 1.259e+04 3.157e-09
 87.73656     -6.2 1.265e+04 2.603e-09
 87.75673     -6.3 1.261e+04 2.059e-09
 87.78670     -6.1 1.267e+04 2.028e-09
 87.82703     -6.3 1.273e+04 2.362e-09
 87.86736     -6.5 1.261e+04 3.085e-09
 87.89643     -6.7 1.270e+04 3.399e-09
 87.91660     -6.9 1.259e+04 3.382e-09
 87.94802     -7.1 1.266e+04 3.139e-09
 87.98835     -6.8 1.299e+04 2.274e-09
 88.02868     -6.6 1.308e+04 1.416e-09
 88.05630     -5.9 1.318e+04 9.963e-10
 88.07647     -5.7 1.317e+04 8.805e-10
 88.10935     -4.5 1.333e+04 7.529e-10
 88.14968     -3.1 1.344e+04 7.039e-10
 88.19001     -1.7 1.352e+04 6.831e-10
 88.21617     -0.4 1.357e+04 6.819e-10
 88.22536     -0.1 1.353e+04 6.570e-10
 88.23953      0.3 1.346e+04 5.652e-10
 88.27067      1.2 1.383e+04 6.081e-10
 88.31100      1.7 1.364e+04 9.684e-10
 88.35133      2.5 1.350e+04 1.675e-09
 88.37604      3.2 1.356e+04 2.335e-09
 88.39621      3.3 1.351e+04 2.621e-09
 88.43199      3.5 1.356e+04 2.790e-09
 88.47233      3.7 1.359e+04 2.327e-09
 88.51266      4.5 1.355e+04 1.475e-09
 88.53591      5.2 1.353e+04 9.726e-10
 88.55608      4.9 1.354e+04 9.143e-10
 88.59332      5.9 1.349e+04 7.901e-10
 88.63365      7.1 1.349e+04 7.745e-10
 88.67398      8.1 1.336e+04 8.976e-10
 88.69578      9.1 1.313e+04 1.168e-09
 88.71595      8.8 1.317e+04 1.108e-09
 88.75464      9.9 1.306e+04 1.220e-09
 88.79497     10.9 1.298e+04 1.202e-09
 88.83530     11.8 1.291e+04 1.073e-09
 88.87564     12.7 1.289e+04 9.230e-10
 88.91597     14.0 1.277e+04 9.119e-10
 88.95630     15.5 1.271e+04 8.374e-10
 88.99536     16.9 1.273e+04 7.157e-10
 89.01552     16.8 1.282e+04 6.494e-10
 89.03696     18.1 1.290e+04 5.016e-10
 89.07729     19.3 1.294e+04 4.082e-10
 89.11762     20.4 1.289e+04 3.843e-10
 89.15523     21.7 1.279e+04 4.059e-10
 89.17539     21.5 1.279e+04 4.072e-10
 89.19828     22.8 1.260e+04 5.033e-10
 89.23861     24.4 1.245e+04 6.180e-10
 89.27895     25.6 1.241e+04 6.897e-10
 89.31510     26.6 1.228e+04 7.553e-10
 89.33526     26.1 1.229e+04 7.762e-10
 89.35961     27.1 1.216e+04 8.327e-10
 89.38988     28.1 1.210e+04 8.635e-10
 89.41005     27.9 1.213e+04 1.022e-09
 89.44027     28.6 1.217e+04 1.042e-09
 89.47497     28.7 1.222e+04 1.186e-09
 89.49513     27.9 1.220e+04 1.339e-09
 89.52093     28.0 1.210e+04 1.928e-09
 89.56126     28.3 1.212e+04 2.568e-09
 89.59141     28.6 1.230e+04 2.754e-09
 89.61148     28.1 1.241e+04 2.959e-09
 89.63165     26.7 1.218e+04 3.589e-09
 89.64473     26.0 1.203e+04 4.551e-09
 89.65481     25.1 1.208e+04 4.969e-09
 89.68216     24.2 1.210e+04 5.507e-09
 89.72259     23.1 1.184e+04 4.808e-09
 89.76292     21.7 1.148e+04 3.746e-09
 89.79307     20.3 1.121e+04 3.604e-09
 89.80460     20.2 1.121e+04 3.574e-09
 89.81478     19.5 1.124e+04 3.633e-09
 89.84358     19.6 1.105e+04 3.187e-09
 89.88391     19.6 1.099e+04 2.135e-09
 89.92424     19.5 1.084e+04 1.273e-09
 89.95458     20.1 1.069e+04 1.014e-09
 89.97474     19.4 1.069e+04 1.013e-09
 90.00490     20.7 1.064e+04 8.058e-10
 90.04523     22.0 1.054e+04 6.530e-10
 90.08556     23.1 1.046e+04 6.110e-10
 90.11445     24.3 1.052e+04 6.257e-10
 90.13461     23.6 1.052e+04 6.613e-10
 90.16623     24.5 1.050e+04 9.150e-10
 90.20656     25.7 1.050e+04 1.588e-09
 90.24689     27.0 1.062e+04 2.534e-09
 90.27432     27.8 1.080e+04 3.322e-09
 90.29448     27.5 1.072e+04 3.071e-09
 90.32755     27.7 1.086e+04 3.156e-09
 90.36788     27.1 1.099e+04 3.663e-09
 90.40821     26.5 1.106e+04 5.406e-09
 90.43419     26.5 1.098e+04 7.162e-09
 90.45435     26.8 1.080e+04 6.112e-09
 90.48887     27.2 1.065e+04 6.015e-09
 90.52921     27.2 1.027e+04 3.087e-09
 90.56040     25.6 9.428e+03 1.632e-09
 90.58057     29.1 1.050e+04 3.659e-09
 90.59406     27.6 9.761e+03 2.710e-09
 90.61422     28.3 9.877e+03 2.901e-09
 90.65020     28.6 1.010e+04 2.901e-09
 90.69053     28.3 1.015e+04 2.924e-09
 90.73086     28.4 1.010e+04 3.190e-09
 90.75393     28.6 9.903e+03 3.324e-09
 90.77409     29.2 1.022e+04 4.416e-09
 90.81152     29.3 1.017e+04 4.023e-09
 90.85185     29.6 1.004e+04 3.293e-09
 90.89218     29.9 9.950e+03 2.736e-09
 90.91380     30.3 9.816e+03 2.403e-09
 90.93397     30.8 9.971e+03 2.675e-09
 90.97285     31.5 9.883e+03 2.392e-09
 91.01318     32.2 9.925e+03 2.193e-09
 91.05350     31.9 1.032e+04 2.551e-09
 91.09384     30.7 1.106e+04 6.638e-09
 91.13417     30.6 1.182e+04 1.181e-08
 91.17450     29.0 1.228e+04 1.337e-08
 91.21337     26.7 1.219e+04 8.489e-09
 91.23354     26.0 1.206e+04 7.433e-09
 91.25516     24.5 1.200e+04 5.991e-09
 91.29549     24.0 1.208e+04 5.131e-09
 91.33583     23.8 1.202e+04 4.467e-09
 91.37324     23.6 1.177e+04 4.190e-09
 91.39341     24.0 1.190e+04 4.189e-09
 91.41649     23.9 1.177e+04 4.016e-09
 91.45682     23.4 1.167e+04 3.918e-09
 91.49715     22.6 1.160e+04 4.180e-09
 91.53311     21.9 1.162e+04 5.030e-09
 91.55328     22.5 1.188e+04 5.891e-09
 91.57781     22.0 1.192e+04 6.310e-09
 91.60796     21.4 1.156e+04 5.488e-09
 91.62294     21.6 1.159e+04 4.929e-09
 91.63302     21.9 1.171e+04 4.990e-09
 91.64819     21.5 1.136e+04 3.652e-09
 91.66836     22.0 1.132e+04 3.069e-09
 91.69289     21.5 1.096e+04 1.772e-09
 91.71315     21.8 1.117e+04 1.820e-09
 91.73092     21.9 1.099e+04 1.163e-09
 91.75109     22.7 1.118e+04 1.674e-09
 91.77947     23.0 1.103e+04 1.112e-09
 91.81980     23.6 1.096e+04 1.117e-09
 91.85286     24.4 1.101e+04 1.307e-09
 91.87302     24.5 1.120e+04 1.363e-09
 91.90046     25.2 1.141e+04 1.436e-09
 91.94079     25.6 1.167e+04 1.403e-09
 91.98112     25.8 1.179e+04 1.311e-09
 92.01273     25.7 1.186e+04 1.313e-09
 92.03289     25.8 1.186e+04 1.201e-09
 92.06178     25.8 1.203e+04 1.326e-09
 92.10211     25.7 1.220e+04 1.507e-09
 92.14244     25.5 1.204e+04 1.929e-09
 92.17260     25.9 1.196e+04 2.379e-09
 92.19276     26.3 1.179e+04 2.153e-09
 92.22311     26.9 1.151e+04 2.108e-09
 92.26344     27.8 1.156e+04 1.173e-09
 92.30377     28.2 1.129e+04 8.152e-10
 92.33247     30.0 1.137e+04 7.869e-10
 92.35263     30.9 1.127e+04 8.201e-10
 92.38443     32.2 1.111e+04 1.242e-09
 92.42476     34.5 1.121e+04 2.028e-09
 92.46509     36.4 1.137e+04 2.761e-09
 92.49234     38.0 1.160e+04 3.184e-09
 92.51250     38.5 1.149e+04 3.111e-09
 92.54575     39.8 1.160e+04 3.426e-09
 92.58609     40.9 1.176e+04 3.913e-09
 92.61624     42.2 1.159e+04 4.560e-09
 92.63630     42.6 1.187e+04 4.608e-09
 92.65201     43.4 1.156e+04 5.545e-09
 92.66209     43.4 1.149e+04 5.240e-09
 92.67663     44.9 1.144e+04 5.943e-09
 92.69680     45.8 1.189e+04 5.330e-09
 92.71697     46.6 1.175e+04 6.014e-09
 92.73195     47.6 1.184e+04 6.642e-09
 92.74203     47.6 1.185e+04 6.932e-09
 92.75730     48.6 1.186e+04 7.805e-09
 92.77746     49.6 1.198e+04 8.538e-09
 92.79763     50.5 1.209e+04 1.052e-08
 92.81188     51.3 1.226e+04 1.102e-08
 92.82196     51.2 1.221e+04 1.125e-08
 92.83796     51.9 1.234e+04 1.207e-08
 92.85812     52.5 1.242e+04 1.281e-08
 92.87829     53.0 1.254e+04 1.375e-08
 92.89182     53.2 1.286e+04 1.567e-08
 92.90190     52.8 1.291e+04 1.648e-08
 92.91133     52.6 1.341e+04 1.902e-08
 92.92141     53.7 1.351e+04 2.463e-08
 92.93879     53.6 1.402e+04 3.147e-08
 92.95895     53.3 1.448e+04 3.417e-08
 92.97175     53.4 1.452e+04 2.774e-08
 92.98183     52.8 1.434e+04 2.421e-08
 92.99928     51.6 1.410e+04 1.711e-08
 93.01945     49.1 1.388e+04 1.316e-08
 93.03961     46.4 1.386e+04 1.482e-08
 93.05169     44.9 1.357e+04 2.282e-08
 93.06177     45.2 1.380e+04 2.843e-08
 93.07994     44.7 1.398e+04 2.803e-08
 93.10011     43.3 1.494e+04 1.674e-08
 93.12028     40.5 1.414e+04 1.179e-08
 93.13162     38.9 1.338e+04 9.203e-09
 93.14170     38.8 1.326e+04 9.917e-09
 93.16061     39.1 1.340e+04 8.264e-09
 93.18077     39.0 1.344e+04 6.062e-09
 93.20094     39.3 1.331e+04 5.102e-09
 93.21156     39.6 1.356e+04 3.895e-09
 93.22164     40.0 1.349e+04 3.769e-09
 93.24127     40.2 1.356e+04 3.494e-09
 93.26143     41.0 1.348e+04 3.554e-09
 93.28141     41.8 1.354e+04 3.673e-09
 93.29149     42.3 1.355e+04 3.611e-09
 93.30176     43.3 1.352e+04 3.991e-09
 93.32193     44.1 1.370e+04 4.150e-09
 93.34210     44.3 1.405e+04 4.594e-09
 93.36134     44.5 1.351e+04 6.825e-09
 93.37143     44.9 1.372e+04 7.194e-09
 93.38243     45.2 1.372e+04 1.008e-08
 93.40259     45.3 1.395e+04 1.366e-08
 93.42276     46.0 1.354e+04 1.835e-08
 93.44128     46.6 1.370e+04 1.750e-08
 93.45136     47.0 1.378e+04 1.583e-08
 93.46309     46.8 1.383e+04 1.278e-08
 93.48325     46.3 1.371e+04 1.128e-08
 93.49659     46.1 1.363e+04 9.193e-09
 93.50667     46.9 1.369e+04 9.608e-09
 93.52121     46.7 1.362e+04 8.543e-09
 93.53130     47.0 1.361e+04 8.103e-09
 93.54375     47.0 1.320e+04 7.713e-09
 93.56392     46.9 1.318e+04 6.485e-09
 93.58408     46.5 1.298e+04 6.308e-09
 93.60115     45.2 1.348e+04 6.408e-09
 93.61123     44.4 1.375e+04 8.995e-09
 93.62441     42.6 1.374e+04 1.353e-08
 93.64458     42.2 1.320e+04 1.902e-08
 93.66474     42.5 1.306e+04 1.810e-08
 93.68108     42.4 1.311e+04 1.119e-08
 93.69117     41.0 1.350e+04 9.928e-09
 93.70507     38.8 1.293e+04 5.259e-09
 93.72524     37.7 1.224e+04 3.750e-09
 93.74541     37.3 1.208e+04 2.723e-09
 93.76102     37.3 1.194e+04 2.320e-09
 93.77110     36.3 1.190e+04 2.278e-09
 93.79592     36.1 1.189e+04 2.008e-09
 93.83635     37.2 1.186e+04 2.097e-09
 93.87668     38.4 1.188e+04 2.469e-09
 93.91100     39.6 1.189e+04 2.716e-09
 93.93117     38.3 1.190e+04 2.661e-09
 93.95734     39.6 1.185e+04 2.601e-09
 93.99767     40.6 1.200e+04 2.105e-09
 94.03800     41.6 1.191e+04 1.890e-09
 94.07087     43.0 1.208e+04 1.583e-09
 94.08467     41.7 1.208e+04 1.710e-09
 94.09203     41.0 1.208e+04 1.749e-09
 94.10838     41.6 1.205e+04 1.855e-09
 94.12855     42.0 1.219e+04 2.016e-09
 94.14872     42.7 1.201e+04 2.584e-09
 94.16069     43.1 1.238e+04 3.043e-09
 94.17078     42.3 1.250e+04 3.502e-09
 94.18905     42.2 1.271e+04 5.300e-09
 94.20921     42.0 1.326e+04 7.970e-09
 94.22938     41.8 1.381e+04 1.309e-08
 94.24063     42.0 1.400e+04 2.073e-08
 94.25071     41.2 1.415e+04 2.162e-08
 94.26971     41.5 1.401e+04 2.530e-08
 94.28987     42.4 1.398e+04 2.138e-08
 94.31004     43.2 1.399e+04 1.282e-08
 94.32057     42.7 1.471e+04 7.266e-09
 94.33065     41.7 1.461e+04 6.142e-09
 94.35037     41.6 1.353e+04 4.975e-09
 94.37054     41.9 1.327e+04 3.913e-09
 94.39042     42.3 1.332e+04 3.827e-09
 94.40050     42.0 1.333e+04 3.837e-09
 94.41087     42.0 1.337e+04 4.707e-09
 94.43103     42.6 1.310e+04 6.016e-09
 94.45120     43.8 1.307e+04 7.169e-09
 94.47035     44.9 1.328e+04 7.817e-09
 94.48044     44.9 1.335e+04 8.525e-09
 94.49153     45.7 1.338e+04 8.439e-09
 94.51169     46.5 1.345e+04 7.889e-09
 94.53186     47.0 1.363e+04 7.451e-09
 94.55029     47.3 1.365e+04 7.082e-09
 94.56037     47.1 1.374e+04 7.137e-09
 94.57219     47.1 1.387e+04 7.256e-09
 94.59236     47.3 1.420e+04 7.348e-09
 94.61252     47.3 1.471e+04 7.240e-09
 94.63022     47.2 1.475e+04 7.783e-09
 94.64031     46.7 1.473e+04 8.251e-09
 94.65285     47.2 1.464e+04 8.618e-09
 94.66711     47.7 1.475e+04 8.433e-09
 94.67719     46.5 1.512e+04 1.726e-08
 94.69318     46.8 1.525e+04 1.662e-08
 94.71016     47.4 1.528e+04 1.713e-08
 94.72024     47.0 1.543e+04 1.787e-08
 94.73351     47.7 1.543e+04 1.868e-08
 94.75368     48.5 1.549e+04 1.916e-08
 94.77385     49.3 1.545e+04 1.893e-08
 94.79009     50.0 1.545e+04 1.930e-08
 94.80018     49.9 1.543e+04 1.946e-08
 94.81418     50.7 1.549e+04 2.103e-08
 94.83434     51.7 1.541e+04 2.286e-08
 94.85451     52.7 1.532e+04 2.445e-08
 94.87003     53.6 1.526e+04 2.707e-08
 94.88011     53.7 1.523e+04 2.706e-08
 94.89484     54.6 1.525e+04 2.827e-08
 94.91500     55.5 1.522e+04 2.568e-08
 94.93517     56.4 1.515e+04 2.068e-08
 94.94996     56.8 1.514e+04 1.661e-08
 94.96005     56.7 1.519e+04 1.347e-08
 94.97550     57.0 1.513e+04 1.113e-08
 94.99567     57.3 1.498e+04 9.996e-09
 95.01583     57.9 1.480e+04 9.977e-09
 95.02990     58.7 1.478e+04 9.761e-09
 95.03998     58.4 1.472e+04 1.009e-08
 95.05616     59.2 1.469e+04 9.875e-09
 95.07633     60.3 1.457e+04 8.800e-09
 95.09649     60.8 1.456e+04 7.748e-09
 95.10983     62.0 1.428e+04 6.365e-09
 95.11992     61.8 1.424e+04 6.525e-09
 95.13682     61.8 1.422e+04 5.976e-09
 95.16717     63.9 1.408e+04 6.074e-09
 95.18996     65.8 1.389e+04 5.219e-09
 95.21013     65.1 1.379e+04 5.254e-09
 95.24248     66.9 1.366e+04 3.965e-09
 95.26265     66.2 1.360e+04 2.295e-09
 95.28826     68.0 1.349e+04 1.791e-09
 95.32859     69.8 1.340e+04 1.452e-09
 95.34983     71.6 1.335e+04 1.253e-09
 95.37000     71.7 1.329e+04 1.455e-09
 95.40925     73.7 1.307e+04 1.421e-09
 95.44958     75.9 1.302e+04 1.429e-09
 95.48954     78.2 1.295e+04 1.474e-09
 95.50970     78.3 1.292e+04 1.832e-09
 95.53025     80.5 1.284e+04 2.012e-09
 95.57058     82.4 1.275e+04 2.344e-09
 95.61091     84.3 1.272e+04 2.921e-09
 95.64941     85.9 1.269e+04 3.781e-09
 95.66957     85.5 1.266e+04 3.886e-09
 95.69157     86.8 1.264e+04 4.331e-09
 95.73190     88.0 1.251e+04 4.186e-09
 95.77223     89.4 1.235e+04 3.287e-09
 95.80928     90.8 1.226e+04 2.151e-09
 95.82944     90.4 1.222e+04 1.631e-09
 95.85289     91.7 1.217e+04 1.129e-09
 95.89323     93.1 1.196e+04 9.409e-10
 95.93356     94.7 1.182e+04 8.985e-10
 95.96915     96.7 1.180e+04 9.098e-10
 95.98931     97.0 1.170e+04 8.380e-10
 96.01422     99.0 1.167e+04 9.024e-10
 96.05455    101.0 1.169e+04 1.008e-09
 96.09488    102.9 1.166e+04 1.307e-09
 96.12902    105.0 1.168e+04 1.840e-09
 96.14918    105.7 1.160e+04 1.702e-09
 96.17554    107.8 1.176e+04 2.317e-09
 96.20569    108.1 1.189e+04 2.853e-09
 96.21884    108.7 1.197e+04 3.425e-09
 96.22892    109.1 1.195e+04 3.271e-09
 96.24593    109.8 1.200e+04 3.851e-09
 96.26609    110.5 1.205e+04 4.287e-09
 96.28626    111.0 1.210e+04 4.346e-09
 96.29878    111.3 1.209e+04 4.314e-09
 96.30886    111.8 1.206e+04 4.393e-09
 96.32659    112.3 1.200e+04 4.268e-09
 96.34675    112.8 1.189e+04 3.928e-09
 96.36692    113.4 1.179e+04 3.331e-09
 96.37871    113.9 1.176e+04 2.810e-09
 96.38879    114.4 1.173e+04 3.083e-09
 96.41290    115.5 1.166e+04 2.366e-09
 96.43307    114.9 1.166e+04 2.542e-09
 96.44866    115.7 1.146e+04 2.502e-09
 96.46883    116.5 1.144e+04 2.467e-09
 96.49809    118.3 1.131e+04 2.605e-09
 96.53852    120.5 1.129e+04 2.579e-09
 96.57885    122.8 1.140e+04 2.770e-09
 96.60853    124.4 1.143e+04 2.735e-09
 96.61852    124.7 1.141e+04 2.770e-09
 96.62907    125.8 1.144e+04 3.009e-09
 96.64924    126.8 1.144e+04 3.492e-09
 96.66940    127.8 1.143e+04 4.063e-09
 96.68837    128.6 1.147e+04 4.642e-09
 96.69845    129.1 1.146e+04 4.663e-09
 96.70973    129.9 1.156e+04 5.227e-09
 96.72990    130.5 1.166e+04 5.763e-09
 96.75006    131.1 1.174e+04 6.195e-09
 96.76830    131.6 1.175e+04 6.489e-09
 96.77839    132.1 1.176e+04 6.526e-09
 96.79039    132.5 1.170e+04 6.692e-09
 96.81056    132.9 1.165e+04 6.641e-09
 96.83073    133.3 1.156e+04 6.559e-09
 96.84824    133.7 1.146e+04 6.510e-09
 96.85832    134.1 1.147e+04 6.738e-09
 96.87106    134.5 1.143e+04 6.828e-09
 96.89122    134.9 1.141e+04 7.032e-09
 96.91139    135.4 1.145e+04 7.326e-09
 96.92817    135.7 1.155e+04 7.736e-09
 96.93826    135.8 1.171e+04 8.869e-09
 96.95172    136.1 1.188e+04 9.702e-09
 96.97188    136.2 1.206e+04 1.061e-08
 96.99205    136.3 1.222e+04 1.148e-08
 97.00811    136.3 1.237e+04 1.226e-08
 97.01819    135.4 1.261e+04 1.390e-08
 97.03238    135.2 1.300e+04 1.503e-08
 97.05255    134.5 1.385e+04 1.882e-08
 97.07271    133.0 1.546e+04 3.231e-08
 97.08804    131.1 1.708e+04 7.029e-08
 97.09813    130.1 1.727e+04 7.745e-08
 97.11304    127.7 1.819e+04 1.319e-07
 97.13321    124.5 1.851e+04 1.541e-07
 97.15337    120.8 1.849e+04 1.381e-07
 97.16798    116.7 1.827e+04 1.116e-07
 97.17806    115.7 1.798e+04 1.017e-07
 97.19370    111.4 1.774e+04 8.793e-08
 97.21387    107.4 1.736e+04 8.260e-08
 97.23404    104.2 1.694e+04 7.845e-08
 97.24792    102.0 1.647e+04 7.080e-08
 97.25800    101.6 1.650e+04 7.164e-08
 97.27437    100.1 1.585e+04 5.757e-08
 97.29453     98.9 1.506e+04 4.290e-08
 97.31470     98.4 1.428e+04 3.165e-08
 97.32785     98.4 1.363e+04 2.423e-08
 97.33793     98.5 1.335e+04 2.070e-08
 97.35503     98.6 1.294e+04 1.653e-08
 97.37519     99.0 1.258e+04 1.368e-08
 97.39536     99.6 1.239e+04 1.235e-08
 97.40779    100.5 1.221e+04 1.115e-08
 97.42805    101.7 1.258e+04 1.378e-08
 97.46613    103.1 1.253e+04 1.393e-08
 97.50646    104.4 1.252e+04 1.387e-08
 97.54680    105.5 1.244e+04 1.303e-08
 97.56785    107.0 1.219e+04 1.078e-08
 97.58441    107.3 1.202e+04 9.472e-09
 97.60368    106.8 1.166e+04 7.927e-09
 97.62746    108.6 1.147e+04 6.352e-09
 97.65761    109.9 1.137e+04 5.689e-09
 97.67768    111.0 1.123e+04 4.971e-09
 97.69784    112.1 1.112e+04 4.477e-09
 97.71744    113.2 1.115e+04 4.237e-09
 97.72753    113.4 1.111e+04 4.207e-09
 97.73817    114.5 1.116e+04 4.180e-09
 97.75834    115.5 1.121e+04 4.185e-09
 97.77850    116.6 1.123e+04 4.193e-09
 97.79738    117.8 1.129e+04 4.218e-09
 97.80746    118.1 1.129e+04 4.232e-09
 97.81883    119.2 1.135e+04 4.275e-09
 97.83900    120.2 1.141e+04 4.319e-09
 97.85917    121.4 1.148e+04 4.387e-09
 97.87731    122.4 1.156e+04 4.499e-09
 97.88740    122.7 1.156e+04 4.609e-09
 97.89950    123.7 1.164e+04 4.799e-09
 97.91966    124.7 1.172e+04 5.072e-09
 97.93983    125.6 1.181e+04 5.433e-09
 97.95725    126.5 1.189e+04 5.854e-09
 97.96733    126.8 1.196e+04 6.368e-09
 97.98016    127.7 1.209e+04 7.006e-09
 98.00032    128.5 1.225e+04 7.824e-09
 98.02049    129.3 1.246e+04 8.870e-09
 98.03718    129.9 1.273e+04 1.042e-08
 98.04727    130.1 1.281e+04 1.138e-08
 98.06082    130.6 1.318e+04 1.390e-08
 98.08099    130.8 1.360e+04 1.760e-08
 98.10115    130.7 1.398e+04 2.208e-08
 98.11712    130.5 1.433e+04 2.665e-08
 98.12720    130.6 1.442e+04 2.760e-08
 98.14148    130.1 1.473e+04 3.161e-08
 98.16165    129.4 1.484e+04 3.301e-08
 98.17867    128.3 1.497e+04 3.234e-08
 98.18875    126.2 1.460e+04 2.518e-08
 98.19705    123.5 1.507e+04 2.917e-08
 98.20714    124.4 1.497e+04 2.824e-08
 98.22214    120.8 1.599e+04 4.304e-08
 98.24231    117.3 1.664e+04 7.617e-08
 98.25738    116.3 1.696e+04 9.809e-08
 98.26742    115.1 1.732e+04 1.131e-07
 98.27689    113.9 1.735e+04 1.118e-07
 98.28193    114.5 1.743e+04 1.151e-07
 98.28758    113.5 1.735e+04 1.043e-07
 98.29767    112.2 1.703e+04 6.805e-08
 98.30775    110.1 1.624e+04 3.760e-08
 98.32292    107.0 1.538e+04 2.233e-08
 98.34314    102.6 1.489e+04 1.932e-08
 98.35692     98.0 1.507e+04 2.535e-08
 98.36701     98.3 1.550e+04 3.337e-08
 98.38347     94.5 1.617e+04 6.076e-08
 98.40363     90.9 1.641e+04 8.017e-08
 98.42380     87.9 1.611e+04 7.520e-08
 98.43686     85.9 1.531e+04 5.619e-08
 98.44694     85.7 1.497e+04 4.580e-08
 98.46413     83.2 1.379e+04 2.153e-08
 98.48430     79.4 1.272e+04 1.002e-08
 98.50446     75.7 1.158e+04 6.751e-09
 98.51679     73.6 1.091e+04 6.300e-09
 98.52688     73.1 1.091e+04 6.324e-09
 98.54479     72.9 1.087e+04 6.433e-09
 98.56496     72.6 1.084e+04 6.634e-09
 98.58512     72.4 1.082e+04 6.708e-09
 98.59673     72.1 1.076e+04 6.653e-09
 98.60681     71.5 1.083e+04 6.706e-09
 98.62545     71.1 1.075e+04 6.610e-09
 98.64562     70.8 1.070e+04 6.486e-09
 98.66578     70.5 1.064e+04 6.285e-09
 98.67666     70.3 1.052e+04 5.955e-09
 98.68675     69.7 1.061e+04 6.142e-09
 98.70612     69.5 1.048e+04 5.551e-09
 98.72628     69.2 1.037e+04 4.990e-09
 98.74645     68.8 1.031e+04 4.677e-09
 98.76392     67.6 1.043e+04 4.860e-09
 98.77401     66.7 1.068e+04 5.193e-09
 98.78678     66.0 1.084e+04 5.544e-09
 98.80694     65.1 1.116e+04 6.988e-09
 98.82645     64.5 1.155e+04 9.760e-09
 98.83653     63.6 1.176e+04 1.121e-08
 98.84727     63.5 1.209e+04 1.380e-08
 98.86744     63.5 1.230e+04 1.501e-08
 98.88761     63.2 1.237e+04 1.464e-08
 98.90639     62.8 1.237e+04 1.322e-08
 98.91647     61.9 1.208e+04 1.003e-08
 98.92794     61.5 1.189e+04 8.100e-09
 98.94810     61.3 1.173e+04 6.494e-09
 98.96827     61.3 1.159e+04 5.302e-09
 98.98632     61.2 1.149e+04 4.607e-09
 98.99640     60.7 1.128e+04 3.400e-09
 99.00860     60.9 1.122e+04 3.412e-09
 99.02876     61.2 1.120e+04 3.585e-09
 99.04893     61.4 1.123e+04 4.098e-09
 99.06626     61.6 1.136e+04 5.075e-09
 99.07634     61.6 1.126e+04 4.223e-09
 99.08926     61.9 1.144e+04 5.255e-09
 99.10943     62.1 1.172e+04 6.558e-09
 99.12959     62.3 1.199e+04 7.844e-09
 99.14619     62.3 1.219e+04 8.941e-09
 99.15627     62.7 1.197e+04 6.932e-09
 99.16992     62.6 1.206e+04 7.695e-09
 99.19009     62.5 1.206e+04 8.264e-09
 99.21025     62.6 1.203e+04 8.387e-09
 99.22613     62.7 1.199e+04 7.962e-09
 99.23621     63.2 1.204e+04 8.346e-09
 99.25058     63.3 1.207e+04 7.928e-09
 99.27075     63.1 1.211e+04 7.292e-09
 99.29092     63.0 1.210e+04 6.725e-09
 99.30606     63.0 1.210e+04 6.303e-09
 99.31614     63.7 1.218e+04 6.796e-09
 99.33125     63.8 1.213e+04 6.137e-09
 99.34918     63.9 1.223e+04 6.201e-09
 99.35927     65.1 1.203e+04 5.715e-09
 99.37158     64.4 1.253e+04 6.539e-09
 99.38600     59.0 1.494e+04 1.679e-08
 99.39608     59.2 1.535e+04 1.932e-08
 99.41191     54.9 1.752e+04 1.264e-07
 99.43207     52.9 1.812e+04 2.006e-07
 99.45224     51.2 1.766e+04 1.355e-07
 99.46593     47.8 1.648e+04 4.931e-08
 99.47601     47.7 1.681e+04 5.102e-08
 99.49257     42.7 1.406e+04 1.984e-08
 99.51274     40.2 1.247e+04 1.130e-08
 99.53290     39.8 1.208e+04 9.484e-09
 99.54587     39.9 1.190e+04 8.837e-09
 99.55595     40.4 1.237e+04 1.182e-08
 99.57323     40.8 1.198e+04 1.107e-08
 99.59340     41.6 1.178e+04 9.665e-09
 99.61356     42.1 1.166e+04 8.537e-09
 99.62580     42.8 1.153e+04 7.601e-09
 99.63589     42.9 1.160e+04 7.854e-09
 99.65389     43.1 1.156e+04 6.706e-09
 99.67406     43.6 1.161e+04 6.704e-09
 99.69422     43.4 1.186e+04 7.949e-09
 99.70574     39.9 1.414e+04 1.408e-08
 99.71582     37.4 1.518e+04 1.762e-08
 99.73456     32.2 1.663e+04 7.463e-08
 99.74566     32.9 1.692e+04 1.940e-07
 99.75065     32.8 1.701e+04 1.962e-07
 99.75966     32.5 1.783e+04 2.407e-07
 99.76975     30.8 1.875e+04 2.760e-07
 99.77983     28.5 1.911e+04 2.155e-07
 99.78562     24.0 1.879e+04 1.112e-07
 99.79576     21.5 1.798e+04 8.471e-08
 99.81522     14.6 1.496e+04 4.594e-08
 99.83538     11.2 1.378e+04 2.445e-08
 99.85552      7.9 1.254e+04 1.451e-08
 99.87569      6.9 1.194e+04 1.152e-08
 99.89588      6.4 1.166e+04 9.688e-09
 99.91605      6.0 1.150e+04 8.419e-09
 99.93444      5.5 1.142e+04 7.844e-09
 99.94378      5.7 1.123e+04 6.867e-09
 99.94554      5.9 1.120e+04 6.847e-09
 99.95638      5.5 1.119e+04 6.668e-09
 99.97654      5.0 1.134e+04 6.917e-09
 99.99671      4.3 1.156e+04 8.381e-09
