# Columns:
#   distance along LOS (in CHIMPs)
#   peculiar velocity  (in km/s)
#   temperature (K)
#   HI number density
# pos=(220.68,107.474,75.3237), angles=(1.50938,6.01446)
  0.00588    -62.4 9.964e+03 1.646e-09
  0.03206    -60.5 9.842e+03 1.545e-09
  0.07265    -58.4 9.731e+03 1.394e-09
  0.11257    -56.1 9.656e+03 1.227e-09
  0.13286    -55.7 9.764e+03 1.322e-09
  0.15384    -53.3 9.729e+03 1.228e-09
  0.19443    -50.8 9.718e+03 1.209e-09
  0.23503    -48.4 9.811e+03 1.241e-09
  0.26745    -46.1 9.873e+03 1.396e-09
  0.28775    -45.6 9.949e+03 1.435e-09
  0.31621    -43.2 1.002e+04 1.677e-09
  0.35680    -40.8 1.011e+04 2.080e-09
  0.39740    -38.5 1.028e+04 2.768e-09
  0.42225    -36.1 1.076e+04 3.822e-09
  0.43230    -35.8 1.075e+04 3.788e-09
  0.44343    -35.8 1.071e+04 4.039e-09
  0.45367    -35.8 1.081e+04 4.275e-09
  0.46834    -34.0 1.143e+04 6.615e-09
  0.48854    -33.8 1.141e+04 7.453e-09
  0.49959    -32.0 1.173e+04 8.607e-09
  0.50974    -31.9 1.177e+04 8.937e-09
  0.52913    -31.5 1.182e+04 9.065e-09
  0.55684    -30.6 1.198e+04 8.897e-09
  0.57713    -29.2 1.207e+04 9.089e-09
  0.60027    -28.3 1.192e+04 6.593e-09
  0.64096    -26.9 1.158e+04 4.883e-09
  0.68155    -25.1 1.157e+04 4.351e-09
  0.71182    -22.9 1.164e+04 4.363e-09
  0.73212    -21.9 1.185e+04 4.442e-09
  0.76274    -19.8 1.204e+04 4.295e-09
  0.80333    -17.9 1.220e+04 4.101e-09
  0.84392    -17.2 1.257e+04 5.291e-09
  0.86661    -17.8 1.273e+04 7.273e-09
  0.87666    -17.1 1.285e+04 7.423e-09
  0.89447    -18.3 1.324e+04 1.056e-08
  0.91477    -20.2 1.446e+04 1.467e-08
  0.93381    -22.2 1.435e+04 3.276e-08
  0.94396    -21.3 1.445e+04 3.214e-08
  0.95536    -21.5 1.447e+04 4.113e-08
  0.97566    -21.4 1.402e+04 2.787e-08
  0.99595    -21.6 1.427e+04 8.650e-09
  1.01125    -23.5 1.398e+04 3.975e-09
  1.02140    -23.3 1.397e+04 4.167e-09
  1.04679    -24.1 1.355e+04 2.423e-09
  1.07645    -24.2 1.334e+04 1.434e-09
  1.09675    -23.8 1.325e+04 1.416e-09
  1.12808    -23.3 1.304e+04 1.885e-09
  1.15619    -21.9 1.248e+04 3.805e-09
  1.17649    -21.4 1.254e+04 2.900e-09
  1.20926    -19.8 1.241e+04 4.007e-09
  1.24986    -18.6 1.225e+04 3.376e-09
  1.29045    -17.6 1.235e+04 1.722e-09
  1.31108    -16.7 1.240e+04 1.002e-09
  1.33137    -16.5 1.238e+04 2.478e-09
  1.37163    -15.4 1.227e+04 1.786e-09
  1.41223    -14.0 1.203e+04 1.395e-09
  1.44567    -12.0 1.187e+04 1.143e-09
  1.46597    -12.3 1.215e+04 3.571e-09
  1.49341    -10.3 1.219e+04 2.866e-09
  1.52302     -8.4 1.199e+04 2.158e-09
  1.53307     -8.6 1.209e+04 2.265e-09
  1.54396     -8.4 1.211e+04 2.333e-09
  1.56426     -7.7 1.211e+04 2.916e-09
  1.58455     -7.1 1.224e+04 3.185e-09
  1.60036     -6.2 1.206e+04 4.703e-09
  1.61051     -6.5 1.237e+04 5.015e-09
  1.62515     -5.5 1.234e+04 6.029e-09
  1.64544     -4.5 1.237e+04 7.150e-09
  1.66574     -3.6 1.239e+04 8.587e-09
  1.67781     -2.8 1.238e+04 9.940e-09
  1.68795     -2.7 1.262e+04 1.124e-08
  1.70633     -1.7 1.260e+04 1.242e-08
  1.71924     -0.7 1.247e+04 1.321e-08
  1.72939      0.2 1.242e+04 1.301e-08
  1.74510      1.2 1.235e+04 1.378e-08
  1.75525      1.1 1.288e+04 1.566e-08
  1.76722      1.8 1.296e+04 1.727e-08
  1.78752      2.5 1.302e+04 1.871e-08
  1.80782      3.5 1.290e+04 1.827e-08
  1.82255      4.0 1.287e+04 1.656e-08
  1.83269      3.8 1.355e+04 2.633e-08
  1.84841      4.8 1.330e+04 2.169e-08
  1.86871      4.9 1.328e+04 1.938e-08
  1.88900      5.8 1.289e+04 1.478e-08
  1.89999      6.0 1.289e+04 1.437e-08
  1.91014      5.4 1.316e+04 2.267e-08
  1.92960      6.4 1.307e+04 2.199e-08
  1.94989      7.1 1.311e+04 2.207e-08
  1.96729      7.9 1.306e+04 2.227e-08
  1.97743      7.1 1.307e+04 2.337e-08
  1.99049      7.8 1.310e+04 2.288e-08
  2.01078      8.4 1.309e+04 2.277e-08
  2.03058      9.0 1.315e+04 2.350e-08
  2.04073      8.8 1.364e+04 2.959e-08
  2.04473      9.4 1.390e+04 3.380e-08
  2.05488      8.2 1.308e+04 2.440e-08
  2.07167      9.3 1.304e+04 2.373e-08
  2.09197     10.5 1.296e+04 2.152e-08
  2.11202     11.7 1.286e+04 1.832e-08
  2.12217      9.8 1.110e+04 6.541e-09
  2.13256     10.2 1.095e+04 5.235e-09
  2.15286     10.6 1.072e+04 4.589e-09
  2.17315     11.2 1.056e+04 4.489e-09
  2.18947     11.9 1.055e+04 4.903e-09
  2.19962     10.6 1.023e+04 4.276e-09
  2.21375     11.4 1.037e+04 5.188e-09
  2.23404     12.3 1.054e+04 6.365e-09
  2.25434     13.1 1.076e+04 7.791e-09
  2.26691     13.9 1.096e+04 9.261e-09
  2.27706     12.9 1.106e+04 9.642e-09
  2.29493     13.5 1.121e+04 1.081e-08
  2.31523     14.1 1.138e+04 1.175e-08
  2.33421     14.6 1.158e+04 1.302e-08
  2.34436     13.5 1.167e+04 1.317e-08
  2.35207     13.2 1.247e+04 1.579e-08
  2.36222     13.0 1.285e+04 1.734e-08
  2.37100     13.1 1.423e+04 2.569e-08
  2.37791     13.3 1.465e+04 2.902e-08
  2.38298     12.8 1.483e+04 3.148e-08
  2.39125     13.0 1.598e+04 4.319e-08
  2.40139     11.0 1.884e+04 8.388e-08
  2.41154      4.8 2.064e+04 5.627e-07
  2.42169     -3.0 1.699e+04 1.280e-05
  2.42928     -5.4 1.274e+04 5.352e-04
  2.43340     -9.6 1.030e+04 5.749e-03
  2.43594    -12.2 1.168e+04 1.541e-03
  2.43737    -15.0 1.392e+04 2.244e-04
  2.43991    -14.0 1.442e+04 1.051e-04
  2.44448    -17.0 1.662e+04 1.817e-05
  2.45025    -21.1 1.799e+04 7.270e-06
  2.45535    -19.2 1.945e+04 2.387e-06
  2.46228    -23.6 2.468e+04 2.654e-07
  2.47755    -31.5 1.931e+04 5.360e-08
  2.48910    -36.9 1.367e+04 2.777e-08
  2.49924    -35.8 1.351e+04 2.824e-08
  2.51820    -34.7 1.304e+04 2.587e-08
  2.53849    -33.1 1.294e+04 2.487e-08
  2.55639    -31.7 1.275e+04 2.156e-08
  2.56654    -30.7 1.275e+04 2.323e-08
  2.57909    -29.3 1.232e+04 1.914e-08
  2.59938    -28.1 1.190e+04 1.419e-08
  2.61968    -26.9 1.140e+04 1.055e-08
  2.63384    -25.8 1.124e+04 9.097e-09
  2.64398    -25.0 1.115e+04 9.128e-09
  2.66027    -23.9 1.116e+04 7.615e-09
  2.67356    -22.9 1.085e+04 7.581e-09
  2.68371    -22.8 1.085e+04 6.829e-09
  2.70087    -21.7 1.097e+04 7.430e-09
  2.71128    -20.6 1.116e+04 9.061e-09
  2.72143    -19.7 1.120e+04 8.993e-09
  2.74146    -18.6 1.144e+04 1.061e-08
  2.76176    -17.6 1.175e+04 1.334e-08
  2.77858    -16.4 1.212e+04 1.707e-08
  2.78872    -15.8 1.215e+04 1.781e-08
  2.80235    -14.4 1.243e+04 2.259e-08
  2.82265    -13.4 1.260e+04 2.418e-08
  2.84294    -12.6 1.246e+04 2.303e-08
  2.85602    -11.9 1.213e+04 1.985e-08
  2.86617    -11.3 1.237e+04 2.334e-08
  2.88354    -10.8 1.196e+04 1.909e-08
  2.90383    -10.6 1.153e+04 1.527e-08
  2.92332    -10.7 1.110e+04 1.245e-08
  2.93346    -10.1 1.124e+04 1.370e-08
  2.94443    -10.0 1.077e+04 1.152e-08
  2.96472    -10.0 1.050e+04 1.024e-08
  2.98490    -10.0 1.042e+04 9.957e-09
  2.99505    -12.0 1.090e+04 1.124e-08
  3.00076    -13.5 1.187e+04 1.457e-08
  3.01091    -11.0 1.069e+04 1.020e-08
  3.02561    -12.2 1.148e+04 1.294e-08
  3.04591    -13.2 1.248e+04 2.125e-08
  3.06620    -12.9 1.284e+04 3.023e-08
  3.07820    -12.0 1.280e+04 3.350e-08
  3.08835    -10.7 1.262e+04 2.873e-08
  3.10680     -9.9 1.258e+04 2.950e-08
  3.12709     -9.0 1.213e+04 2.496e-08
  3.14550     -8.1 1.151e+04 1.591e-08
  3.15565     -6.7 1.175e+04 1.952e-08
  3.16769     -5.9 1.126e+04 1.468e-08
  3.18798     -6.0 1.096e+04 1.278e-08
  3.20828     -5.8 1.048e+04 1.010e-08
  3.22304     -6.9 9.035e+03 3.783e-09
  3.24344     -3.1 1.053e+04 8.017e-09
  3.27951     -3.4 8.894e+03 3.389e-09
  3.32011     -5.3 7.863e+03 2.606e-09
  3.35773     -6.9 7.846e+03 2.715e-09
  3.37793     -7.9 8.505e+03 4.382e-09
  3.40120    -10.9 9.510e+03 7.700e-09
  3.44189    -13.8 1.025e+04 1.173e-08
  3.48248    -16.8 1.034e+04 1.141e-08
  3.51262    -20.2 1.009e+04 9.268e-09
  3.52267    -21.1 1.029e+04 1.069e-08
  3.53303    -22.6 1.007e+04 9.890e-09
  3.55332    -23.7 9.627e+03 8.433e-09
  3.57362    -24.3 9.256e+03 7.137e-09
  3.58987    -24.7 8.952e+03 5.740e-09
  3.60002    -24.9 8.711e+03 5.006e-09
  3.61421    -25.4 8.541e+03 4.110e-09
  3.62798    -26.3 8.355e+03 3.286e-09
  3.63813    -26.5 8.382e+03 3.302e-09
  3.65481    -26.9 8.328e+03 3.154e-09
  3.66741    -27.8 8.354e+03 2.927e-09
  3.68780    -27.5 8.149e+03 2.690e-09
  3.72604    -27.7 8.047e+03 2.326e-09
  3.76663    -27.9 7.955e+03 1.951e-09
  3.80210    -28.2 7.937e+03 1.807e-09
  3.82239    -27.6 7.883e+03 1.742e-09
  3.84782    -27.4 7.975e+03 1.840e-09
  3.88841    -26.8 8.087e+03 1.965e-09
  3.92901    -26.5 8.248e+03 2.045e-09
  3.95699    -26.3 8.456e+03 2.468e-09
  3.97728    -26.0 8.718e+03 3.452e-09
  4.01019    -25.2 8.948e+03 3.889e-09
  4.05078    -24.6 9.059e+03 3.814e-09
  4.09138    -24.3 9.206e+03 3.437e-09
  4.11187    -24.7 9.433e+03 3.445e-09
  4.13217    -26.1 1.020e+04 6.132e-09
  4.17256    -26.8 1.073e+04 8.605e-09
  4.21316    -26.9 1.099e+04 1.023e-08
  4.24646    -27.2 1.082e+04 7.803e-09
  4.26377    -28.8 1.129e+04 9.714e-09
  4.27106    -27.6 1.089e+04 7.405e-09
  4.29434    -28.2 1.058e+04 4.094e-09
  4.33494    -28.6 1.057e+04 2.994e-09
  4.37553    -28.9 1.064e+04 2.801e-09
  4.40135    -29.5 1.077e+04 3.303e-09
  4.42165    -30.8 1.134e+04 3.951e-09
  4.44647    -31.1 1.137e+04 5.415e-09
  4.46667    -31.7 1.142e+04 6.277e-09
  4.47860    -31.5 1.179e+04 8.358e-09
  4.48875    -32.0 1.192e+04 9.014e-09
  4.50726    -32.1 1.202e+04 9.114e-09
  4.52756    -32.4 1.194e+04 7.998e-09
  4.54590    -32.0 1.200e+04 6.366e-09
  4.55605    -32.8 1.214e+04 6.647e-09
  4.56815    -33.7 1.230e+04 4.086e-09
  4.58221    -34.3 1.232e+04 3.553e-09
  4.59236    -33.9 1.226e+04 3.372e-09
  4.61899    -35.1 1.243e+04 3.379e-09
  4.65968    -36.2 1.243e+04 4.509e-09
  4.69083    -36.8 1.254e+04 6.340e-09
  4.71113    -37.9 1.237e+04 5.034e-09
  4.74087    -38.4 1.261e+04 5.675e-09
  4.76818    -38.9 1.300e+04 7.135e-09
  4.77823    -39.1 1.294e+04 6.216e-09
  4.79142    -39.7 1.292e+04 7.150e-09
  4.81171    -39.8 1.300e+04 7.745e-09
  4.83201    -40.0 1.291e+04 7.085e-09
  4.84552    -39.9 1.281e+04 5.493e-09
  4.85567    -39.9 1.286e+04 6.199e-09
  4.87260    -40.0 1.276e+04 4.330e-09
  4.89290    -40.2 1.261e+04 3.041e-09
  4.90370    -40.7 1.225e+04 2.236e-09
  4.91347    -41.1 1.219e+04 2.103e-09
  4.92297    -40.9 1.224e+04 2.319e-09
  4.94374    -40.5 1.208e+04 1.846e-09
  4.98031    -39.5 1.193e+04 1.530e-09
  5.00061    -38.9 1.199e+04 1.484e-09
  5.02502    -37.9 1.189e+04 1.385e-09
  5.06561    -36.7 1.181e+04 1.335e-09
  5.10621    -35.5 1.177e+04 1.238e-09
  5.13520    -34.5 1.174e+04 1.135e-09
  5.15550    -34.4 1.181e+04 1.134e-09
  5.18739    -33.7 1.189e+04 1.220e-09
  5.22799    -33.5 1.171e+04 1.764e-09
  5.26858    -32.7 1.158e+04 2.756e-09
  5.29009    -31.9 1.160e+04 3.358e-09
  5.31038    -32.0 1.165e+04 3.388e-09
  5.34977    -31.4 1.141e+04 3.242e-09
  5.39036    -30.3 1.129e+04 2.146e-09
  5.42468    -29.5 1.119e+04 1.627e-09
  5.44498    -29.5 1.140e+04 1.864e-09
  5.47155    -28.2 1.133e+04 1.776e-09
  5.51214    -26.8 1.124e+04 2.119e-09
  5.53673    -25.1 1.125e+04 3.154e-09
  5.55702    -25.3 1.140e+04 4.364e-09
  5.57957    -24.3 1.189e+04 7.419e-09
  5.59986    -25.0 1.194e+04 7.155e-09
  5.63392    -24.4 1.234e+04 1.187e-08
  5.67451    -24.3 1.241e+04 1.430e-08
  5.71416    -23.8 1.198e+04 9.643e-09
  5.73446    -24.0 1.149e+04 4.657e-09
  5.75570    -23.7 1.108e+04 2.372e-09
  5.79629    -23.6 1.090e+04 1.681e-09
  5.83689    -22.5 1.081e+04 1.677e-09
  5.86905    -21.6 1.065e+04 2.073e-09
  5.88934    -21.7 1.054e+04 1.587e-09
  5.91807    -20.2 1.060e+04 2.014e-09
  5.94639    -19.6 1.091e+04 2.598e-09
  5.95644    -19.3 1.078e+04 2.328e-09
  5.96862    -19.5 1.078e+04 2.555e-09
  5.98891    -19.7 1.083e+04 3.367e-09
  6.00921    -19.9 1.091e+04 4.185e-09
  6.02374    -19.7 1.059e+04 5.170e-09
  6.03389    -19.6 1.071e+04 4.224e-09
  6.04980    -19.5 1.066e+04 4.879e-09
  6.07010    -19.6 1.073e+04 4.914e-09
  6.09040    -20.5 1.130e+04 4.463e-09
  6.10118    -21.9 1.116e+04 4.190e-09
  6.11133    -21.0 1.127e+04 5.170e-09
  6.13099    -22.1 1.108e+04 5.596e-09
  6.15129    -24.0 1.158e+04 6.336e-09
  6.16848    -26.4 1.179e+04 9.167e-09
  6.17641    -26.1 1.206e+04 9.176e-09
  6.17951    -28.2 1.289e+04 1.904e-08
  6.19188    -29.2 1.306e+04 2.626e-08
  6.21218    -29.5 1.304e+04 2.724e-08
  6.23247    -29.7 1.244e+04 1.963e-08
  6.24592    -30.2 1.166e+04 1.285e-08
  6.25607    -30.3 1.169e+04 1.237e-08
  6.28331    -31.4 1.085e+04 7.049e-09
  6.31341    -29.7 1.003e+04 2.699e-09
  6.33371    -30.4 9.936e+03 2.254e-09
  6.36460    -29.7 9.586e+03 1.367e-09
  6.40519    -28.1 9.418e+03 1.234e-09
  6.44578    -25.8 9.273e+03 1.356e-09
  6.46830    -23.5 9.150e+03 1.361e-09
  6.48860    -24.1 9.290e+03 1.394e-09
  6.52697    -22.2 9.338e+03 1.211e-09
  6.56756    -20.7 9.229e+03 1.145e-09
  6.60289    -19.0 9.236e+03 1.207e-09
  6.62319    -19.8 9.339e+03 1.326e-09
  6.64875    -18.3 9.417e+03 1.479e-09
  6.68934    -17.0 9.545e+03 1.827e-09
  6.72994    -16.6 1.000e+04 2.485e-09
  6.75778    -17.0 1.041e+04 4.546e-09
  6.77808    -18.8 1.040e+04 4.819e-09
  6.80239    -18.8 1.057e+04 6.557e-09
  6.82269    -19.3 1.043e+04 5.187e-09
  6.85171    -19.9 1.051e+04 4.525e-09
  6.89231    -21.2 1.069e+04 3.932e-09
  6.92266    -23.6 1.083e+04 3.166e-09
  6.94285    -24.3 1.081e+04 3.285e-09
  6.96315    -24.9 1.104e+04 3.050e-09
  6.97977    -25.7 1.083e+04 3.387e-09
  6.98992    -26.5 1.079e+04 3.125e-09
  7.00374    -26.9 1.097e+04 3.102e-09
  7.02404    -27.7 1.119e+04 3.362e-09
  7.04434    -28.4 1.114e+04 4.223e-09
  7.05721    -28.4 1.112e+04 5.501e-09
  7.06736    -28.1 1.096e+04 3.513e-09
  7.08493    -27.9 1.100e+04 3.978e-09
  7.10523    -27.5 1.073e+04 4.667e-09
  7.12369    -27.4 1.108e+04 4.399e-09
  7.13282    -27.9 1.113e+04 4.677e-09
  7.13466    -27.8 1.102e+04 3.428e-09
  7.14582    -28.1 1.102e+04 4.244e-09
  7.16612    -28.7 1.142e+04 5.000e-09
  7.18641    -29.1 1.140e+04 6.236e-09
  7.20195    -28.8 1.118e+04 7.484e-09
  7.21210    -28.4 1.118e+04 7.520e-09
  7.22701    -27.9 1.115e+04 7.844e-09
  7.24730    -27.2 1.106e+04 6.465e-09
  7.26760    -26.9 1.060e+04 5.673e-09
  7.29814    -25.8 1.056e+04 3.699e-09
  7.33674    -24.9 1.020e+04 2.097e-09
  7.35704    -23.6 1.028e+04 2.027e-09
  7.37943    -22.9 1.005e+04 1.638e-09
  7.42002    -21.4 1.012e+04 1.630e-09
  7.44537    -20.3 1.014e+04 1.934e-09
  7.46567    -21.4 9.961e+03 1.668e-09
  7.49163    -19.8 1.001e+04 2.199e-09
  7.51192    -18.9 1.000e+04 1.889e-09
  7.54180    -17.6 1.021e+04 1.960e-09
  7.58239    -16.8 1.036e+04 2.103e-09
  7.62299    -15.9 1.041e+04 2.403e-09
  7.64652    -15.2 1.059e+04 2.516e-09
  7.66681    -13.8 1.047e+04 1.647e-09
  7.70417    -12.8 1.058e+04 1.391e-09
  7.74476    -12.1 1.074e+04 1.355e-09
  7.78111    -12.1 1.088e+04 1.727e-09
  7.80140    -11.1 1.092e+04 1.743e-09
  7.82595    -10.7 1.091e+04 2.788e-09
  7.86654    -10.1 1.102e+04 3.271e-09
  7.90714     -9.2 1.096e+04 2.863e-09
  7.93600     -8.2 1.087e+04 2.018e-09
  7.95629     -7.4 1.091e+04 1.974e-09
  7.98832     -6.4 1.091e+04 1.357e-09
  8.02892     -5.4 1.093e+04 1.036e-09
  8.06806     -4.2 1.097e+04 9.755e-10
  8.08835     -4.7 1.099e+04 1.233e-09
  8.09088     -3.6 1.103e+04 1.469e-09
  8.11118     -2.4 1.111e+04 1.026e-09
  8.15070     -1.5 1.121e+04 1.371e-09
  8.19129     -0.4 1.129e+04 1.873e-09
  8.22547      0.6 1.146e+04 1.961e-09
  8.24577      1.8 1.149e+04 1.811e-09
  8.27248      2.7 1.156e+04 1.701e-09
  8.31307      3.6 1.165e+04 1.488e-09
  8.35366      4.6 1.154e+04 1.376e-09
  8.38036      5.8 1.142e+04 1.244e-09
  8.40066      6.6 1.164e+04 1.314e-09
  8.43485      7.7 1.164e+04 1.128e-09
  8.47544      8.7 1.172e+04 9.830e-10
  8.51495      9.7 1.170e+04 1.023e-09
  8.53525      9.8 1.183e+04 1.369e-09
  8.55663     10.8 1.178e+04 1.598e-09
  8.59722     11.9 1.178e+04 1.561e-09
  8.63781     12.9 1.179e+04 1.285e-09
  8.66984     13.4 1.179e+04 1.096e-09
  8.69014     13.2 1.178e+04 1.085e-09
  8.71104     13.6 1.171e+04 1.179e-09
  8.73133     13.5 1.172e+04 8.739e-10
  8.75959     14.2 1.166e+04 1.011e-09
  8.80019     15.0 1.151e+04 1.440e-09
  8.82473     16.0 1.149e+04 1.954e-09
  8.84503     16.3 1.128e+04 1.985e-09
  8.88137     17.6 1.116e+04 2.282e-09
  8.92197     19.0 1.115e+04 2.314e-09
  8.95932     20.5 1.123e+04 2.295e-09
  8.97962     20.9 1.105e+04 1.717e-09
  9.00315     22.4 1.112e+04 1.821e-09
  9.04375     24.0 1.123e+04 2.039e-09
  9.08434     25.7 1.139e+04 2.314e-09
  9.11421     26.9 1.151e+04 2.594e-09
  9.13451     27.4 1.135e+04 2.327e-09
  9.15528     27.9 1.148e+04 2.436e-09
  9.17548     28.2 1.151e+04 2.612e-09
  9.19146     28.5 1.152e+04 3.013e-09
  9.20161     28.6 1.145e+04 2.833e-09
  9.21607     28.9 1.152e+04 3.389e-09
  9.23637     29.0 1.164e+04 4.068e-09
  9.25667     28.9 1.178e+04 4.864e-09
  9.26890     28.7 1.200e+04 5.925e-09
  9.27905     28.7 1.198e+04 6.225e-09
  9.29726     28.1 1.236e+04 8.665e-09
  9.31756     27.4 1.282e+04 1.242e-08
  9.33620     26.6 1.320e+04 1.550e-08
  9.34635     26.6 1.339e+04 1.744e-08
  9.35382     25.5 1.334e+04 1.692e-08
  9.36397     26.0 1.302e+04 1.411e-08
  9.37845     25.2 1.280e+04 1.226e-08
  9.39874     24.7 1.245e+04 9.105e-09
  9.41364     23.9 1.201e+04 6.382e-09
  9.42379     23.9 1.181e+04 6.074e-09
  9.44958     24.5 1.149e+04 4.067e-09
  9.49027     25.1 1.120e+04 2.301e-09
  9.53086     26.0 1.110e+04 1.413e-09
  9.55858     27.2 1.097e+04 1.098e-09
  9.57887     28.2 1.094e+04 1.218e-09
  9.61205     30.0 1.079e+04 1.224e-09
  9.65264     32.0 1.076e+04 1.244e-09
  9.69317     34.1 1.070e+04 1.305e-09
  9.73376     37.1 1.072e+04 1.873e-09
  9.77442     39.4 1.080e+04 2.279e-09
  9.81502     41.3 1.089e+04 2.599e-09
  9.84806     43.2 1.086e+04 2.922e-09
  9.86826     43.9 1.086e+04 3.437e-09
  9.88586     44.9 1.080e+04 3.576e-09
  9.90616     45.8 1.083e+04 3.771e-09
  9.92531     46.7 1.091e+04 4.037e-09
  9.93545     46.2 1.182e+04 4.790e-09
  9.94675     46.6 1.231e+04 5.805e-09
  9.96705     46.8 1.307e+04 7.793e-09
  9.98666     46.8 1.399e+04 1.143e-08
  9.99680     46.8 1.240e+04 5.903e-09
 10.00275     46.8 1.309e+04 7.703e-09
 10.01290     45.1 1.478e+04 2.045e-08
 10.02794     45.2 1.474e+04 2.218e-08
 10.04823     45.3 1.439e+04 2.077e-08
 10.06853     45.3 1.372e+04 1.781e-08
 10.08019     45.3 1.300e+04 1.472e-08
 10.09034     44.0 1.330e+04 1.645e-08
 10.10912     43.9 1.253e+04 1.207e-08
 10.12942     44.1 1.193e+04 9.129e-09
 10.14749     44.8 1.152e+04 7.226e-09
 10.15764     43.9 1.137e+04 5.998e-09
 10.17001     44.7 1.109e+04 5.083e-09
 10.19031     45.7 1.087e+04 4.461e-09
 10.21061     47.0 1.073e+04 4.085e-09
 10.22493     48.2 1.065e+04 3.929e-09
 10.23508     47.8 1.060e+04 3.712e-09
 10.25120     49.0 1.059e+04 3.760e-09
 10.27150     50.2 1.055e+04 3.874e-09
 10.29179     51.5 1.056e+04 4.140e-09
 10.30238     52.6 1.064e+04 4.623e-09
 10.30858     52.1 1.064e+04 4.704e-09
 10.31829     52.2 1.070e+04 4.829e-09
 10.33239     53.2 1.076e+04 5.399e-09
 10.35268     54.3 1.081e+04 6.107e-09
 10.36967     55.3 1.088e+04 6.984e-09
 10.37982     54.9 1.087e+04 7.040e-09
 10.39327     55.9 1.092e+04 7.877e-09
 10.41357     57.0 1.094e+04 8.521e-09
 10.43387     58.0 1.104e+04 8.854e-09
 10.44712     58.9 1.118e+04 9.038e-09
 10.45726     58.2 1.098e+04 6.366e-09
 10.47446     58.7 1.102e+04 6.369e-09
 10.49476     59.0 1.113e+04 6.554e-09
 10.51441     59.3 1.124e+04 7.092e-09
 10.52456     58.5 1.098e+04 5.897e-09
 10.53535     58.9 1.112e+04 6.792e-09
 10.55565     59.3 1.124e+04 7.746e-09
 10.57594     59.7 1.137e+04 8.584e-09
 10.59186     60.0 1.156e+04 9.024e-09
 10.60200     59.7 1.136e+04 7.509e-09
 10.61654     59.9 1.153e+04 7.488e-09
 10.62964     59.9 1.161e+04 7.417e-09
 10.63978     59.5 1.159e+04 6.230e-09
 10.65713     59.4 1.166e+04 6.145e-09
 10.66930     59.3 1.173e+04 6.082e-09
 10.67945     59.3 1.162e+04 5.265e-09
 10.69772     59.1 1.171e+04 5.397e-09
 10.71802     59.0 1.178e+04 5.716e-09
 10.73660     58.8 1.187e+04 6.238e-09
 10.74674     58.9 1.187e+04 6.138e-09
 10.75861     58.8 1.206e+04 7.215e-09
 10.77891     58.8 1.228e+04 8.692e-09
 10.79921     58.8 1.249e+04 1.054e-08
 10.81404     58.8 1.264e+04 1.259e-08
 10.82419     59.0 1.266e+04 1.271e-08
 10.83980     59.1 1.274e+04 1.473e-08
 10.86010     59.2 1.277e+04 1.649e-08
 10.88039     59.4 1.277e+04 1.790e-08
 10.89148     59.5 1.279e+04 1.911e-08
 10.90163     59.8 1.268e+04 1.869e-08
 10.92099     60.0 1.281e+04 2.045e-08
 10.94098     60.0 1.298e+04 2.257e-08
 10.95113     59.9 1.276e+04 1.990e-08
 10.95878     59.7 1.290e+04 2.128e-08
 10.96893     59.8 1.304e+04 2.215e-08
 10.98188     59.1 1.345e+04 2.695e-08
 11.00217     58.1 1.396e+04 3.590e-08
 11.02247     57.1 1.448e+04 4.843e-08
 11.03622     56.0 1.471e+04 5.418e-08
 11.04637     55.7 1.487e+04 5.687e-08
 11.06306     54.4 1.467e+04 5.344e-08
 11.08336     53.6 1.402e+04 3.968e-08
 11.10352     52.9 1.314e+04 2.369e-08
 11.11367     52.4 1.286e+04 1.959e-08
 11.12395     50.8 1.224e+04 1.146e-08
 11.14425     49.0 1.175e+04 8.014e-09
 11.16455     48.1 1.096e+04 7.924e-09
 11.18096     48.0 1.092e+04 7.796e-09
 11.19111     47.7 1.096e+04 8.222e-09
 11.20514     47.8 1.084e+04 7.889e-09
 11.22544     48.0 1.074e+04 7.697e-09
 11.24573     48.3 1.065e+04 7.317e-09
 11.25841     48.5 1.060e+04 6.899e-09
 11.26500     48.1 1.045e+04 5.753e-09
 11.27262     47.9 1.061e+04 6.815e-09
 11.28632     48.0 1.057e+04 6.564e-09
 11.30662     48.1 1.055e+04 6.427e-09
 11.32570     48.2 1.052e+04 6.272e-09
 11.33585     47.7 1.036e+04 5.448e-09
 11.34721     47.7 1.034e+04 5.441e-09
 11.36751     47.7 1.028e+04 5.290e-09
 11.38781     47.6 1.019e+04 4.943e-09
 11.40315     47.5 1.007e+04 4.492e-09
 11.41330     47.0 1.011e+04 4.558e-09
 11.42840     46.8 9.984e+03 4.159e-09
 11.44870     46.7 9.855e+03 3.861e-09
 11.46899     46.6 9.771e+03 3.788e-09
 11.48059     46.5 9.774e+03 3.803e-09
 11.49074     45.9 9.809e+03 3.827e-09
 11.50959     45.6 9.861e+03 3.921e-09
 11.52988     45.3 9.941e+03 4.032e-09
 11.54789     45.0 9.980e+03 4.020e-09
 11.55804     44.2 9.998e+03 4.001e-09
 11.57048     43.8 1.000e+04 3.825e-09
 11.58396     43.4 9.978e+03 3.472e-09
 11.59411     43.7 9.938e+03 3.334e-09
 11.61107     43.1 9.916e+03 2.931e-09
 11.62533     42.4 9.879e+03 2.640e-09
 11.63548     41.4 9.878e+03 2.610e-09
 11.65166     40.6 9.868e+03 2.615e-09
 11.67196     39.9 9.886e+03 2.727e-09
 11.69226     39.3 9.939e+03 2.998e-09
 11.70277     38.8 1.001e+04 3.267e-09
 11.71292     38.1 1.005e+04 3.081e-09
 11.73285     37.9 1.005e+04 3.058e-09
 11.75315     37.6 1.007e+04 2.984e-09
 11.77007     37.2 1.010e+04 2.871e-09
 11.78022     36.7 1.007e+04 2.686e-09
 11.79374     36.1 1.010e+04 2.670e-09
 11.81404     35.5 1.017e+04 2.721e-09
 11.83433     34.9 1.024e+04 2.832e-09
 11.84751     34.3 1.032e+04 3.126e-09
 11.85766     33.8 1.035e+04 3.362e-09
 11.87493     33.5 1.042e+04 3.842e-09
 11.89522     33.2 1.052e+04 4.423e-09
 11.91481     32.5 1.038e+04 4.737e-09
 11.92496     32.2 1.037e+04 4.600e-09
 11.93582     31.8 1.036e+04 4.943e-09
 11.95611     31.2 1.034e+04 5.236e-09
 11.97641     30.6 1.032e+04 5.552e-09
 11.99225     30.0 1.029e+04 5.870e-09
 12.00240     30.0 1.038e+04 6.221e-09
 12.01700     29.6 1.042e+04 6.864e-09
 12.03730     29.1 1.043e+04 7.013e-09
 12.05760     28.5 1.039e+04 6.902e-09
 12.06970     27.8 1.024e+04 6.474e-09
 12.07985     28.1 1.047e+04 7.448e-09
 12.09819     27.5 1.028e+04 6.831e-09
 12.11849     27.0 1.015e+04 6.316e-09
 12.13699     26.5 1.014e+04 6.117e-09
 12.14714     27.0 1.024e+04 6.546e-09
 12.15908     26.6 1.026e+04 6.194e-09
 12.17938     26.2 1.034e+04 6.038e-09
 12.19967     25.5 1.052e+04 6.112e-09
 12.21444     24.9 1.062e+04 6.204e-09
 12.22141     25.5 1.049e+04 5.280e-09
 12.22694     25.5 1.054e+04 5.363e-09
 12.24026     25.0 1.081e+04 5.770e-09
 12.26056     24.5 1.097e+04 6.276e-09
 12.29110     24.3 1.121e+04 7.165e-09
 12.32155     23.9 1.177e+04 9.283e-09
 12.34175     22.5 1.248e+04 1.514e-08
 12.35918     21.3 1.318e+04 2.638e-08
 12.36933     21.9 1.347e+04 2.924e-08
 12.38234     21.2 1.420e+04 4.464e-08
 12.40264     20.0 1.467e+04 4.755e-08
 12.42293     17.9 1.472e+04 4.571e-08
 12.43662     15.3 1.456e+04 4.041e-08
 12.44677     16.1 1.469e+04 4.168e-08
 12.46353     13.6 1.422e+04 3.533e-08
 12.48382     12.4 1.329e+04 2.527e-08
 12.50392     12.3 1.234e+04 1.375e-08
 12.51407     12.6 1.289e+04 2.095e-08
 12.52442     12.6 1.222e+04 1.023e-08
 12.53828     11.7 1.167e+04 3.804e-09
 12.54843     10.7 1.189e+04 4.100e-09
 12.56501      9.1 1.124e+04 3.461e-09
 12.58136      7.5 1.071e+04 2.771e-09
 12.59151      8.8 1.150e+04 3.741e-09
 12.61585      6.1 1.096e+04 4.402e-09
 12.64885      5.6 1.099e+04 5.087e-09
 12.66915      6.3 1.131e+04 4.734e-09
 12.69713      5.6 1.115e+04 4.465e-09
 12.73773      5.4 1.105e+04 4.554e-09
 12.77832      5.3 1.093e+04 4.983e-09
 12.80374      5.5 1.077e+04 4.909e-09
 12.82404      5.4 1.076e+04 6.065e-09
 12.85951      6.2 1.046e+04 5.299e-09
 12.90010      7.1 1.003e+04 3.558e-09
 12.93833      7.7 9.703e+03 2.217e-09
 12.95863      8.0 9.646e+03 2.573e-09
 12.98129      8.5 9.463e+03 1.895e-09
 13.02188      9.2 9.225e+03 1.735e-09
 13.06247     10.2 9.126e+03 1.684e-09
 13.09322     11.3 9.038e+03 1.635e-09
 13.11352     11.5 9.016e+03 2.021e-09
 13.14366     12.5 9.003e+03 2.014e-09
 13.17131     13.5 9.024e+03 2.111e-09
 13.19161     12.6 9.011e+03 2.189e-09
 13.22484     13.7 9.200e+03 2.697e-09
 13.24811     14.7 9.399e+03 3.035e-09
 13.26840     15.1 9.261e+03 3.039e-09
 13.30603     16.1 9.220e+03 2.933e-09
 13.34662     17.4 9.107e+03 2.413e-09
 13.38270     18.8 8.969e+03 1.687e-09
 13.40300     19.4 8.982e+03 1.793e-09
 13.42781     20.4 8.895e+03 1.308e-09
 13.46840     21.4 8.767e+03 1.153e-09
 13.50900     22.6 8.733e+03 1.119e-09
 13.53759     24.0 8.725e+03 1.088e-09
 13.55788     24.7 8.745e+03 1.480e-09
 13.59018     26.1 8.697e+03 1.225e-09
 13.63078     27.2 8.668e+03 1.009e-09
 13.67137     28.4 8.629e+03 9.347e-10
 13.69248     29.7 8.649e+03 9.497e-10
 13.71277     30.3 8.626e+03 9.413e-10
 13.75256     31.4 8.722e+03 1.057e-09
 13.79315     32.4 8.915e+03 1.460e-09
 13.81429     33.5 9.234e+03 2.162e-09
 13.82791     33.2 9.225e+03 2.151e-09
 13.84736     34.0 9.073e+03 2.011e-09
 13.87434     35.2 9.423e+03 2.600e-09
 13.91493     36.0 9.608e+03 2.660e-09
 13.95552     36.7 9.617e+03 2.494e-09
 13.98195     37.4 9.536e+03 1.931e-09
 14.00225     38.4 9.689e+03 2.463e-09
 14.03671     39.0 9.577e+03 2.020e-09
 14.07730     39.5 9.423e+03 1.744e-09
 14.11655     40.2 9.295e+03 1.657e-09
 14.13684     41.0 9.630e+03 2.487e-09
 14.15849     41.9 9.474e+03 2.089e-09
 14.19908     42.8 9.288e+03 1.796e-09
 14.23967     44.0 9.186e+03 1.740e-09
 14.27143     45.2 9.198e+03 1.785e-09
 14.29173     45.6 9.260e+03 1.791e-09
 14.32086     46.8 9.391e+03 2.214e-09
 14.36145     47.5 9.802e+03 3.258e-09
 14.39180     47.1 1.014e+04 4.681e-09
 14.41200     46.9 1.044e+04 6.266e-09
 14.42613     46.4 1.076e+04 8.229e-09
 14.43627     47.0 1.114e+04 1.001e-08
 14.44693     46.2 1.163e+04 1.383e-08
 14.45708     45.4 1.182e+04 1.560e-08
 14.47289     44.5 1.219e+04 1.887e-08
 14.49319     43.1 1.229e+04 1.900e-08
 14.50357     41.6 1.210e+04 1.706e-08
 14.51372     41.7 1.290e+04 2.499e-08
 14.53378     40.5 1.223e+04 1.707e-08
 14.55408     39.2 1.134e+04 8.838e-09
 14.57087     37.2 1.048e+04 4.450e-09
 14.58101     37.0 1.088e+04 5.291e-09
 14.60492     33.1 1.009e+04 2.849e-09
 14.64561     31.5 9.739e+03 2.518e-09
 14.68620     30.7 9.741e+03 2.591e-09
 14.71580     30.1 9.802e+03 2.737e-09
 14.73610     28.5 1.006e+04 3.295e-09
 14.76739     28.7 9.852e+03 2.659e-09
 14.80798     29.2 9.731e+03 1.790e-09
 14.84857     29.5 9.697e+03 1.219e-09
 14.87069     30.0 9.694e+03 1.103e-09
 14.89099     29.6 9.719e+03 9.788e-10
 14.92976     30.4 9.757e+03 1.045e-09
 14.97035     31.2 9.969e+03 1.215e-09
 15.00070     31.3 1.011e+04 1.333e-09
 15.01523     31.1 1.027e+04 1.448e-09
 15.02538     30.5 1.033e+04 1.444e-09
 15.04119     28.1 1.136e+04 2.144e-09
 15.06149     22.5 1.306e+04 6.479e-09
 15.07666     16.7 1.503e+04 1.815e-08
 15.08474     11.0 1.705e+04 6.768e-08
 15.08981     11.7 1.644e+04 5.676e-08
 15.09258      8.8 1.751e+04 1.787e-07
 15.09765      8.7 1.752e+04 2.213e-07
 15.10706      7.0 1.830e+04 3.453e-07
 15.11721      5.5 1.826e+04 2.400e-07
 15.12623      3.3 1.778e+04 1.520e-07
 15.13130      3.0 1.759e+04 1.254e-07
 15.14263     -3.3 1.857e+04 3.358e-08
 15.15997    -20.2 1.577e+04 1.670e-08
 15.17012    -22.5 1.517e+04 1.645e-08
 15.18327    -28.3 1.369e+04 2.598e-08
 15.20357    -31.1 1.471e+04 4.073e-08
 15.22386    -33.3 1.470e+04 5.348e-08
 15.23742    -34.6 1.430e+04 4.634e-08
 15.24757    -34.5 1.432e+04 4.628e-08
 15.26446    -35.9 1.354e+04 2.791e-08
 15.28475    -37.4 1.281e+04 1.866e-08
 15.30471    -38.2 1.224e+04 1.494e-08
 15.31486    -38.1 1.193e+04 1.188e-08
 15.32535    -38.0 1.173e+04 1.016e-08
 15.34564    -37.8 1.172e+04 8.934e-09
 15.36594    -37.9 1.165e+04 8.409e-09
 15.38216    -37.7 1.168e+04 8.454e-09
 15.39231    -37.3 1.144e+04 6.328e-09
 15.40125    -37.3 1.158e+04 6.902e-09
 15.41140    -37.4 1.174e+04 7.849e-09
 15.42683    -37.6 1.173e+04 8.062e-09
 15.44955    -37.3 1.193e+04 1.041e-08
 15.46994    -36.3 1.140e+04 7.218e-09
 15.49806    -35.3 1.178e+04 9.377e-09
 15.53866    -34.4 1.186e+04 9.529e-09
 15.57925    -33.5 1.166e+04 7.222e-09
 15.60454    -32.5 1.148e+04 4.453e-09
 15.62483    -30.9 1.157e+04 4.509e-09
 15.66044    -30.2 1.146e+04 2.877e-09
 15.70103    -29.2 1.143e+04 2.349e-09
 15.72294    -27.8 1.139e+04 2.646e-09
 15.74074    -28.2 1.173e+04 3.278e-09
 15.75942    -27.0 1.176e+04 3.312e-09
 15.78222    -26.0 1.184e+04 3.573e-09
 15.82281    -24.4 1.185e+04 4.633e-09
 15.86340    -22.7 1.214e+04 6.449e-09
 15.89402    -20.7 1.275e+04 9.043e-09
 15.91431    -21.1 1.261e+04 7.287e-09
 15.93434    -19.5 1.306e+04 9.282e-09
 15.95454    -19.0 1.363e+04 1.076e-08
 15.97126    -20.8 1.494e+04 1.599e-08
 15.98141    -26.7 1.713e+04 1.728e-08
 15.99001    -30.1 1.760e+04 4.542e-08
 16.00011    -32.4 1.888e+04 6.519e-08
 16.00989    -35.9 1.752e+04 2.182e-07
 16.01496    -36.9 1.733e+04 2.524e-07
 16.02041    -35.6 1.754e+04 3.575e-07
 16.03056    -35.9 1.846e+04 2.304e-07
 16.03906    -38.6 1.866e+04 1.143e-07
 16.04413    -37.8 1.848e+04 1.439e-07
 16.04861    -42.1 1.759e+04 7.319e-08
 16.05368    -44.1 1.718e+04 6.678e-08
 16.06100    -45.6 1.667e+04 5.605e-08
 16.07627    -49.3 1.668e+04 4.447e-08
 16.09662    -53.9 1.622e+04 4.119e-08
 16.11600    -56.3 1.596e+04 5.779e-08
 16.12615    -57.1 1.548e+04 4.307e-08
 16.13721    -58.4 1.545e+04 4.280e-08
 16.15751    -59.4 1.508e+04 2.916e-08
 16.17780    -60.5 1.459e+04 1.527e-08
 16.19345    -61.7 1.426e+04 8.355e-09
 16.20360    -61.9 1.426e+04 7.089e-09
 16.21840    -62.3 1.413e+04 5.123e-09
 16.23869    -62.5 1.398e+04 4.253e-09
 16.25899    -62.4 1.398e+04 3.758e-09
 16.27089    -62.4 1.409e+04 3.582e-09
 16.28104    -63.2 1.423e+04 3.460e-09
 16.29958    -64.5 1.465e+04 4.126e-09
 16.31988    -65.8 1.464e+04 6.577e-09
 16.33829    -66.8 1.479e+04 1.069e-08
 16.35378    -70.1 1.461e+04 1.311e-08
 16.36582    -69.4 1.504e+04 1.768e-08
 16.38077    -71.3 1.498e+04 2.590e-08
 16.40107    -72.8 1.483e+04 2.678e-08
 16.41563    -74.3 1.463e+04 2.017e-08
 16.42578    -75.7 1.422e+04 1.134e-08
 16.44166    -77.7 1.404e+04 7.038e-09
 16.46196    -79.4 1.374e+04 5.701e-09
 16.48225    -80.3 1.355e+04 5.325e-09
 16.49308    -81.0 1.351e+04 5.219e-09
 16.50322    -81.6 1.333e+04 4.890e-09
 16.52285    -82.2 1.336e+04 5.008e-09
 16.54314    -82.7 1.361e+04 5.083e-09
 16.56037    -83.4 1.374e+04 5.428e-09
 16.57052    -84.1 1.336e+04 5.312e-09
 16.58374    -84.8 1.345e+04 5.926e-09
 16.60403    -85.5 1.347e+04 6.694e-09
 16.62433    -86.2 1.344e+04 7.063e-09
 16.63782    -87.0 1.334e+04 7.014e-09
 16.64796    -87.4 1.310e+04 5.704e-09
 16.66492    -88.2 1.297e+04 4.789e-09
 16.67707    -89.1 1.293e+04 3.819e-09
 16.68721    -88.3 1.296e+04 4.537e-09
 16.70511    -89.3 1.284e+04 3.700e-09
 16.71526    -89.7 1.272e+04 2.963e-09
 16.72581    -90.5 1.256e+04 2.745e-09
 16.74611    -91.3 1.245e+04 2.679e-09
 16.76641    -91.9 1.241e+04 2.674e-09
 16.78256    -92.8 1.217e+04 2.863e-09
 16.80295    -93.1 1.211e+04 2.561e-09
 16.83764    -94.3 1.189e+04 2.998e-09
 16.87823    -95.2 1.178e+04 3.336e-09
 16.91734    -96.1 1.164e+04 3.392e-09
 16.93764    -96.3 1.162e+04 3.080e-09
 16.95942    -96.7 1.142e+04 3.001e-09
 16.98860    -96.8 1.123e+04 2.728e-09
 17.00890    -95.5 1.108e+04 2.202e-09
 17.04060    -95.3 1.093e+04 2.081e-09
 17.07223    -94.8 1.091e+04 2.034e-09
 17.09253    -95.0 1.096e+04 2.038e-09
 17.12179    -94.7 1.105e+04 2.039e-09
 17.16238    -94.7 1.108e+04 2.325e-09
 17.20298    -94.5 1.103e+04 2.855e-09
 17.22712    -94.2 1.095e+04 3.239e-09
 17.24741    -93.8 1.078e+04 2.684e-09
 17.28416    -93.1 1.074e+04 2.737e-09
 17.32476    -92.3 1.068e+04 2.136e-09
 17.36171    -91.9 1.073e+04 1.568e-09
 17.38201    -91.2 1.071e+04 1.713e-09
 17.40594    -91.1 1.084e+04 1.588e-09
 17.44654    -91.4 1.098e+04 1.688e-09
 17.48713    -92.0 1.096e+04 1.976e-09
 17.51660    -92.6 1.088e+04 2.112e-09
 17.53689    -92.4 1.096e+04 2.835e-09
 17.56832    -92.4 1.062e+04 2.359e-09
 17.60891    -92.1 1.037e+04 1.532e-09
 17.63158    -91.5 1.016e+04 1.004e-09
 17.65188    -90.0 1.018e+04 1.088e-09
 17.67149    -89.3 1.004e+04 9.108e-10
 17.69178    -89.1 1.002e+04 8.672e-10
 17.73069    -88.1 1.000e+04 8.445e-10
 17.77128    -87.4 1.007e+04 1.018e-09
 17.80608    -87.0 1.019e+04 1.531e-09
 17.82637    -87.0 1.020e+04 1.439e-09
 17.85247    -87.2 1.046e+04 2.463e-09
 17.88282    -87.2 1.081e+04 4.004e-09
 17.89347    -88.0 1.099e+04 5.132e-09
 17.90362    -87.9 1.094e+04 4.812e-09
 17.92331    -88.6 1.135e+04 7.821e-09
 17.94273    -89.0 1.148e+04 8.683e-09
 17.95288    -89.0 1.146e+04 8.645e-09
 17.96077    -89.8 1.169e+04 1.107e-08
 17.98116    -90.0 1.154e+04 1.001e-08
 18.00459    -90.7 1.141e+04 9.682e-09
 18.02479    -91.5 1.133e+04 8.992e-09
 18.03821    -92.2 1.118e+04 7.715e-09
 18.04836    -91.9 1.109e+04 6.940e-09
 18.06539    -92.4 1.111e+04 5.956e-09
 18.08568    -93.0 1.123e+04 5.175e-09
 18.10551    -93.4 1.138e+04 4.748e-09
 18.11566    -93.0 1.130e+04 4.230e-09
 18.12628    -93.3 1.135e+04 4.015e-09
 18.14657    -93.4 1.135e+04 3.967e-09
 18.16687    -93.7 1.135e+04 4.022e-09
 18.18295    -94.1 1.136e+04 4.850e-09
 18.19310    -93.8 1.133e+04 4.500e-09
 18.20746    -94.3 1.141e+04 6.317e-09
 18.22776    -94.6 1.170e+04 9.279e-09
 18.24806    -94.9 1.211e+04 1.344e-08
 18.26040    -95.2 1.248e+04 1.760e-08
 18.26641    -94.9 1.257e+04 1.831e-08
 18.27437    -94.7 1.240e+04 1.723e-08
 18.28865    -95.4 1.250e+04 1.791e-08
 18.30895    -96.0 1.236e+04 1.626e-08
 18.32769    -96.2 1.201e+04 1.178e-08
 18.33784    -96.0 1.199e+04 1.132e-08
 18.34954    -96.1 1.165e+04 7.586e-09
 18.36984    -96.2 1.139e+04 5.287e-09
 18.39013    -96.2 1.117e+04 3.922e-09
 18.40514    -96.0 1.099e+04 3.166e-09
 18.41528    -95.6 1.101e+04 3.155e-09
 18.43073    -95.2 1.094e+04 2.866e-09
 18.45102    -94.9 1.094e+04 2.813e-09
 18.47132    -94.7 1.106e+04 2.807e-09
 18.48258    -94.6 1.141e+04 3.166e-09
 18.49273    -94.1 1.133e+04 3.003e-09
 18.51191    -94.1 1.145e+04 3.781e-09
 18.53221    -94.0 1.158e+04 4.996e-09
 18.54988    -93.8 1.175e+04 6.572e-09
 18.56002    -93.2 1.167e+04 5.412e-09
 18.57280    -93.1 1.184e+04 6.616e-09
 18.58571    -93.0 1.196e+04 7.806e-09
 18.59586    -92.6 1.191e+04 6.529e-09
 18.61339    -92.4 1.197e+04 6.960e-09
 18.62732    -92.3 1.198e+04 7.131e-09
 18.63747    -91.7 1.193e+04 6.250e-09
 18.65399    -91.5 1.191e+04 6.383e-09
 18.67428    -91.3 1.182e+04 6.445e-09
 18.69458    -91.1 1.170e+04 6.364e-09
 18.71488    -90.3 1.164e+04 5.836e-09
 18.73517    -90.0 1.160e+04 5.632e-09
 18.75547    -89.6 1.161e+04 5.207e-09
 18.77206    -89.2 1.163e+04 4.597e-09
 18.78221    -88.7 1.160e+04 4.541e-09
 18.79606    -88.0 1.163e+04 3.752e-09
 18.82661    -87.7 1.185e+04 2.834e-09
 18.84970    -87.2 1.200e+04 2.303e-09
 18.87000    -86.2 1.189e+04 2.227e-09
 18.89725    -85.2 1.190e+04 1.825e-09
 18.91755    -84.6 1.180e+04 2.635e-09
 18.94848    -83.7 1.183e+04 2.515e-09
 18.98429    -82.8 1.186e+04 2.408e-09
 19.00459    -81.8 1.174e+04 2.278e-09
 19.02967    -81.1 1.190e+04 2.312e-09
 19.07026    -80.6 1.211e+04 2.366e-09
 19.11086    -80.5 1.246e+04 2.550e-09
 19.13918    -80.6 1.269e+04 3.002e-09
 19.15948    -79.9 1.257e+04 2.856e-09
 19.18180    -79.9 1.273e+04 2.812e-09
 19.20200    -79.8 1.281e+04 2.888e-09
 19.21643    -79.8 1.287e+04 2.868e-09
 19.22283    -79.4 1.283e+04 2.592e-09
 19.22869    -79.4 1.280e+04 2.613e-09
 19.24259    -79.3 1.283e+04 2.607e-09
 19.26289    -79.0 1.291e+04 2.590e-09
 19.28318    -78.9 1.297e+04 2.587e-09
 19.29387    -78.5 1.311e+04 2.580e-09
 19.31427    -77.9 1.308e+04 2.372e-09
 19.35442    -77.4 1.328e+04 2.464e-09
 19.38476    -76.8 1.343e+04 2.746e-09
 19.40496    -77.0 1.359e+04 3.101e-09
 19.42526    -77.2 1.365e+04 3.732e-09
 19.43861    -77.2 1.364e+04 4.555e-09
 19.44876    -76.5 1.357e+04 4.554e-09
 19.47610    -76.4 1.350e+04 5.575e-09
 19.51679    -76.7 1.350e+04 7.520e-09
 19.54023    -77.2 1.361e+04 9.353e-09
 19.56053    -77.1 1.408e+04 4.822e-09
 19.58355    -77.8 1.408e+04 5.572e-09
 19.60384    -75.9 1.392e+04 4.610e-09
 19.63857    -76.8 1.403e+04 6.329e-09
 19.67916    -78.0 1.414e+04 9.453e-09
 19.70951    -78.1 1.438e+04 1.401e-08
 19.72809    -78.6 1.453e+04 1.531e-08
 19.73834    -77.9 1.445e+04 1.518e-08
 19.75010    -79.1 1.463e+04 1.974e-08
 19.77030    -80.1 1.460e+04 1.971e-08
 19.79060    -80.8 1.437e+04 1.619e-08
 19.80553    -81.6 1.409e+04 1.163e-08
 19.81568    -80.9 1.427e+04 1.319e-08
 19.83119    -81.8 1.394e+04 9.670e-09
 19.85138    -82.5 1.357e+04 8.216e-09
 19.86152    -82.6 1.350e+04 7.920e-09
 19.87178    -82.7 1.335e+04 7.576e-09
 19.88298    -82.6 1.325e+04 7.484e-09
 19.89313    -82.0 1.329e+04 7.894e-09
 19.91238    -82.0 1.322e+04 7.876e-09
 19.93267    -82.0 1.317e+04 7.865e-09
 19.95027    -82.0 1.309e+04 7.983e-09
 19.96042    -81.3 1.314e+04 8.259e-09
 19.97327    -81.4 1.313e+04 8.235e-09
 20.00381    -81.7 1.306e+04 7.895e-09
 20.02791    -81.4 1.293e+04 5.879e-09
 20.04821    -80.0 1.293e+04 6.400e-09
 20.08509    -79.5 1.289e+04 3.739e-09
 20.12569    -78.9 1.289e+04 2.047e-09
 20.16250    -78.0 1.289e+04 1.362e-09
 20.17944    -76.5 1.300e+04 1.437e-09
 20.18321    -76.1 1.310e+04 1.360e-09
 20.20687    -75.0 1.312e+04 1.099e-09
 20.24747    -74.0 1.315e+04 1.060e-09
 20.28806    -73.6 1.343e+04 1.210e-09
 20.31739    -73.4 1.332e+04 1.818e-09
 20.33769    -72.1 1.335e+04 1.700e-09
 20.36925    -71.7 1.327e+04 2.296e-09
 20.40984    -71.2 1.319e+04 2.861e-09
 20.45043    -70.8 1.311e+04 3.071e-09
 20.47228    -70.0 1.301e+04 2.980e-09
 20.49258    -68.6 1.304e+04 2.390e-09
 20.53162    -67.1 1.278e+04 2.170e-09
 20.57221    -65.3 1.293e+04 1.408e-09
 20.60687    -63.5 1.319e+04 9.067e-10
 20.62717    -62.4 1.312e+04 1.000e-09
 20.65340    -60.7 1.349e+04 6.897e-10
 20.69399    -59.2 1.384e+04 5.275e-10
 20.73458    -57.7 1.396e+04 4.885e-10
 20.76176    -56.2 1.398e+04 4.997e-10
 20.78206    -55.1 1.404e+04 5.838e-10
 20.80589    -53.7 1.400e+04 6.382e-10
 20.82619    -52.8 1.394e+04 5.476e-10
 20.85636    -51.5 1.391e+04 5.516e-10
 20.89635    -50.2 1.366e+04 6.011e-10
 20.91665    -49.2 1.357e+04 7.528e-10
 20.93755    -47.9 1.340e+04 7.121e-10
 20.97814    -46.5 1.325e+04 7.610e-10
 21.01874    -45.1 1.317e+04 8.028e-10
 21.05124    -43.7 1.319e+04 8.338e-10
 21.07154    -42.9 1.324e+04 7.420e-10
 21.09992    -41.5 1.334e+04 7.142e-10
 21.14052    -40.0 1.342e+04 6.911e-10
 21.18111    -38.6 1.352e+04 6.576e-10
 21.20613    -37.4 1.369e+04 6.224e-10
 21.22642    -36.6 1.376e+04 5.942e-10
 21.26230    -35.4 1.384e+04 6.506e-10
 21.30289    -34.4 1.385e+04 7.117e-10
 21.34072    -33.2 1.368e+04 7.689e-10
 21.36102    -32.2 1.364e+04 8.516e-10
 21.38408    -31.0 1.352e+04 8.657e-10
 21.42467    -29.4 1.340e+04 7.654e-10
 21.44888    -27.8 1.353e+04 5.465e-10
 21.46917    -27.3 1.344e+04 5.287e-10
 21.49561    -25.9 1.364e+04 3.840e-10
 21.51590    -25.0 1.345e+04 5.771e-10
 21.54645    -23.9 1.366e+04 4.788e-10
 21.58704    -23.3 1.373e+04 6.305e-10
 21.62763    -22.3 1.317e+04 1.554e-09
 21.65050    -20.6 1.306e+04 3.055e-09
 21.67079    -20.2 1.314e+04 2.264e-09
 21.70882    -18.9 1.306e+04 3.293e-09
 21.74941    -18.2 1.292e+04 3.410e-09
 21.78509    -17.6 1.300e+04 2.386e-09
 21.80538    -16.5 1.308e+04 2.059e-09
 21.83060    -16.7 1.309e+04 1.361e-09
 21.87119    -16.8 1.288e+04 1.323e-09
 21.91179    -16.1 1.252e+04 1.552e-09
 21.93997    -15.0 1.247e+04 1.342e-09
 21.96027    -14.6 1.251e+04 1.836e-09
 21.99297    -13.8 1.268e+04 1.413e-09
 22.03357    -13.5 1.273e+04 1.278e-09
 22.07156    -12.7 1.252e+04 1.640e-09
 22.09186    -12.1 1.254e+04 1.651e-09
 22.09486    -11.1 1.256e+04 2.204e-09
 22.11516    -10.8 1.264e+04 2.204e-09
 22.15535     -9.4 1.257e+04 2.660e-09
 22.19594     -8.3 1.271e+04 2.399e-09
 22.22945     -7.8 1.280e+04 2.178e-09
 22.24975     -7.6 1.280e+04 2.022e-09
 22.27713     -7.3 1.272e+04 2.554e-09
 22.31772     -7.3 1.276e+04 3.204e-09
 22.35831     -7.2 1.250e+04 4.238e-09
 22.38434     -7.2 1.227e+04 4.233e-09
 22.40464     -6.5 1.248e+04 3.334e-09
 22.43950     -6.2 1.202e+04 3.359e-09
 22.48009     -4.8 1.208e+04 2.015e-09
 22.51893     -4.8 1.238e+04 1.227e-09
 22.53923     -3.9 1.243e+04 1.342e-09
 22.56128     -3.2 1.219e+04 1.395e-09
 22.60187     -2.5 1.201e+04 1.861e-09
 22.64246     -1.7 1.192e+04 2.882e-09
 22.67382     -1.4 1.207e+04 3.930e-09
 22.69412     -0.9 1.212e+04 4.212e-09
 22.71454     -1.5 1.249e+04 6.166e-09
 22.73484     -2.2 1.190e+04 4.413e-09
 22.76424     -2.9 1.175e+04 3.864e-09
 22.80484     -3.4 1.229e+04 1.680e-09
 22.82871     -4.1 1.189e+04 7.833e-10
 22.84901     -3.5 1.192e+04 6.874e-10
 22.88602     -4.5 1.263e+04 2.914e-10
 22.92662     -4.2 1.223e+04 3.139e-10
 22.96330     -3.2 1.200e+04 3.853e-10
 22.98360     -3.3 1.256e+04 4.192e-10
 23.00780     -6.8 1.439e+04 7.697e-10
 23.03593    -10.1 1.288e+04 3.050e-09
 23.04598     -9.9 1.323e+04 1.906e-09
 23.05070    -11.0 1.289e+04 4.971e-09
 23.06085    -11.9 1.326e+04 1.107e-08
 23.07865    -11.8 1.401e+04 2.202e-08
 23.09894    -14.0 1.558e+04 2.679e-08
 23.11799    -18.2 1.585e+04 3.068e-08
 23.12814    -21.4 1.515e+04 4.938e-08
 23.13954    -22.0 1.518e+04 5.925e-08
 23.15983    -21.9 1.542e+04 5.840e-08
 23.18013    -22.7 1.562e+04 3.837e-08
 23.19544    -24.5 1.550e+04 2.376e-08
 23.20559    -26.8 1.510e+04 8.528e-09
 23.22072    -27.4 1.505e+04 8.465e-09
 23.24102    -27.8 1.503e+04 8.703e-09
 23.26131    -28.0 1.506e+04 8.278e-09
 23.27288    -28.1 1.516e+04 6.940e-09
 23.28303    -28.1 1.499e+04 4.628e-09
 23.30191    -28.0 1.514e+04 4.012e-09
 23.32220    -27.9 1.524e+04 3.610e-09
 23.34018    -27.9 1.531e+04 3.327e-09
 23.35033    -27.9 1.535e+04 3.178e-09
 23.35733    -28.1 1.532e+04 3.589e-09
 23.36747    -28.9 1.536e+04 4.097e-09
 23.38309    -29.3 1.529e+04 5.778e-09
 23.40339    -29.9 1.534e+04 8.879e-09
 23.41762    -30.8 1.549e+04 1.399e-08
 23.42777    -31.4 1.555e+04 1.958e-08
 23.44398    -32.7 1.563e+04 2.530e-08
 23.46428    -34.1 1.570e+04 2.754e-08
 23.48458    -35.7 1.559e+04 2.620e-08
 23.49507    -37.7 1.544e+04 2.117e-08
 23.50521    -39.1 1.533e+04 1.893e-08
 23.52517    -41.8 1.538e+04 1.642e-08
 23.54547    -44.9 1.548e+04 1.580e-08
 23.56236    -48.2 1.560e+04 1.693e-08
 23.57251    -50.6 1.572e+04 1.928e-08
 23.58606    -52.8 1.548e+04 2.008e-08
 23.60636    -54.2 1.516e+04 1.716e-08
 23.62665    -55.1 1.491e+04 1.181e-08
 23.63980    -55.6 1.465e+04 7.973e-09
 23.64995    -56.8 1.461e+04 5.289e-09
 23.66725    -56.8 1.455e+04 4.068e-09
 23.69705    -56.3 1.449e+04 3.388e-09
 23.71744    -57.9 1.438e+04 2.113e-09
 23.73848    -56.5 1.417e+04 1.664e-09
 23.77907    -55.1 1.419e+04 1.531e-09
 23.81967    -53.8 1.420e+04 1.459e-09
 23.85204    -52.5 1.421e+04 1.397e-09
 23.87233    -52.8 1.424e+04 1.366e-09
 23.90085    -51.6 1.426e+04 1.287e-09
 23.94145    -50.4 1.421e+04 1.244e-09
 23.98021    -49.2 1.411e+04 1.202e-09
 24.00050    -48.8 1.404e+04 1.699e-09
 24.00692    -47.5 1.396e+04 1.558e-09
 24.02722    -47.4 1.401e+04 1.476e-09
 24.06323    -45.9 1.402e+04 1.248e-09
 24.10382    -44.4 1.399e+04 1.165e-09
 24.14151    -42.9 1.399e+04 1.173e-09
 24.16181    -42.5 1.404e+04 1.058e-09
 24.18501    -41.1 1.394e+04 1.220e-09
 24.22560    -39.5 1.389e+04 1.453e-09
 24.26619    -38.1 1.390e+04 1.691e-09
 24.29640    -37.1 1.384e+04 2.068e-09
 24.31670    -36.7 1.398e+04 1.683e-09
 24.34738    -36.3 1.385e+04 2.524e-09
 24.38797    -36.0 1.377e+04 4.374e-09
 24.42856    -36.0 1.385e+04 6.803e-09
 24.45129    -37.1 1.400e+04 7.786e-09
 24.47159    -37.9 1.429e+04 1.021e-08
 24.50975    -39.8 1.417e+04 9.056e-09
 24.55034    -41.0 1.411e+04 5.776e-09
 24.58588    -41.5 1.410e+04 3.858e-09
 24.60618    -42.6 1.409e+04 4.868e-09
 24.62319    -42.2 1.380e+04 3.071e-09
 24.64348    -41.7 1.396e+04 3.554e-09
 24.67212    -41.1 1.373e+04 2.735e-09
 24.71272    -40.6 1.379e+04 2.781e-09
 24.74077    -40.9 1.352e+04 5.192e-09
 24.76107    -41.9 1.363e+04 6.317e-09
 24.79390    -41.5 1.350e+04 1.078e-08
 24.83450    -42.4 1.326e+04 1.136e-08
 24.87509    -42.3 1.279e+04 5.989e-09
 24.89566    -42.1 1.252e+04 2.229e-09
 24.91595    -42.7 1.256e+04 1.966e-09
 24.95628    -41.6 1.232e+04 1.021e-09
 24.99687    -40.1 1.228e+04 7.363e-10
 25.03025    -38.6 1.230e+04 6.632e-10
 25.05055    -39.7 1.273e+04 1.042e-09
 25.07806    -39.1 1.263e+04 1.641e-09
 25.11865    -38.5 1.253e+04 3.054e-09
 25.15924    -37.8 1.274e+04 4.899e-09
 25.18514    -37.9 1.297e+04 6.537e-09
 25.20543    -39.5 1.269e+04 4.927e-09
 25.23018    -39.3 1.249e+04 4.303e-09
 25.25038    -39.2 1.256e+04 3.779e-09
 25.26607    -40.2 1.238e+04 2.998e-09
 25.27622    -39.4 1.224e+04 2.508e-09
 25.29097    -39.4 1.221e+04 2.507e-09
 25.31963    -39.2 1.213e+04 2.746e-09
 25.34003    -39.3 1.196e+04 1.884e-09
 25.36221    -38.3 1.193e+04 2.421e-09
 25.40280    -37.0 1.188e+04 2.673e-09
 25.44339    -35.5 1.196e+04 2.839e-09
 25.47462    -34.1 1.209e+04 2.457e-09
 25.49491    -34.4 1.205e+04 3.295e-09
 25.52458    -32.9 1.200e+04 3.877e-09
 25.56517    -31.1 1.195e+04 4.208e-09
 25.60577    -29.2 1.193e+04 4.050e-09
 25.62951    -27.5 1.190e+04 3.843e-09
 25.64980    -28.2 1.184e+04 4.312e-09
 25.68695    -26.6 1.190e+04 4.518e-09
 25.72755    -25.1 1.214e+04 5.802e-09
 25.75789    -24.4 1.227e+04 7.389e-09
 25.77405    -23.5 1.251e+04 7.494e-09
 25.78420    -24.3 1.252e+04 7.859e-09
 25.79839    -23.8 1.262e+04 8.454e-09
 25.81869    -23.6 1.279e+04 9.338e-09
 25.83898    -23.5 1.292e+04 1.044e-08
 25.85149    -23.3 1.298e+04 1.242e-08
 25.86164    -24.2 1.287e+04 1.333e-08
 25.87958    -24.0 1.308e+04 1.478e-08
 25.89881    -23.8 1.316e+04 1.724e-08
 25.90895    -23.3 1.291e+04 1.910e-08
 25.91879    -23.3 1.312e+04 1.620e-08
 25.92894    -24.0 1.292e+04 1.111e-08
 25.94047    -25.0 1.316e+04 1.126e-08
 25.96076    -27.8 1.394e+04 1.475e-08
 25.98106    -31.8 1.452e+04 2.702e-08
 25.99623    -32.7 1.454e+04 5.465e-08
 26.00638    -32.9 1.398e+04 3.387e-08
 26.02165    -33.6 1.441e+04 4.613e-08
 26.04195    -35.8 1.489e+04 3.076e-08
 26.06224    -39.6 1.438e+04 1.477e-08
 26.07368    -42.3 1.325e+04 8.499e-09
 26.08383    -41.4 1.361e+04 1.174e-08
 26.10284    -42.6 1.306e+04 7.806e-09
 26.12313    -43.1 1.304e+04 4.633e-09
 26.14097    -43.5 1.322e+04 2.774e-09
 26.15112    -43.3 1.310e+04 3.553e-09
 26.16373    -43.7 1.331e+04 2.347e-09
 26.18402    -43.7 1.351e+04 1.960e-09
 26.20837    -43.7 1.356e+04 1.791e-09
 26.22876    -43.4 1.351e+04 2.331e-09
 26.25526    -42.8 1.363e+04 2.503e-09
 26.29585    -42.5 1.365e+04 3.797e-09
 26.32620    -42.4 1.369e+04 6.421e-09
 26.34640    -42.3 1.377e+04 7.896e-09
 26.36316    -42.0 1.396e+04 9.759e-09
 26.37330    -41.8 1.388e+04 8.949e-09
 26.38699    -41.8 1.392e+04 9.694e-09
 26.40729    -41.7 1.399e+04 1.059e-08
 26.42758    -41.9 1.402e+04 1.119e-08
 26.45813    -41.5 1.406e+04 1.215e-08
 26.49794    -41.6 1.425e+04 1.135e-08
 26.51824    -40.0 1.394e+04 1.120e-08
 26.53183    -39.9 1.416e+04 8.658e-09
 26.55203    -40.4 1.425e+04 7.329e-09
 26.56966    -40.8 1.442e+04 4.610e-09
 26.58534    -40.6 1.460e+04 4.285e-09
 26.59549    -39.7 1.454e+04 4.880e-09
 26.62050    -40.5 1.471e+04 3.427e-09
 26.65283    -40.0 1.474e+04 3.222e-09
 26.67313    -38.5 1.462e+04 4.781e-09
 26.70178    -37.9 1.474e+04 5.118e-09
 26.74238    -37.4 1.499e+04 5.726e-09
 26.77272    -37.0 1.506e+04 5.838e-09
 26.79292    -37.0 1.508e+04 5.768e-09
 26.80752    -36.9 1.514e+04 5.020e-09
 26.81767    -36.1 1.510e+04 5.917e-09
 26.83352    -36.2 1.532e+04 4.569e-09
 26.85313    -36.9 1.548e+04 3.556e-09
 26.86328    -37.0 1.557e+04 4.150e-09
 26.87411    -37.9 1.584e+04 3.936e-09
 26.88497    -39.5 1.586e+04 5.359e-09
 26.89512    -37.8 1.594e+04 4.859e-09
 26.91470    -39.3 1.557e+04 8.456e-09
 26.93500    -40.1 1.529e+04 1.527e-08
 26.95226    -40.3 1.550e+04 2.074e-08
 26.96241    -39.5 1.556e+04 2.201e-08
 26.97559    -40.5 1.570e+04 2.409e-08
 26.99589    -41.6 1.554e+04 1.853e-08
 27.02643    -42.5 1.530e+04 1.194e-08
 27.06712    -42.8 1.518e+04 6.250e-09
 27.09720    -41.5 1.520e+04 3.002e-09
 27.11750    -41.6 1.504e+04 5.412e-09
 27.14831    -39.4 1.514e+04 3.146e-09
 27.17481    -37.5 1.518e+04 2.406e-09
 27.19511    -37.1 1.555e+04 1.034e-09
 27.22949    -34.8 1.546e+04 9.696e-10
 27.25209    -32.5 1.555e+04 9.850e-10
 27.27238    -32.4 1.521e+04 1.652e-09
 27.31068    -30.6 1.520e+04 1.970e-09
 27.35127    -28.5 1.508e+04 2.890e-09
 27.38668    -26.4 1.491e+04 3.969e-09
 27.40697    -25.8 1.507e+04 3.049e-09
 27.43246    -23.9 1.493e+04 3.028e-09
 27.47305    -22.1 1.474e+04 2.688e-09
 27.51365    -20.4 1.472e+04 2.355e-09
 27.54157    -18.6 1.452e+04 2.359e-09
 27.56186    -17.6 1.461e+04 2.407e-09
 27.59483    -15.8 1.454e+04 2.791e-09
 27.63543    -14.0 1.428e+04 3.342e-09
 27.67602    -12.1 1.404e+04 3.543e-09
 27.71661     -9.3 1.399e+04 3.266e-09
 27.75721     -7.3 1.394e+04 2.591e-09
 27.79750     -5.3 1.387e+04 1.972e-09
 27.81779     -4.9 1.384e+04 1.957e-09
 27.83105     -2.6 1.370e+04 1.572e-09
 27.85134     -2.1 1.384e+04 1.739e-09
 27.87898      0.2 1.369e+04 1.745e-09
 27.91958      2.4 1.356e+04 1.989e-09
 27.96017      4.4 1.332e+04 2.715e-09
 27.98593      6.5 1.300e+04 3.928e-09
 28.00623      6.9 1.290e+04 5.500e-09
 28.04136      8.5 1.271e+04 5.487e-09
 28.08195     10.2 1.238e+04 4.577e-09
 28.12053     12.1 1.214e+04 2.780e-09
 28.14082     12.7 1.206e+04 2.235e-09
 28.16314     14.0 1.197e+04 1.416e-09
 28.20373     16.0 1.163e+04 1.375e-09
 28.24432     18.2 1.141e+04 1.500e-09
 28.27541     20.6 1.131e+04 1.688e-09
 28.29571     21.4 1.113e+04 1.337e-09
 28.32551     23.9 1.086e+04 1.480e-09
 28.36610     26.5 1.069e+04 1.431e-09
 28.40670     29.0 1.049e+04 1.314e-09
 28.43030     31.5 1.027e+04 1.200e-09
 28.44379     32.3 1.026e+04 1.060e-09
 28.46078     33.0 1.032e+04 1.224e-09
 28.48788     35.6 1.010e+04 1.305e-09
 28.52848     38.0 9.941e+03 1.363e-09
 28.56489     40.5 9.785e+03 1.395e-09
 28.58519     41.5 9.776e+03 1.261e-09
 28.60966     44.0 9.641e+03 1.341e-09
 28.65026     46.4 9.541e+03 1.359e-09
 28.69085     48.7 9.412e+03 1.320e-09
 28.71978     50.9 9.315e+03 1.228e-09
 28.74008     52.4 9.430e+03 1.439e-09
 28.77204     54.7 9.278e+03 1.353e-09
 28.81263     56.9 9.185e+03 1.332e-09
 28.85322     58.9 9.175e+03 1.384e-09
 28.87467     60.6 9.162e+03 1.685e-09
 28.89497     63.0 9.359e+03 2.026e-09
 28.93441     64.3 9.588e+03 2.883e-09
 28.97500     65.0 9.882e+03 4.509e-09
 29.00926     65.3 1.023e+04 6.567e-09
 29.02956     68.4 1.069e+04 7.906e-09
 29.05619     67.5 1.123e+04 1.146e-08
 29.08346     65.2 1.125e+04 1.115e-08
 29.10376     66.7 1.148e+04 1.359e-08
 29.13737     63.1 1.109e+04 9.637e-09
 29.16415     56.7 1.056e+04 6.876e-09
 29.17420     58.0 1.119e+04 1.029e-08
 29.18792     53.7 1.128e+04 1.076e-08
 29.20822     50.1 1.144e+04 1.250e-08
 29.22851     47.5 1.148e+04 1.433e-08
 29.24140     45.5 1.125e+04 1.495e-08
 29.25154     44.1 1.167e+04 2.000e-08
 29.26911     42.3 1.137e+04 1.690e-08
 29.28940     40.1 1.116e+04 1.458e-08
 29.30869     37.9 1.100e+04 1.262e-08
 29.31884     35.2 1.076e+04 1.009e-08
 29.33000     33.2 1.033e+04 8.438e-09
 29.35029     30.5 1.084e+04 8.363e-09
 29.37059     24.1 1.744e+04 7.738e-09
 29.38614     14.8 2.378e+04 1.486e-08
 29.39624      0.3 2.128e+04 1.187e-07
 29.40466     -0.4 1.961e+04 2.042e-07
 29.40973     -0.2 1.898e+04 2.271e-07
 29.41616     -0.4 1.826e+04 3.350e-07
 29.42476      0.3 1.802e+04 4.208e-07
 29.42983     -1.0 1.797e+04 4.709e-07
 29.43646     -0.8 1.809e+04 5.068e-07
 29.44660      0.3 1.795e+04 4.044e-07
 29.45675      1.7 1.850e+04 2.296e-07
 29.46348      1.7 2.026e+04 8.374e-08
 29.46856     -8.4 2.046e+04 1.202e-08
 29.47705    -16.3 1.460e+04 5.354e-09
 29.49232    -22.2 9.854e+03 3.302e-09
 29.51267    -22.3 9.229e+03 3.388e-09
 29.53088    -22.3 9.308e+03 3.757e-09
 29.54102    -23.8 9.252e+03 3.690e-09
 29.55326    -22.9 9.370e+03 4.215e-09
 29.57356    -22.2 9.486e+03 4.754e-09
 29.59385    -21.1 9.422e+03 4.957e-09
 29.60832    -19.9 9.555e+03 4.375e-09
 29.62871    -20.5 9.201e+03 3.127e-09
 29.66509    -18.4 9.142e+03 2.122e-09
 29.70568    -16.9 9.020e+03 1.422e-09
 29.72644    -15.4 8.816e+03 1.219e-09
 29.74357    -16.5 8.650e+03 1.128e-09
 29.76340    -17.4 8.462e+03 8.127e-10
 29.78686    -15.1 8.516e+03 8.223e-10
 29.82746    -12.9 8.648e+03 8.592e-10
 29.86805    -10.9 8.782e+03 9.419e-10
 29.89799     -9.3 8.944e+03 1.119e-09
 29.91829     -9.8 8.940e+03 1.050e-09
 29.94924     -8.5 9.297e+03 1.555e-09
 29.98983     -7.5 9.661e+03 2.189e-09
 30.02018     -7.7 1.009e+04 3.017e-09
 30.03759     -8.8 1.070e+04 4.581e-09
 30.04774     -9.5 1.083e+04 5.168e-09
 30.05269    -11.2 1.148e+04 8.892e-09
 30.06284    -11.4 1.153e+04 9.773e-09
 30.08097    -12.3 1.196e+04 1.539e-08
 30.10127    -13.0 1.232e+04 1.893e-08
 30.11998    -14.9 1.298e+04 1.834e-08
 30.13013    -17.9 1.398e+04 2.395e-08
 30.14186    -20.8 1.405e+04 2.943e-08
 30.16216    -22.8 1.362e+04 3.082e-08
 30.18245    -26.1 1.451e+04 3.615e-08
 30.19738    -36.6 1.786e+04 5.610e-08
 30.20753    -40.1 1.790e+04 5.516e-08
 30.21792    -46.9 1.732e+04 1.060e-07
 30.22802    -49.3 1.697e+04 1.444e-07
 30.23605    -49.4 1.700e+04 1.962e-07
 30.24113    -49.3 1.650e+04 1.540e-07
 30.24832    -49.4 1.631e+04 1.468e-07
 30.25847    -49.8 1.572e+04 9.899e-08
 30.26862    -50.5 1.558e+04 6.104e-08
 30.27482    -55.5 1.329e+04 2.860e-08
 30.28502    -55.0 1.288e+04 2.698e-08
 30.30423    -57.1 1.110e+04 1.330e-08
 30.32453    -57.3 1.037e+04 9.898e-09
 30.34217    -56.9 9.950e+03 8.000e-09
 30.35652    -56.8 9.732e+03 7.466e-09
 30.36942    -55.2 1.019e+04 9.014e-09
 30.38552    -54.4 9.687e+03 7.128e-09
 30.40572    -53.8 9.508e+03 6.547e-09
 30.41961    -52.4 9.261e+03 5.538e-09
 30.42976    -52.2 9.167e+03 5.450e-09
 30.44631    -52.1 9.145e+03 5.322e-09
 30.47685    -50.5 9.059e+03 4.627e-09
 30.51754    -48.9 8.918e+03 4.080e-09
 30.55814    -47.7 8.872e+03 3.547e-09
 30.59873    -46.4 8.807e+03 3.415e-09
 30.63184    -45.1 8.902e+03 3.662e-09
 30.65214    -45.6 8.775e+03 3.118e-09
 30.67991    -44.4 8.889e+03 3.188e-09
 30.72051    -43.0 9.033e+03 3.369e-09
 30.76110    -42.0 9.230e+03 3.567e-09
 30.78673    -41.3 9.519e+03 4.117e-09
 30.80703    -42.9 9.474e+03 4.207e-09
 30.84229    -42.3 9.829e+03 5.311e-09
 30.88288    -41.6 1.000e+04 5.971e-09
 30.92132    -40.8 9.998e+03 5.288e-09
 30.94162    -41.8 9.992e+03 4.729e-09
 30.96407    -40.7 9.998e+03 3.445e-09
 30.99211    -39.6 9.953e+03 2.250e-09
 31.01240    -38.4 1.027e+04 3.498e-09
 31.04525    -37.1 1.027e+04 2.574e-09
 31.07621    -35.8 1.044e+04 2.131e-09
 31.09651    -36.7 1.062e+04 2.157e-09
 31.12644    -35.4 1.064e+04 2.034e-09
 31.16703    -33.9 1.066e+04 2.295e-09
 31.20763    -32.3 1.080e+04 2.460e-09
 31.23110    -30.8 1.100e+04 2.477e-09
 31.25139    -32.1 1.112e+04 2.710e-09
 31.27857    -31.3 1.138e+04 2.924e-09
 31.29820    -31.2 1.155e+04 3.210e-09
 31.30835    -31.8 1.155e+04 3.453e-09
 31.31340    -31.8 1.156e+04 4.541e-09
 31.32355    -31.6 1.168e+04 4.773e-09
 31.33936    -31.1 1.169e+04 6.270e-09
 31.35966    -30.5 1.166e+04 7.650e-09
 31.37564    -30.0 1.175e+04 8.469e-09
 31.38579    -30.5 1.166e+04 7.391e-09
 31.40025    -30.5 1.174e+04 7.649e-09
 31.42055    -30.5 1.157e+04 8.121e-09
 31.44084    -30.2 1.150e+04 7.206e-09
 31.45309    -30.2 1.133e+04 6.643e-09
 31.46323    -30.7 1.132e+04 6.612e-09
 31.48143    -30.7 1.142e+04 6.036e-09
 31.50173    -30.8 1.146e+04 6.063e-09
 31.52038    -32.0 1.206e+04 7.501e-09
 31.54078    -32.6 1.213e+04 7.649e-09
 31.56272    -34.6 1.219e+04 1.527e-08
 31.58292    -34.3 1.208e+04 2.330e-08
 31.59782    -35.0 1.252e+04 1.939e-08
 31.60797    -36.0 1.306e+04 2.289e-08
 31.62351    -41.4 1.415e+04 2.550e-08
 31.63489    -46.8 1.405e+04 4.016e-08
 31.64504    -46.7 1.399e+04 3.903e-08
 31.66410    -49.6 1.427e+04 4.947e-08
 31.67527    -53.2 1.426e+04 4.312e-08
 31.68542    -55.1 1.465e+04 4.541e-08
 31.70470    -61.3 1.266e+04 2.233e-08
 31.72499    -64.9 1.115e+04 1.307e-08
 31.74256    -66.6 1.031e+04 7.896e-09
 31.75271    -68.6 9.910e+03 5.842e-09
 31.76559    -69.7 9.436e+03 3.813e-09
 31.78588    -70.6 9.053e+03 2.793e-09
 31.80618    -70.8 8.870e+03 2.431e-09
 31.82001    -70.8 8.821e+03 2.378e-09
 31.83025    -71.1 8.874e+03 2.392e-09
 31.85712    -70.6 8.610e+03 2.063e-09
 31.89771    -69.9 8.496e+03 1.927e-09
 31.93830    -69.4 8.499e+03 1.916e-09
 31.96494    -69.6 8.818e+03 2.411e-09
 31.98524    -70.4 8.956e+03 2.598e-09
 32.00924    -70.1 9.314e+03 3.729e-09
 32.02944    -70.4 9.371e+03 4.056e-09
 32.04219    -70.4 9.716e+03 5.654e-09
 32.05234    -70.7 9.721e+03 5.468e-09
 32.07004    -71.4 9.860e+03 6.230e-09
 32.09033    -71.6 9.980e+03 6.671e-09
 32.10949    -72.0 1.001e+04 6.733e-09
 32.11964    -72.2 9.867e+03 5.899e-09
 32.13093    -72.5 9.761e+03 5.316e-09
 32.15122    -72.8 9.626e+03 4.674e-09
 32.17152    -73.1 9.507e+03 4.171e-09
 32.18693    -73.3 9.429e+03 3.947e-09
 32.19708    -73.1 9.311e+03 3.168e-09
 32.21211    -73.0 9.290e+03 3.063e-09
 32.23241    -73.1 9.312e+03 3.063e-09
 32.25271    -73.2 9.445e+03 3.322e-09
 32.26438    -73.7 9.656e+03 3.899e-09
 32.26925    -73.1 9.519e+03 3.073e-09
 32.27787    -73.4 9.535e+03 3.077e-09
 32.29330    -74.0 9.719e+03 4.046e-09
 32.31360    -74.3 1.000e+04 5.340e-09
 32.33167    -74.3 1.041e+04 7.032e-09
 32.34182    -74.0 1.011e+04 5.456e-09
 32.35419    -74.4 1.065e+04 7.021e-09
 32.37448    -76.0 1.143e+04 1.031e-08
 32.39478    -78.0 1.228e+04 1.783e-08
 32.40912    -79.3 1.316e+04 3.123e-08
 32.41926    -79.1 1.314e+04 3.120e-08
 32.43537    -79.7 1.404e+04 4.605e-08
 32.45567    -80.9 1.433e+04 4.994e-08
 32.47597    -82.7 1.402e+04 4.162e-08
 32.48656    -84.4 1.320e+04 2.635e-08
 32.49671    -84.2 1.321e+04 2.625e-08
 32.51656    -86.0 1.254e+04 1.846e-08
 32.53686    -87.0 1.222e+04 1.501e-08
 32.55386    -87.6 1.195e+04 1.185e-08
 32.56400    -87.4 1.194e+04 1.187e-08
 32.57745    -87.9 1.166e+04 9.106e-09
 32.58921    -88.6 1.133e+04 7.115e-09
 32.59936    -88.9 1.139e+04 7.146e-09
 32.62829    -88.8 1.116e+04 5.837e-09
 32.66898    -88.9 1.100e+04 4.397e-09
 32.69879    -89.2 1.098e+04 3.507e-09
 32.71909    -88.6 1.092e+04 2.731e-09
 32.75017    -88.8 1.087e+04 2.457e-09
 32.79076    -88.7 1.088e+04 2.396e-09
 32.83135    -88.6 1.100e+04 2.423e-09
 32.85368    -88.7 1.111e+04 2.444e-09
 32.87398    -88.1 1.117e+04 2.196e-09
 32.90075    -88.6 1.130e+04 2.247e-09
 32.92105    -88.7 1.136e+04 2.180e-09
 32.95313    -89.2 1.143e+04 1.982e-09
 32.98827    -89.8 1.164e+04 1.852e-09
 33.00857    -89.8 1.194e+04 2.821e-09
 33.03432    -90.8 1.217e+04 3.103e-09
 33.07491    -91.9 1.222e+04 3.067e-09
 33.11551    -92.4 1.227e+04 2.347e-09
 33.14316    -92.7 1.237e+04 1.662e-09
 33.16345    -93.6 1.241e+04 2.503e-09
 33.19669    -93.8 1.243e+04 1.984e-09
 33.23729    -93.5 1.247e+04 1.816e-09
 33.27775    -93.1 1.251e+04 1.758e-09
 33.31834    -93.7 1.266e+04 2.436e-09
 33.35907    -93.3 1.268e+04 1.943e-09
 33.39966    -93.0 1.275e+04 1.512e-09
 33.43264    -92.8 1.278e+04 1.391e-09
 33.45293    -93.8 1.280e+04 1.589e-09
 33.48084    -93.5 1.282e+04 1.614e-09
 33.52144    -93.2 1.286e+04 2.091e-09
 33.54373    -92.9 1.298e+04 2.583e-09
 33.56403    -92.7 1.300e+04 2.825e-09
 33.58753    -92.6 1.315e+04 2.686e-09
 33.60782    -92.8 1.326e+04 2.175e-09
 33.64322    -92.5 1.348e+04 1.947e-09
 33.68381    -92.1 1.357e+04 1.603e-09
 33.72212    -91.8 1.357e+04 1.295e-09
 33.74241    -91.9 1.353e+04 1.282e-09
 33.76500    -91.4 1.348e+04 1.089e-09
 33.80559    -90.7 1.344e+04 9.565e-10
 33.84618    -89.9 1.339e+04 8.837e-10
 33.87700    -88.8 1.335e+04 8.492e-10
 33.89730    -88.7 1.333e+04 7.986e-10
 33.92737    -87.4 1.331e+04 7.463e-10
 33.96796    -86.1 1.331e+04 7.072e-10
 34.00856    -84.7 1.335e+04 6.812e-10
 34.03189    -83.3 1.337e+04 6.612e-10
 34.05219    -83.1 1.339e+04 6.378e-10
 34.08974    -81.8 1.336e+04 6.448e-10
 34.13034    -80.5 1.330e+04 6.496e-10
 34.16642    -79.5 1.327e+04 6.618e-10
 34.18671    -79.6 1.337e+04 7.233e-10
 34.21152    -79.4 1.334e+04 1.006e-09
 34.25212    -79.4 1.303e+04 2.094e-09
 34.29271    -78.8 1.300e+04 4.124e-09
 34.32137    -78.6 1.324e+04 5.304e-09
 34.34167    -78.7 1.325e+04 4.431e-09
 34.37389    -79.0 1.312e+04 4.290e-09
 34.41449    -78.7 1.295e+04 2.976e-09
 34.45508    -78.5 1.291e+04 2.048e-09
 34.47626    -78.0 1.290e+04 1.860e-09
 34.49656    -77.5 1.305e+04 1.463e-09
 34.53627    -76.6 1.315e+04 1.454e-09
 34.57686    -76.0 1.330e+04 1.627e-09
 34.61085    -75.4 1.341e+04 1.837e-09
 34.63115    -75.1 1.346e+04 1.508e-09
 34.65805    -74.7 1.357e+04 1.737e-09
 34.69864    -74.2 1.376e+04 1.824e-09
 34.73923    -73.8 1.392e+04 1.786e-09
 34.76574    -73.4 1.400e+04 1.715e-09
 34.78604    -72.9 1.398e+04 1.768e-09
 34.80940    -72.1 1.370e+04 1.676e-09
 34.82969    -71.4 1.385e+04 1.513e-09
 34.86101    -70.4 1.349e+04 1.527e-09
 34.90033    -69.0 1.317e+04 1.546e-09
 34.92063    -68.5 1.306e+04 1.523e-09
 34.94220    -66.8 1.291e+04 1.426e-09
 34.98279    -65.1 1.277e+04 1.325e-09
 35.02339    -63.4 1.271e+04 1.311e-09
 35.05522    -62.0 1.242e+04 1.594e-09
 35.07552    -61.3 1.254e+04 1.320e-09
 35.10457    -59.9 1.227e+04 1.939e-09
 35.14517    -58.3 1.208e+04 2.739e-09
 35.18576    -57.3 1.195e+04 3.427e-09
 35.21011    -56.5 1.180e+04 4.259e-09
 35.23040    -56.0 1.201e+04 4.435e-09
 35.25670    -55.2 1.195e+04 5.749e-09
 35.27690    -55.4 1.186e+04 6.238e-09
 35.28736    -55.4 1.176e+04 7.817e-09
 35.29750    -55.2 1.196e+04 8.716e-09
 35.31749    -55.7 1.195e+04 9.786e-09
 35.33779    -56.0 1.202e+04 1.217e-08
 35.35465    -56.3 1.206e+04 1.282e-08
 35.36480    -56.3 1.232e+04 1.501e-08
 35.37838    -56.9 1.203e+04 1.550e-08
 35.39868    -56.6 1.192e+04 1.383e-08
 35.41897    -57.4 1.129e+04 9.617e-09
 35.43210    -56.8 1.122e+04 8.086e-09
 35.44224    -57.0 1.125e+04 8.839e-09
 35.45228    -56.8 1.053e+04 4.562e-09
 35.47268    -57.1 1.052e+04 4.264e-09
 35.49959    -56.5 9.774e+03 2.476e-09
 35.51988    -56.2 9.880e+03 2.853e-09
 35.55110    -54.5 9.485e+03 2.359e-09
 35.59169    -52.8 9.305e+03 2.230e-09
 35.63228    -51.2 9.113e+03 2.177e-09
 35.65447    -49.3 8.867e+03 2.028e-09
 35.67477    -48.7 8.948e+03 2.247e-09
 35.71347    -46.7 8.775e+03 1.861e-09
 35.75406    -44.8 8.653e+03 1.173e-09
 35.78907    -43.4 8.378e+03 8.337e-10
 35.80936    -42.4 8.696e+03 1.150e-09
 35.83525    -40.9 8.487e+03 9.033e-10
 35.87584    -39.2 8.213e+03 8.275e-10
 35.91644    -37.4 8.091e+03 7.304e-10
 35.94395    -35.6 8.007e+03 6.886e-10
 35.96425    -35.2 8.284e+03 8.469e-10
 35.99762    -33.4 8.257e+03 7.961e-10
 36.03822    -31.8 8.287e+03 9.008e-10
 36.07506    -30.3 8.415e+03 1.233e-09
 36.09510    -30.0 8.516e+03 1.286e-09
 36.09884    -29.7 8.588e+03 1.333e-09
 36.11940    -28.1 8.759e+03 1.918e-09
 36.15999    -26.1 8.959e+03 2.608e-09
 36.20059    -24.3 9.203e+03 2.702e-09
 36.23343    -22.5 9.292e+03 2.433e-09
 36.25373    -22.1 9.390e+03 2.538e-09
 36.28177    -20.7 9.621e+03 2.580e-09
 36.32237    -19.4 9.882e+03 3.005e-09
 36.36296    -18.1 1.019e+04 3.929e-09
 36.38832    -16.7 1.055e+04 4.898e-09
 36.40862    -16.8 1.093e+04 6.438e-09
 36.43390    -16.1 1.099e+04 6.294e-09
 36.45410    -15.9 1.118e+04 6.943e-09
 36.46557    -15.5 1.132e+04 7.513e-09
 36.47572    -15.7 1.150e+04 8.270e-09
 36.49469    -15.5 1.171e+04 9.163e-09
 36.51499    -15.4 1.193e+04 1.022e-08
 36.53287    -15.3 1.210e+04 1.136e-08
 36.54301    -15.8 1.220e+04 1.188e-08
 36.55558    -15.6 1.223e+04 1.177e-08
 36.57588    -15.2 1.223e+04 1.094e-08
 36.59618    -14.8 1.233e+04 9.899e-09
 36.61031    -14.5 1.251e+04 9.160e-09
 36.62046    -14.6 1.232e+04 6.436e-09
 36.63677    -14.3 1.249e+04 6.292e-09
 36.65707    -14.1 1.273e+04 6.925e-09
 36.67736    -13.7 1.300e+04 8.620e-09
 36.68775    -13.3 1.321e+04 1.124e-08
 36.69790    -13.3 1.309e+04 8.437e-09
 36.71785    -12.7 1.327e+04 1.099e-08
 36.72800    -11.7 1.309e+04 8.195e-09
 36.73825    -11.2 1.329e+04 1.085e-08
 36.75505    -10.6 1.345e+04 1.318e-08
 36.76520    -10.4 1.330e+04 1.026e-08
 36.77885     -9.8 1.331e+04 1.084e-08
 36.79914     -9.2 1.327e+04 1.059e-08
 36.81944     -8.4 1.308e+04 9.412e-09
 36.83249     -7.6 1.293e+04 7.662e-09
 36.84264     -7.1 1.281e+04 6.620e-09
 36.86003     -6.4 1.278e+04 5.450e-09
 36.88033     -5.6 1.274e+04 4.508e-09
 36.89979     -4.8 1.267e+04 3.792e-09
 36.90994     -4.3 1.264e+04 3.641e-09
 36.92092     -3.5 1.264e+04 3.146e-09
 36.94122     -3.0 1.259e+04 2.923e-09
 36.96151     -1.6 1.259e+04 2.889e-09
 36.97723     -1.2 1.259e+04 2.898e-09
 36.98738     -0.7 1.268e+04 3.043e-09
 37.00211      1.0 1.268e+04 3.208e-09
 37.02240      1.5 1.269e+04 3.306e-09
 37.03934      2.7 1.261e+04 3.418e-09
 37.04949      3.3 1.266e+04 3.798e-09
 37.05468      4.4 1.270e+04 4.072e-09
 37.06483      4.5 1.284e+04 4.900e-09
 37.08329      5.4 1.289e+04 5.190e-09
 37.10359      6.3 1.290e+04 5.097e-09
 37.12197      7.3 1.290e+04 4.704e-09
 37.13212      7.3 1.303e+04 5.639e-09
 37.14418      8.3 1.299e+04 4.933e-09
 37.16448      9.5 1.300e+04 3.862e-09
 37.18478     10.0 1.307e+04 3.326e-09
 37.21532     11.6 1.305e+04 2.771e-09
 37.25601     14.0 1.305e+04 2.226e-09
 37.27706     16.7 1.312e+04 2.031e-09
 37.29735     16.8 1.317e+04 1.994e-09
 37.33720     19.7 1.324e+04 2.075e-09
 37.36103     22.6 1.345e+04 2.432e-09
 37.38132     22.5 1.358e+04 2.778e-09
 37.40814     24.0 1.350e+04 3.084e-09
 37.42160     24.8 1.341e+04 3.502e-09
 37.43175     24.8 1.339e+04 3.512e-09
 37.44863     26.5 1.343e+04 4.516e-09
 37.46893     27.5 1.360e+04 5.251e-09
 37.48890     28.4 1.371e+04 6.043e-09
 37.49904     28.1 1.362e+04 5.569e-09
 37.50952     29.0 1.377e+04 6.521e-09
 37.52982     29.8 1.390e+04 7.561e-09
 37.55012     30.4 1.402e+04 8.519e-09
 37.56634     30.9 1.416e+04 9.390e-09
 37.57649     30.9 1.407e+04 7.099e-09
 37.59071     31.4 1.422e+04 7.445e-09
 37.61101     31.8 1.437e+04 7.832e-09
 37.63130     32.2 1.454e+04 8.218e-09
 37.64378     32.7 1.467e+04 8.550e-09
 37.65393     33.1 1.459e+04 6.571e-09
 37.67190     33.3 1.465e+04 6.712e-09
 37.70103     34.1 1.465e+04 8.353e-09
 37.72142     35.5 1.447e+04 5.302e-09
 37.74313     37.8 1.458e+04 5.264e-09
 37.78372     40.0 1.474e+04 5.124e-09
 37.82432     42.3 1.485e+04 5.046e-09
 37.85601     44.6 1.496e+04 5.524e-09
 37.87631     45.5 1.478e+04 4.930e-09
 37.90550     47.5 1.482e+04 6.056e-09
 37.94610     49.4 1.483e+04 7.525e-09
 37.98371     51.0 1.479e+04 8.232e-09
 38.00401     50.9 1.488e+04 7.996e-09
 38.01090     52.2 1.484e+04 7.862e-09
 38.03120     53.0 1.471e+04 5.781e-09
 38.06787     54.5 1.459e+04 5.451e-09
 38.10847     56.1 1.453e+04 4.811e-09
 38.14549     57.8 1.433e+04 4.179e-09
 38.16579     58.4 1.434e+04 3.303e-09
 38.18965     60.5 1.403e+04 3.213e-09
 38.23025     62.6 1.397e+04 3.243e-09
 38.27084     64.8 1.387e+04 3.564e-09
 38.30038     66.9 1.394e+04 4.274e-09
 38.31043     67.2 1.396e+04 3.801e-09
 38.31515     67.8 1.397e+04 4.181e-09
 38.32530     67.5 1.394e+04 4.279e-09
 38.34168     68.2 1.392e+04 4.831e-09
 38.36198     68.9 1.393e+04 5.471e-09
 38.37763     69.4 1.398e+04 6.189e-09
 38.38778     69.9 1.397e+04 6.368e-09
 38.40257     70.3 1.404e+04 7.335e-09
 38.42287     70.6 1.412e+04 8.175e-09
 38.44317     70.7 1.416e+04 8.303e-09
 38.45507     70.8 1.415e+04 8.152e-09
 38.46522     71.3 1.415e+04 9.094e-09
 38.48376     71.2 1.412e+04 8.733e-09
 38.50406     71.1 1.401e+04 8.004e-09
 38.52237     70.9 1.386e+04 7.211e-09
 38.53252     70.9 1.389e+04 8.205e-09
 38.54465     70.8 1.372e+04 7.472e-09
 38.56495     70.9 1.360e+04 6.878e-09
 38.58524     70.9 1.356e+04 6.440e-09
 38.59981     70.8 1.350e+04 6.261e-09
 38.60996     70.3 1.348e+04 6.429e-09
 38.62584     69.9 1.336e+04 6.387e-09
 38.63664     69.6 1.332e+04 6.499e-09
 38.64679     69.7 1.330e+04 6.528e-09
 38.66643     69.3 1.322e+04 6.925e-09
 38.67726     68.6 1.326e+04 7.495e-09
 38.68741     67.2 1.335e+04 7.513e-09
 38.70702     65.2 1.359e+04 8.147e-09
 38.72732     62.9 1.407e+04 1.116e-08
 38.74455     61.1 1.416e+04 1.623e-08
 38.75470     59.7 1.445e+04 2.198e-08
 38.76791     58.5 1.437e+04 2.514e-08
 38.78821     57.3 1.435e+04 2.853e-08
 38.80850     55.8 1.463e+04 3.608e-08
 38.82200     54.0 1.511e+04 5.030e-08
 38.83215     53.0 1.499e+04 4.415e-08
 38.84910     51.2 1.531e+04 6.037e-08
 38.86939     49.6 1.575e+04 7.968e-08
 38.88457     48.8 1.608e+04 9.313e-08
 38.89427     47.7 1.655e+04 1.128e-07
 38.89934     47.4 1.636e+04 1.026e-07
 38.90482     46.4 1.651e+04 1.112e-07
 38.91496     45.5 1.647e+04 1.092e-07
 38.92511     44.6 1.634e+04 1.018e-07
 38.93299     43.6 1.610e+04 9.063e-08
 38.93807     43.5 1.572e+04 7.664e-08
 38.94541     42.5 1.542e+04 6.752e-08
 38.95296     41.6 1.509e+04 6.239e-08
 38.95804     42.6 1.510e+04 6.228e-08
 38.96571     41.6 1.507e+04 6.225e-08
 38.97171     40.8 1.505e+04 6.303e-08
 38.97679     41.1 1.475e+04 5.462e-08
 38.98600     40.3 1.485e+04 5.768e-08
 38.99615     39.6 1.499e+04 6.180e-08
 39.00536     38.8 1.517e+04 6.979e-08
 39.01044     39.2 1.495e+04 6.122e-08
 39.01645     38.6 1.508e+04 7.007e-08
 39.02660     37.8 1.517e+04 7.622e-08
 39.03674     37.6 1.514e+04 7.602e-08
 39.04413     36.6 1.516e+04 7.585e-08
 39.05433     37.7 1.515e+04 7.599e-08
 39.07236     36.6 1.497e+04 6.881e-08
 39.09266     35.5 1.445e+04 5.153e-08
 39.11148     33.6 1.377e+04 3.298e-08
 39.12163     35.4 1.414e+04 4.099e-08
 39.13325     32.9 1.373e+04 3.017e-08
 39.15355     29.8 1.346e+04 2.686e-08
 39.17384     26.9 1.341e+04 2.743e-08
 39.18892     23.9 1.345e+04 2.831e-08
 39.19907     24.5 1.433e+04 4.137e-08
 39.21444     21.3 1.419e+04 3.791e-08
 39.23473     18.5 1.380e+04 2.810e-08
 39.25503     15.5 1.330e+04 1.744e-08
 39.26637     13.6 1.299e+04 1.210e-08
 39.27066     12.7 1.307e+04 1.197e-08
 39.27962     12.3 1.295e+04 9.297e-09
 39.29562     10.7 1.278e+04 7.684e-09
 39.32361      9.6 1.244e+04 5.816e-09
 39.34400      8.9 1.244e+04 6.006e-09
 39.36686      9.4 1.207e+04 3.897e-09
 39.40745     10.2 1.179e+04 2.415e-09
 39.44804     11.4 1.158e+04 1.569e-09
 39.47860     12.8 1.154e+04 1.083e-09
 39.49889     13.1 1.146e+04 1.335e-09
 39.52923     14.7 1.129e+04 1.109e-09
 39.56982     16.4 1.104e+04 1.044e-09
 39.61042     18.2 1.096e+04 1.089e-09
 39.63348     19.8 1.080e+04 1.288e-09
 39.65378     20.6 1.071e+04 1.322e-09
 39.69160     22.2 1.057e+04 1.397e-09
 39.73220     23.6 1.045e+04 1.379e-09
 39.76808     24.9 1.030e+04 1.307e-09
 39.78837     26.3 1.017e+04 1.020e-09
 39.81338     27.6 1.005e+04 1.007e-09
 39.85397     28.7 1.002e+04 1.082e-09
 39.89236     29.3 1.014e+04 1.337e-09
 39.91265     30.1 9.989e+03 1.323e-09
 39.92287     30.6 1.009e+04 1.421e-09
 39.93292     31.4 9.992e+03 1.351e-09
 39.94511     31.3 1.010e+04 1.485e-09
 39.96541     30.4 1.047e+04 1.934e-09
 39.98571     25.8 1.200e+04 5.353e-09
 40.00021     20.0 1.412e+04 3.064e-08
 40.01036     21.5 1.373e+04 2.265e-08
 40.02630     17.6 1.443e+04 4.940e-08
 40.04660     15.6 1.401e+04 4.215e-08
 40.06689     13.1 1.309e+04 1.837e-08
 40.07766      7.5 1.162e+04 4.307e-09
 40.08780      9.6 1.185e+04 5.553e-09
 40.10749      2.6 9.308e+03 2.002e-09
 40.13803      2.1 8.530e+03 1.452e-09
 40.17872      1.3 8.648e+03 1.364e-09
 40.21244      1.3 8.615e+03 1.449e-09
 40.23274      2.7 8.462e+03 1.236e-09
 40.25991      2.8 8.504e+03 1.404e-09
 40.30050      2.4 8.922e+03 2.116e-09
 40.34109      1.4 9.976e+03 4.292e-09
 40.36723      1.3 1.067e+04 7.086e-09
 40.37728      1.5 1.062e+04 6.911e-09
 40.39164      0.6 1.116e+04 1.142e-08
 40.41194     -0.0 1.139e+04 1.478e-08
 40.43223     -0.2 1.137e+04 1.486e-08
 40.44458     -0.6 1.119e+04 1.149e-08
 40.45473     -0.2 1.101e+04 1.062e-08
 40.47283     -1.3 1.075e+04 7.642e-09
 40.49312     -2.8 1.055e+04 5.993e-09
 40.51188     -4.1 1.047e+04 5.740e-09
 40.52202     -3.8 1.044e+04 5.712e-09
 40.53372     -4.6 1.043e+04 5.886e-09
 40.54529     -5.1 1.050e+04 5.882e-09
 40.55544     -3.7 1.052e+04 6.312e-09
 40.57431     -4.4 1.061e+04 6.210e-09
 40.58932     -5.4 1.085e+04 6.729e-09
 40.59947     -6.2 1.105e+04 7.291e-09
 40.61490    -10.0 1.212e+04 9.927e-09
 40.63520    -15.6 1.423e+04 2.296e-08
 40.65549    -18.3 1.532e+04 7.260e-08
 40.66676    -20.0 1.617e+04 1.008e-07
 40.67691    -19.5 1.512e+04 5.890e-08
 40.69609    -22.5 1.577e+04 6.931e-08
 40.71638    -25.8 1.569e+04 6.459e-08
 40.73406    -28.4 1.513e+04 5.632e-08
 40.74421    -26.0 1.509e+04 5.716e-08
 40.75698    -27.8 1.514e+04 5.716e-08
 40.77727    -29.5 1.501e+04 5.172e-08
 40.79757    -31.2 1.442e+04 3.611e-08
 40.81150    -33.2 1.356e+04 2.307e-08
 40.82165    -31.3 1.424e+04 2.927e-08
 40.83816    -33.9 1.326e+04 1.875e-08
 40.85663    -36.2 1.274e+04 1.644e-08
 40.86678    -35.3 1.308e+04 1.923e-08
 40.87876    -37.2 1.300e+04 2.055e-08
 40.89905    -38.0 1.349e+04 2.924e-08
 40.91935    -39.0 1.386e+04 3.450e-08
 40.93965    -40.2 1.391e+04 3.498e-08
 40.95624    -41.3 1.360e+04 2.777e-08
 40.96639    -40.2 1.363e+04 2.599e-08
 40.98024    -41.5 1.310e+04 1.760e-08
 41.00054    -42.6 1.260e+04 1.338e-08
 41.02083    -43.2 1.231e+04 1.131e-08
 41.03369    -43.4 1.217e+04 1.015e-08
 41.04384    -42.6 1.226e+04 1.050e-08
 41.06143    -42.7 1.219e+04 9.971e-09
 41.08172    -42.6 1.212e+04 8.929e-09
 41.10098    -42.6 1.202e+04 7.160e-09
 41.11113    -41.7 1.214e+04 8.387e-09
 41.12232    -41.7 1.202e+04 6.074e-09
 41.14261    -41.8 1.188e+04 4.225e-09
 41.16291    -41.8 1.161e+04 3.246e-09
 41.17812    -41.7 1.153e+04 2.698e-09
 41.18349    -41.9 1.153e+04 2.712e-09
 41.18857    -41.0 1.159e+04 2.693e-09
 41.20350    -40.8 1.142e+04 2.391e-09
 41.23405    -40.2 1.132e+04 2.311e-09
 41.25607    -38.7 1.114e+04 2.265e-09
 41.27636    -37.3 1.113e+04 2.166e-09
 41.31533    -35.6 1.089e+04 2.109e-09
 41.35592    -34.1 1.078e+04 2.141e-09
 41.39066    -32.9 1.073e+04 2.308e-09
 41.41095    -31.8 1.081e+04 2.677e-09
 41.42686    -31.1 1.058e+04 2.907e-09
 41.44706    -31.1 1.056e+04 2.968e-09
 41.46736    -30.5 1.042e+04 3.332e-09
 41.47805    -30.4 1.039e+04 3.392e-09
 41.48820    -30.2 1.044e+04 3.513e-09
 41.49961    -29.6 1.030e+04 3.551e-09
 41.50976    -29.8 1.047e+04 4.177e-09
 41.52825    -29.5 1.039e+04 4.003e-09
 41.54535    -29.1 1.024e+04 3.557e-09
 41.56574    -28.4 1.015e+04 3.197e-09
 41.59948    -27.6 9.838e+03 2.760e-09
 41.64007    -26.0 9.629e+03 2.670e-09
 41.68014    -24.2 9.543e+03 2.672e-09
 41.70043    -23.1 9.597e+03 2.717e-09
 41.72126    -21.3 9.569e+03 2.772e-09
 41.76185    -19.6 9.567e+03 2.807e-09
 41.80100    -17.8 9.639e+03 2.984e-09
 41.82120    -18.2 9.778e+03 3.463e-09
 41.83270    -17.0 9.915e+03 4.560e-09
 41.84498    -16.5 9.883e+03 4.881e-09
 41.85513    -16.3 1.017e+04 5.926e-09
 41.87329    -15.1 1.025e+04 6.138e-09
 41.89359    -14.3 1.009e+04 5.971e-09
 41.91227    -13.2 1.005e+04 5.852e-09
 41.92242    -13.2 1.017e+04 6.178e-09
 41.93418    -12.5 1.002e+04 5.521e-09
 41.95448    -11.6 9.931e+03 5.264e-09
 41.97477    -10.8 9.897e+03 5.213e-09
 41.98972     -9.8 9.935e+03 5.391e-09
 41.99987    -10.2 9.938e+03 5.334e-09
 42.01537     -9.6 9.946e+03 5.484e-09
 42.03566     -9.0 1.019e+04 6.904e-09
 42.05596     -8.6 1.041e+04 7.884e-09
 42.06716     -7.9 1.066e+04 9.341e-09
 42.07731     -8.6 1.064e+04 9.206e-09
 42.09655     -8.1 1.080e+04 8.923e-09
 42.11685     -8.3 1.070e+04 7.707e-09
 42.13245     -9.2 1.052e+04 7.245e-09
 42.13990    -10.3 1.053e+04 7.313e-09
 42.14461    -12.1 1.041e+04 6.612e-09
 42.15744    -13.1 1.043e+04 7.515e-09
 42.17774    -14.2 1.063e+04 9.544e-09
 42.19804    -14.8 1.091e+04 1.283e-08
 42.21190    -15.2 1.133e+04 1.585e-08
 42.22205    -16.0 1.116e+04 1.404e-08
 42.23863    -17.0 1.137e+04 1.411e-08
 42.25893    -19.1 1.158e+04 1.371e-08
 42.27920    -23.1 1.235e+04 1.600e-08
 42.29949    -28.5 1.330e+04 2.340e-08
 42.31982    -32.4 1.469e+04 4.483e-08
 42.33499    -34.6 1.570e+04 6.303e-08
 42.34509    -35.4 1.599e+04 6.694e-08
 42.35524    -38.2 1.669e+04 7.896e-08
 42.36162    -40.7 1.753e+04 9.184e-08
 42.36669    -39.5 1.684e+04 7.614e-08
 42.37553    -43.0 1.732e+04 8.503e-08
 42.38568    -45.5 1.786e+04 1.101e-07
 42.39527    -47.4 1.779e+04 1.386e-07
 42.40034    -46.9 1.770e+04 1.112e-07
 42.40598    -47.8 1.783e+04 1.400e-07
 42.42125    -48.8 1.799e+04 1.583e-07
 42.43404    -50.4 1.838e+04 1.824e-07
 42.43906    -50.5 1.836e+04 2.039e-07
 42.44657    -51.4 1.854e+04 2.205e-07
 42.45384    -51.8 1.867e+04 2.263e-07
 42.46404    -53.2 1.890e+04 1.047e-07
 42.48219    -56.1 1.900e+04 5.408e-08
 42.50138    -59.0 1.728e+04 3.694e-08
 42.51153    -57.8 1.788e+04 6.334e-08
 42.52278    -59.8 1.618e+04 3.491e-08
 42.54308    -60.4 1.436e+04 2.815e-08
 42.56337    -60.2 1.384e+04 2.676e-08
 42.57882    -59.5 1.365e+04 2.584e-08
 42.58897    -59.3 1.348e+04 2.053e-08
 42.60397    -58.6 1.328e+04 1.933e-08
 42.62426    -57.8 1.306e+04 1.786e-08
 42.64456    -57.0 1.279e+04 1.584e-08
 42.65627    -56.3 1.249e+04 1.344e-08
 42.66642    -56.3 1.242e+04 1.234e-08
 42.69540    -55.4 1.209e+04 1.111e-08
 42.72376    -53.2 1.157e+04 8.303e-09
 42.74406    -52.6 1.157e+04 8.404e-09
 42.77668    -49.9 1.117e+04 6.634e-09
 42.81728    -47.0 1.094e+04 5.529e-09
 42.85787    -44.3 1.087e+04 5.187e-09
 42.87865    -41.6 1.087e+04 5.149e-09
 42.89894    -41.1 1.080e+04 5.148e-09
 42.93906    -38.4 1.074e+04 4.897e-09
 42.97965    -35.8 1.066e+04 4.386e-09
 43.01324    -33.1 1.062e+04 4.031e-09
 43.03354    -32.5 1.036e+04 2.846e-09
 43.06084    -29.8 1.034e+04 2.720e-09
 43.08696    -27.1 1.048e+04 2.915e-09
 43.10726    -26.7 1.049e+04 2.981e-09
 43.14202    -24.3 1.077e+04 3.712e-09
 43.16803    -21.8 1.092e+04 4.329e-09
 43.17808    -21.3 1.068e+04 3.568e-09
 43.19257    -20.4 1.063e+04 3.916e-09
 43.21287    -18.6 1.103e+04 4.765e-09
 43.23316    -17.8 1.098e+04 5.138e-09
 43.24538    -16.1 1.146e+04 6.420e-09
 43.25552    -15.3 1.110e+04 4.691e-09
 43.27376    -15.1 1.116e+04 4.933e-09
 43.29405    -13.3 1.147e+04 5.830e-09
 43.31267    -12.5 1.146e+04 6.857e-09
 43.32282    -12.1 1.124e+04 4.472e-09
 43.33465    -10.5 1.139e+04 5.760e-09
 43.35494     -9.4 1.154e+04 6.981e-09
 43.37524     -8.1 1.164e+04 8.665e-09
 43.39012     -7.0 1.185e+04 1.019e-08
 43.40026     -6.6 1.163e+04 7.972e-09
 43.40826     -4.8 1.170e+04 1.066e-08
 43.41841     -5.0 1.190e+04 1.248e-08
 43.43613     -3.9 1.243e+04 1.300e-08
 43.45642     -2.9 1.243e+04 1.479e-08
 43.46756     -1.9 1.280e+04 1.551e-08
 43.47771     -1.3 1.248e+04 1.480e-08
 43.49702     -0.3 1.294e+04 1.591e-08
 43.51731      0.2 1.324e+04 1.769e-08
 43.53486      0.7 1.358e+04 2.203e-08
 43.54500      0.8 1.349e+04 2.114e-08
 43.55791      1.0 1.414e+04 2.945e-08
 43.57820      1.0 1.494e+04 4.520e-08
 43.59850      1.2 1.568e+04 6.830e-08
 43.61230      1.4 1.616e+04 8.790e-08
 43.62245      0.7 1.593e+04 7.580e-08
 43.63909      0.7 1.638e+04 9.058e-08
 43.65939      0.6 1.652e+04 9.115e-08
 43.67959      0.7 1.630e+04 7.880e-08
 43.69989      0.4 1.582e+04 6.668e-08
 43.71960      1.1 1.576e+04 5.676e-08
 43.72975      0.5 1.525e+04 3.860e-08
 43.74058      1.4 1.500e+04 3.353e-08
 43.75704      2.6 1.463e+04 2.676e-08
 43.76719      2.0 1.439e+04 2.276e-08
 43.78117      3.2 1.436e+04 1.748e-08
 43.80147      4.4 1.435e+04 1.772e-08
 43.82176      5.8 1.443e+04 1.857e-08
 43.83448      7.3 1.437e+04 1.650e-08
 43.84463      6.7 1.411e+04 9.779e-09
 43.86236      8.2 1.396e+04 8.982e-09
 43.88265      9.6 1.389e+04 9.288e-09
 43.90178     10.7 1.381e+04 9.714e-09
 43.91193      9.7 1.339e+04 6.784e-09
 43.92325     10.8 1.314e+04 6.914e-09
 43.94354     11.8 1.305e+04 6.871e-09
 43.96384     12.6 1.292e+04 6.466e-09
 43.97922     13.3 1.269e+04 6.203e-09
 43.98937     12.2 1.255e+04 5.409e-09
 44.00443     12.8 1.233e+04 5.189e-09
 44.02473     13.4 1.220e+04 5.055e-09
 44.04109     14.0 1.219e+04 5.122e-09
 44.05124     14.0 1.217e+04 5.148e-09
 44.05667     14.7 1.212e+04 5.321e-09
 44.06681     14.0 1.200e+04 4.419e-09
 44.08562     14.7 1.190e+04 4.680e-09
 44.10592     15.0 1.189e+04 5.400e-09
 44.12396     15.1 1.199e+04 6.731e-09
 44.13411     15.2 1.187e+04 6.350e-09
 44.14651     15.5 1.202e+04 8.418e-09
 44.16681     15.7 1.236e+04 1.173e-08
 44.18710     15.6 1.287e+04 1.690e-08
 44.20141     15.2 1.364e+04 2.497e-08
 44.21155     16.3 1.326e+04 2.189e-08
 44.22770     15.9 1.397e+04 3.187e-08
 44.24799     15.4 1.455e+04 4.346e-08
 44.26829     14.9 1.484e+04 4.981e-08
 44.27885     14.7 1.462e+04 4.694e-08
 44.28900     16.3 1.474e+04 4.868e-08
 44.30888     16.4 1.448e+04 4.371e-08
 44.32918     16.7 1.394e+04 3.421e-08
 44.34615     17.2 1.322e+04 2.427e-08
 44.35629     18.8 1.376e+04 3.132e-08
 44.36258     19.3 1.327e+04 2.318e-08
 44.37273     19.1 1.293e+04 1.916e-08
 44.39007     19.4 1.226e+04 1.297e-08
 44.41036     19.5 1.154e+04 8.790e-09
 44.42359     19.7 1.075e+04 6.431e-09
 44.43374     21.4 1.217e+04 1.030e-08
 44.45096     21.3 1.133e+04 7.646e-09
 44.47125     21.0 1.064e+04 6.587e-09
 44.49089     20.9 1.027e+04 5.940e-09
 44.50103     22.3 1.182e+04 9.569e-09
 44.51185     21.9 1.105e+04 7.852e-09
 44.53214     21.5 1.063e+04 6.586e-09
 44.55244     21.2 1.044e+04 5.697e-09
 44.56833     20.9 1.038e+04 5.066e-09
 44.57848     21.3 1.076e+04 6.524e-09
 44.59303     20.9 1.055e+04 5.759e-09
 44.61333     20.8 1.046e+04 5.260e-09
 44.63363     21.0 1.036e+04 4.729e-09
 44.64577     21.0 1.026e+04 4.322e-09
 44.65592     21.4 1.044e+04 4.546e-09
 44.67392     21.5 1.025e+04 4.080e-09
 44.68407     20.9 1.004e+04 4.077e-09
 44.69452     21.3 1.002e+04 3.788e-09
 44.71307     21.9 1.000e+04 3.462e-09
 44.72322     22.2 9.993e+03 3.292e-09
 44.73511     22.9 9.997e+03 2.907e-09
 44.75541     23.6 1.001e+04 2.462e-09
 44.77570     23.8 1.012e+04 2.381e-09
 44.79051     24.8 1.012e+04 2.233e-09
 44.81091     25.9 1.019e+04 2.112e-09
 44.84694     27.3 1.029e+04 2.266e-09
 44.86805     27.5 1.039e+04 2.923e-09
 44.87811     28.6 1.032e+04 2.582e-09
 44.89748     29.2 1.042e+04 3.139e-09
 44.91778     30.0 1.048e+04 3.998e-09
 44.93525     30.9 1.070e+04 4.637e-09
 44.94540     32.0 1.058e+04 4.430e-09
 44.95837     32.8 1.084e+04 4.804e-09
 44.97867     33.5 1.099e+04 4.717e-09
 44.99541     34.0 1.120e+04 4.351e-09
 45.00556     33.5 1.119e+04 4.583e-09
 45.01270     33.7 1.134e+04 4.634e-09
 45.02285     35.1 1.132e+04 4.637e-09
 45.03956     35.2 1.148e+04 4.759e-09
 45.05986     34.4 1.210e+04 5.757e-09
 45.07999     33.0 1.352e+04 1.025e-08
 45.09014     35.7 1.206e+04 6.863e-09
 45.10045     34.4 1.315e+04 1.210e-08
 45.12075     33.3 1.360e+04 2.437e-08
 45.14104     32.9 1.361e+04 3.823e-08
 45.15744     32.5 1.391e+04 4.332e-08
 45.16758     33.1 1.413e+04 4.954e-08
 45.18164     31.7 1.446e+04 5.489e-08
 45.20193     29.5 1.460e+04 5.443e-08
 45.22223     27.5 1.432e+04 5.098e-08
 45.23488     26.3 1.379e+04 4.596e-08
 45.24503     25.8 1.419e+04 5.238e-08
 45.26282     25.1 1.338e+04 4.361e-08
 45.28312     25.2 1.276e+04 3.572e-08
 45.30218     25.5 1.226e+04 2.860e-08
 45.31232     25.0 1.173e+04 2.615e-08
 45.31690     25.7 1.127e+04 2.051e-08
 45.32705     24.9 1.094e+04 1.717e-08
 45.34401     25.4 1.050e+04 1.318e-08
 45.36430     25.9 1.010e+04 1.031e-08
 45.37962     26.2 9.807e+03 8.804e-09
 45.38977     26.2 9.718e+03 6.407e-09
 45.40490     26.8 9.421e+03 5.417e-09
 45.42519     27.5 9.291e+03 5.252e-09
 45.44549     28.4 9.259e+03 5.417e-09
 45.45706     29.0 9.309e+03 5.841e-09
 45.46721     28.9 8.912e+03 4.892e-09
 45.48608     29.4 9.232e+03 6.255e-09
 45.50638     29.7 9.321e+03 6.616e-09
 45.52446     30.2 9.693e+03 7.884e-09
 45.54485     31.3 9.098e+03 6.409e-09
 45.57761     31.8 9.623e+03 8.613e-09
 45.61821     32.4 9.714e+03 8.301e-09
 45.65880     31.2 8.638e+03 2.873e-09
 45.67944     30.4 8.435e+03 2.190e-09
 45.69974     33.0 8.871e+03 3.756e-09
 45.72974     32.1 9.233e+03 4.051e-09
 45.74654     31.7 9.356e+03 4.321e-09
 45.75669     32.8 9.232e+03 4.503e-09
 45.77024     32.7 9.364e+03 5.053e-09
 45.79053     32.3 9.711e+03 6.307e-09
 45.81083     31.9 1.010e+04 8.762e-09
 45.82399     32.0 1.038e+04 1.177e-08
 45.83414     33.2 1.032e+04 1.064e-08
 45.85142     33.3 1.072e+04 1.403e-08
 45.87172     33.5 1.087e+04 1.447e-08
 45.89128     32.7 1.135e+04 1.373e-08
 45.90143     34.5 1.136e+04 1.610e-08
 45.91231     34.3 1.140e+04 1.385e-08
 45.93261     32.7 1.179e+04 1.395e-08
 45.94974     31.6 1.171e+04 1.307e-08
 45.95989     31.6 1.167e+04 1.194e-08
 45.96873     29.9 1.159e+04 1.185e-08
 45.97888     31.3 1.184e+04 1.401e-08
 45.99350     30.3 1.191e+04 1.455e-08
 46.01380     29.9 1.189e+04 1.341e-08
 46.03409     30.1 1.182e+04 1.089e-08
 46.04617     30.6 1.150e+04 7.667e-09
 46.05632     31.2 1.214e+04 1.349e-08
 46.07469     31.5 1.172e+04 8.545e-09
 46.09498     31.5 1.130e+04 5.331e-09
 46.11347     31.6 1.095e+04 3.560e-09
 46.12362     32.5 1.128e+04 5.397e-09
 46.13557     32.2 1.105e+04 3.574e-09
 46.15587     32.1 1.074e+04 2.981e-09
 46.17617     32.2 1.054e+04 2.988e-09
 46.19091     32.5 1.047e+04 3.028e-09
 46.20106     33.0 1.054e+04 3.701e-09
 46.22701     33.0 1.054e+04 4.708e-09
 46.25840     33.3 1.028e+04 4.703e-09
 46.27228     34.3 1.055e+04 5.954e-09
 46.28157     33.7 1.025e+04 4.272e-09
 46.30829     34.1 9.942e+03 3.630e-09
 46.34888     34.6 9.649e+03 2.780e-09
 46.38948     34.9 9.510e+03 1.862e-09
 46.41329     34.8 9.379e+03 1.396e-09
 46.43359     35.4 9.194e+03 1.338e-09
 46.47066     35.8 9.165e+03 1.369e-09
 46.51126     35.4 9.285e+03 1.718e-09
 46.54788     35.1 9.425e+03 2.549e-09
 46.56818     36.0 9.430e+03 2.583e-09
 46.59244     35.6 9.634e+03 3.641e-09
 46.63304     35.6 9.581e+03 3.941e-09
 46.67363     35.8 9.441e+03 3.380e-09
 46.70277     35.7 9.143e+03 2.358e-09
 46.72307     36.0 9.111e+03 2.384e-09
 46.75482     35.6 8.932e+03 1.884e-09
 46.79541     35.4 8.926e+03 1.918e-09
 46.83600     34.9 9.062e+03 2.267e-09
 46.85766     34.5 9.238e+03 2.922e-09
 46.86771     34.3 9.177e+03 2.830e-09
 46.88655     34.2 9.242e+03 3.152e-09
 46.90406     34.0 9.311e+03 3.742e-09
 46.91421     34.6 9.301e+03 3.545e-09
 46.92476     34.6 9.389e+03 3.933e-09
 46.93491     34.1 9.552e+03 5.046e-09
 46.94744     33.9 9.758e+03 5.613e-09
 46.96774     33.5 1.003e+04 6.274e-09
 46.98803     33.0 1.021e+04 7.189e-09
 47.00220     32.9 1.032e+04 8.234e-09
 47.01235     32.3 1.067e+04 1.156e-08
 47.02863     32.5 1.066e+04 1.189e-08
 47.04892     33.2 1.053e+04 1.094e-08
 47.06922     33.4 1.049e+04 9.098e-09
 47.07965     33.1 1.050e+04 7.954e-09
 47.08979     32.2 1.070e+04 9.618e-09
 47.10981     32.1 1.066e+04 9.579e-09
 47.13011     32.1 1.077e+04 1.023e-08
 47.14694     31.8 1.115e+04 1.216e-08
 47.15709     30.7 1.132e+04 1.356e-08
 47.17070     29.6 1.215e+04 1.802e-08
 47.19100     27.5 1.321e+04 2.881e-08
 47.21129     26.7 1.401e+04 4.647e-08
 47.22439     26.1 1.416e+04 5.257e-08
 47.22849     24.7 1.405e+04 5.078e-08
 47.23570     24.7 1.405e+04 5.041e-08
 47.25189     25.4 1.348e+04 4.001e-08
 47.27218     25.8 1.275e+04 2.356e-08
 47.29168     25.4 1.205e+04 1.239e-08
 47.30183     23.8 1.195e+04 1.007e-08
 47.31278     23.6 1.124e+04 6.153e-09
 47.33307     24.1 1.059e+04 4.169e-09
 47.35337     25.0 1.024e+04 2.896e-09
 47.36913     25.5 9.910e+03 2.421e-09
 47.37927     25.1 9.880e+03 2.484e-09
 47.39396     26.1 9.764e+03 2.296e-09
 47.41426     26.5 9.768e+03 2.255e-09
 47.43652     28.1 9.619e+03 2.456e-09
 47.45691     27.7 9.603e+03 2.663e-09
 47.48549     29.4 9.430e+03 2.839e-09
 47.52609     31.1 9.250e+03 2.682e-09
 47.54724     32.5 9.093e+03 2.563e-09
 47.56753     32.2 9.066e+03 2.950e-09
 47.59141     32.8 9.006e+03 2.928e-09
 47.60146     32.4 8.970e+03 3.061e-09
 47.61723     32.7 8.996e+03 3.477e-09
 47.63752     33.0 9.185e+03 4.349e-09
 47.65782     33.3 9.445e+03 5.439e-09
 47.66875     33.0 9.876e+03 7.068e-09
 47.67890     32.5 9.683e+03 5.649e-09
 47.69841     31.8 1.003e+04 6.995e-09
 47.71871     30.5 1.039e+04 9.148e-09
 47.73605     29.5 1.046e+04 1.188e-08
 47.74620     28.7 1.042e+04 1.185e-08
 47.75930     28.2 1.057e+04 1.412e-08
 47.77960     27.9 1.048e+04 1.389e-08
 47.79990     27.9 1.014e+04 1.218e-08
 47.81349     27.6 9.698e+03 9.889e-09
 47.82364     27.6 9.868e+03 1.133e-08
 47.85073     27.5 9.049e+03 6.845e-09
 47.88098     27.9 8.162e+03 4.020e-09
 47.90128     27.6 8.164e+03 4.230e-09
 47.93202     28.8 7.461e+03 2.565e-09
 47.97261     30.4 7.059e+03 1.824e-09
 48.01321     32.6 7.033e+03 1.726e-09
 48.03587     34.7 7.133e+03 1.929e-09
 48.05617     34.9 7.350e+03 2.627e-09
 48.09439     37.1 7.760e+03 3.535e-09
 48.13498     39.3 8.158e+03 4.500e-09
 48.16992     41.0 8.383e+03 4.865e-09
 48.18510     40.5 8.395e+03 4.913e-09
 48.19076     40.8 8.101e+03 4.177e-09
 48.21617     42.5 8.005e+03 3.685e-09
 48.25676     43.9 7.840e+03 3.024e-09
 48.29736     45.2 7.689e+03 2.484e-09
 48.32535     46.5 7.596e+03 2.108e-09
 48.34565     46.8 7.589e+03 2.189e-09
 48.37854     48.4 7.759e+03 2.303e-09
 48.41914     50.0 7.993e+03 2.383e-09
 48.45973     51.7 8.193e+03 2.435e-09
 48.48024     53.5 8.411e+03 2.540e-09
 48.50054     54.2 8.627e+03 3.242e-09
 48.54092     56.1 8.738e+03 3.230e-09
 48.57126     57.3 9.102e+03 4.159e-09
 48.59146     58.1 9.391e+03 5.193e-09
 48.61176     59.0 9.793e+03 7.016e-09
 48.62478     59.9 1.036e+04 1.002e-08
 48.63493     60.5 1.059e+04 1.106e-08
 48.65235     61.2 1.133e+04 1.600e-08
 48.67265     61.8 1.206e+04 2.219e-08
 48.69208     62.2 1.268e+04 2.921e-08
 48.70223     62.3 1.305e+04 3.315e-08
 48.71324     61.6 1.422e+04 4.644e-08
 48.73354     58.8 1.579e+04 7.428e-08
 48.75384     55.2 1.695e+04 1.307e-07
 48.76952     51.8 1.748e+04 1.833e-07
 48.77967     51.1 1.782e+04 2.017e-07
 48.79443     47.6 1.749e+04 1.645e-07
 48.81271     44.6 1.676e+04 1.005e-07
 48.82285     42.9 1.561e+04 5.919e-08
 48.83502     40.7 1.472e+04 3.858e-08
 48.84697     39.5 1.409e+04 2.555e-08
 48.85712     38.8 1.381e+04 2.283e-08
 48.87562     38.1 1.379e+04 1.782e-08
 48.89591     37.8 1.378e+04 1.738e-08
 48.91426     37.5 1.386e+04 1.864e-08
 48.92441     37.3 1.401e+04 2.156e-08
 48.93650     37.3 1.426e+04 2.585e-08
 48.95680     37.5 1.450e+04 2.916e-08
 48.97710     37.7 1.466e+04 3.033e-08
 48.99171     37.9 1.470e+04 2.942e-08
 49.00186     38.0 1.472e+04 2.801e-08
 49.02794     38.4 1.465e+04 1.926e-08
 49.05920     38.9 1.439e+04 1.187e-08
 49.07949     39.4 1.427e+04 9.572e-09
 49.10922     40.5 1.402e+04 6.114e-09
 49.14981     41.9 1.376e+04 4.245e-09
 49.19041     43.4 1.377e+04 3.382e-09
 49.21409     45.0 1.393e+04 2.848e-09
 49.23438     45.6 1.393e+04 3.266e-09
 49.27159     46.9 1.413e+04 2.742e-09
 49.31219     48.4 1.432e+04 2.181e-09
 49.34868     49.9 1.451e+04 1.712e-09
 49.36897     50.4 1.451e+04 1.576e-09
 49.39337     52.0 1.476e+04 1.131e-09
 49.43397     53.4 1.509e+04 8.376e-10
 49.45588     54.7 1.532e+04 7.309e-10
 49.47618     53.8 1.542e+04 7.606e-10
 49.50357     55.4 1.536e+04 7.368e-10
 49.52386     56.0 1.527e+04 7.349e-10
 49.55575     57.8 1.525e+04 7.698e-10
 49.59634     59.5 1.523e+04 8.317e-10
 49.63693     61.2 1.530e+04 8.641e-10
 49.65845     62.8 1.535e+04 8.659e-10
 49.67875     63.5 1.535e+04 9.292e-10
 49.71812     65.0 1.534e+04 9.316e-10
 49.75871     66.7 1.539e+04 9.097e-10
 49.79304     68.3 1.542e+04 9.199e-10
 49.81334     69.0 1.530e+04 1.026e-09
 49.83990     70.5 1.528e+04 1.166e-09
 49.88049     71.9 1.521e+04 1.547e-09
 49.92108     73.1 1.513e+04 2.244e-09
 49.94793     73.9 1.508e+04 3.208e-09
 49.96823     74.6 1.497e+04 3.800e-09
 50.00227     75.0 1.503e+04 4.378e-09
 50.04286     75.2 1.514e+04 4.402e-09
 50.07857     75.2 1.516e+04 4.390e-09
 50.09793     75.4 1.511e+04 3.209e-09
 50.10282     76.0 1.512e+04 3.056e-09
 50.12405     76.4 1.520e+04 3.126e-09
 50.16464     76.5 1.526e+04 3.514e-09
 50.20524     76.5 1.514e+04 4.318e-09
 50.23741     76.3 1.509e+04 5.852e-09
 50.25771     77.0 1.512e+04 5.104e-09
 50.28642     76.5 1.500e+04 7.441e-09
 50.32702     75.4 1.494e+04 7.632e-09
 50.36761     74.2 1.477e+04 7.094e-09
 50.39230     73.3 1.440e+04 5.204e-09
 50.41260     73.4 1.431e+04 4.874e-09
 50.44880     73.3 1.398e+04 2.785e-09
 50.48939     73.3 1.390e+04 1.467e-09
 50.52689     73.2 1.368e+04 9.269e-10
 50.54719     73.3 1.340e+04 8.188e-10
 50.57058     73.9 1.322e+04 8.303e-10
 50.61117     74.7 1.300e+04 9.228e-10
 50.65176     75.4 1.273e+04 1.093e-09
 50.68178     75.8 1.253e+04 1.143e-09
 50.70208     76.4 1.250e+04 1.082e-09
 50.72155     76.7 1.232e+04 1.039e-09
 50.74184     76.8 1.240e+04 1.004e-09
 50.77354     77.3 1.212e+04 8.934e-10
 50.81413     78.0 1.198e+04 7.012e-10
 50.83667     78.8 1.192e+04 5.310e-10
 50.85696     79.3 1.182e+04 5.792e-10
 50.89532     80.3 1.173e+04 4.647e-10
 50.93591     81.5 1.165e+04 3.919e-10
 50.97126     82.7 1.159e+04 3.417e-10
 50.99156     83.3 1.155e+04 3.438e-10
 51.01710     84.5 1.151e+04 2.894e-10
 51.05769     85.7 1.132e+04 2.697e-10
 51.09829     87.1 1.126e+04 2.709e-10
 51.12615     88.5 1.122e+04 2.769e-10
 51.14644     89.1 1.118e+04 2.880e-10
 51.17947     90.4 1.109e+04 3.200e-10
 51.22007     91.7 1.101e+04 3.749e-10
 51.26066     93.0 1.100e+04 4.538e-10
 51.30125     94.9 1.081e+04 6.890e-10
 51.34185     96.1 1.079e+04 8.223e-10
 51.36453     97.3 1.081e+04 9.386e-10
 51.38483     96.9 1.100e+04 1.045e-09
 51.41563     97.8 1.106e+04 1.195e-09
 51.43592     98.1 1.106e+04 1.414e-09
 51.46363     98.7 1.117e+04 1.561e-09
 51.50422     99.2 1.129e+04 1.751e-09
 51.54481     99.6 1.145e+04 2.081e-09
 51.57051    100.1 1.167e+04 2.528e-09
 51.59081     99.9 1.169e+04 3.244e-09
 51.62600     99.8 1.178e+04 3.368e-09
 51.66659     99.6 1.175e+04 3.156e-09
 51.70511     99.7 1.169e+04 2.439e-09
 51.72540     99.3 1.146e+04 2.367e-09
 51.74778     99.7 1.137e+04 1.564e-09
 51.78837    100.3 1.136e+04 1.111e-09
 51.82896    101.2 1.138e+04 9.237e-10
 51.85999    102.3 1.137e+04 8.349e-10
 51.88029    102.3 1.119e+04 8.433e-10
 51.91015    103.7 1.117e+04 7.471e-10
 51.95074    105.1 1.114e+04 6.522e-10
 51.98721    106.5 1.112e+04 5.858e-10
 52.00751    106.3 1.122e+04 6.564e-10
 52.01488    107.8 1.126e+04 6.393e-10
 52.03518    107.9 1.113e+04 6.789e-10
 52.07252    109.5 1.116e+04 6.750e-10
 52.11312    111.1 1.123e+04 6.763e-10
 52.14947    112.5 1.135e+04 6.782e-10
 52.16977    112.6 1.122e+04 7.496e-10
 52.19430    113.9 1.139e+04 7.317e-10
 52.23490    115.1 1.157e+04 6.974e-10
 52.27549    116.3 1.183e+04 6.363e-10
 52.30436    117.4 1.193e+04 5.872e-10
 52.32466    117.2 1.180e+04 6.964e-10
 52.35668    118.5 1.176e+04 6.995e-10
 52.39727    119.8 1.169e+04 7.256e-10
 52.43786    121.2 1.156e+04 8.037e-10
 52.45925    122.6 1.142e+04 9.305e-10
 52.47955    122.5 1.148e+04 1.160e-09
 52.51905    123.8 1.140e+04 1.325e-09
 52.55964    124.9 1.132e+04 1.474e-09
 52.59384    125.8 1.123e+04 1.619e-09
 52.61414    125.1 1.120e+04 1.556e-09
 52.63019    125.7 1.107e+04 1.643e-09
 52.65049    125.6 1.108e+04 1.642e-09
 52.68142    126.0 1.091e+04 1.512e-09
 52.72201    126.4 1.075e+04 1.368e-09
 52.74873    126.8 1.061e+04 1.230e-09
 52.76903    126.1 1.056e+04 1.198e-09
 52.80320    126.5 1.043e+04 1.054e-09
 52.84379    127.1 1.033e+04 8.548e-10
 52.88332    127.8 1.025e+04 6.577e-10
 52.90362    127.5 1.023e+04 7.026e-10
 52.92498    128.4 1.011e+04 5.779e-10
 52.96557    129.4 9.933e+03 5.577e-10
 53.00617    130.6 9.922e+03 5.598e-10
 53.03821    131.8 9.874e+03 5.804e-10
 53.05850    131.7 9.925e+03 7.140e-10
 53.08735    132.8 9.867e+03 8.065e-10
 53.12795    133.8 9.838e+03 9.851e-10
 53.16854    134.7 9.856e+03 1.281e-09
 53.19310    135.4 9.937e+03 1.696e-09
 53.21339    135.1 1.018e+04 2.206e-09
 53.24973    135.4 1.031e+04 2.707e-09
 53.27318    135.3 1.041e+04 2.782e-09
 53.29347    135.2 1.059e+04 3.150e-09
 53.32769    135.0 1.058e+04 3.296e-09
 53.34798    134.0 1.075e+04 3.481e-09
 53.37151    133.9 1.081e+04 3.633e-09
 53.40185    133.9 1.080e+04 3.538e-09
 53.41508    133.8 1.085e+04 3.563e-09
 53.42523    133.1 1.108e+04 3.985e-09
 53.44235    132.6 1.123e+04 4.248e-09
 53.46265    132.2 1.137e+04 4.590e-09
 53.48238    131.6 1.152e+04 4.968e-09
 53.49253    130.7 1.170e+04 5.706e-09
 53.50324    129.4 1.203e+04 6.633e-09
 53.52353    126.9 1.278e+04 9.985e-09
 53.54383    123.5 1.394e+04 2.136e-08
 53.55982    120.7 1.505e+04 4.588e-08
 53.56997    118.1 1.585e+04 7.842e-08
 53.58432    116.3 1.581e+04 7.698e-08
 53.59447    116.3 1.640e+04 1.043e-07
 53.60472    115.0 1.609e+04 9.057e-08
 53.62502    114.5 1.528e+04 5.067e-08
 53.63727    113.6 1.411e+04 1.817e-08
 53.64742    110.7 1.302e+04 7.583e-09
 53.66561    109.6 1.227e+04 4.603e-09
 53.69615    106.6 1.121e+04 2.586e-09
 53.73684    106.4 1.079e+04 2.057e-09
 53.77205    107.0 1.066e+04 1.756e-09
 53.79235    106.4 1.094e+04 2.411e-09
 53.81803    107.3 1.084e+04 1.989e-09
 53.85862    108.2 1.078e+04 1.547e-09
 53.89586    109.0 1.075e+04 1.122e-09
 53.91616    109.3 1.073e+04 1.152e-09
 53.92694    110.0 1.071e+04 8.931e-10
 53.94724    109.2 1.077e+04 1.370e-09
 53.98040    109.9 1.076e+04 1.376e-09
 54.02100    110.5 1.075e+04 1.436e-09
 54.06153    110.9 1.079e+04 1.549e-09
 54.10213    110.4 1.101e+04 2.038e-09
 54.14278    110.6 1.106e+04 2.000e-09
 54.18337    110.8 1.110e+04 2.035e-09
 54.21642    111.0 1.122e+04 2.169e-09
 54.23672    109.9 1.135e+04 2.158e-09
 54.26456    109.9 1.147e+04 2.210e-09
 54.30515    109.6 1.160e+04 2.288e-09
 54.34574    109.1 1.179e+04 2.570e-09
 54.37131    108.5 1.197e+04 3.160e-09
 54.39161    107.9 1.202e+04 3.242e-09
 54.41668    108.1 1.214e+04 3.710e-09
 54.43688    108.1 1.227e+04 4.232e-09
 54.44856    108.0 1.242e+04 4.890e-09
 54.45871    107.7 1.232e+04 4.679e-09
 54.47747    107.6 1.241e+04 5.081e-09
 54.49777    107.5 1.246e+04 4.987e-09
 54.51585    107.4 1.254e+04 4.670e-09
 54.52600    107.2 1.262e+04 4.058e-09
 54.53836    107.2 1.267e+04 3.728e-09
 54.54879    107.1 1.269e+04 3.399e-09
 54.55894    107.9 1.261e+04 4.467e-09
 54.57896    107.9 1.262e+04 4.066e-09
 54.59330    107.9 1.262e+04 3.727e-09
 54.60345    107.9 1.263e+04 3.467e-09
 54.61955    107.8 1.267e+04 3.368e-09
 54.63985    107.8 1.271e+04 3.312e-09
 54.66014    107.5 1.280e+04 3.177e-09
 54.67074    107.3 1.283e+04 3.063e-09
 54.68089    107.5 1.294e+04 3.286e-09
 54.71098    108.0 1.292e+04 3.189e-09
 54.75167    108.0 1.277e+04 2.570e-09
 54.79227    108.1 1.253e+04 2.044e-09
 54.81568    108.4 1.247e+04 1.992e-09
 54.83597    108.3 1.268e+04 2.481e-09
 54.86023    108.1 1.277e+04 2.618e-09
 54.87028    108.6 1.272e+04 2.511e-09
 54.88278    108.5 1.281e+04 2.698e-09
 54.89293    108.1 1.281e+04 2.953e-09
 54.90370    107.7 1.287e+04 3.743e-09
 54.92400    107.2 1.296e+04 4.984e-09
 54.94430    106.6 1.317e+04 6.602e-09
 54.96022    105.6 1.351e+04 7.714e-09
 54.97037    104.9 1.361e+04 7.659e-09
 54.98489    103.6 1.363e+04 7.549e-09
 55.00519    102.2 1.355e+04 6.633e-09
 55.03573    100.4 1.337e+04 3.684e-09
 55.07642     99.2 1.293e+04 2.133e-09
 55.10516     98.6 1.284e+04 2.073e-09
 55.12545     97.9 1.255e+04 1.897e-09
 55.15761     97.5 1.256e+04 2.125e-09
 55.18182     97.0 1.270e+04 3.085e-09
 55.20212     97.6 1.253e+04 2.687e-09
 55.23879     97.0 1.278e+04 4.202e-09
 55.26004     96.3 1.307e+04 6.253e-09
 55.28034     95.6 1.306e+04 5.282e-09
 55.31998     93.5 1.341e+04 6.806e-09
 55.36057     90.9 1.344e+04 6.722e-09
 55.39464     88.3 1.337e+04 5.904e-09
 55.41493     87.8 1.354e+04 8.323e-09
 55.44176     85.7 1.333e+04 7.203e-09
 55.48235     84.2 1.314e+04 5.870e-09
 55.52294     83.1 1.299e+04 4.834e-09
 55.54952     82.8 1.278e+04 4.086e-09
 55.56982     82.6 1.281e+04 3.911e-09
 55.60413     82.6 1.267e+04 2.988e-09
 55.64472     83.1 1.250e+04 2.482e-09
 55.68412     83.9 1.235e+04 2.398e-09
 55.70441     84.1 1.248e+04 2.473e-09
 55.72591     85.1 1.246e+04 2.629e-09
 55.76650     86.2 1.248e+04 2.931e-09
 55.80451     87.1 1.253e+04 3.409e-09
 55.82480     86.9 1.244e+04 3.240e-09
 55.83900     87.8 1.252e+04 3.956e-09
 55.85930     87.4 1.253e+04 4.070e-09
 55.88828     88.0 1.259e+04 5.025e-09
 55.92888     88.3 1.270e+04 6.299e-09
 55.96947     88.1 1.282e+04 7.371e-09
 55.99389     87.7 1.301e+04 7.484e-09
 56.01419     87.2 1.282e+04 5.909e-09
 56.05066     86.9 1.290e+04 5.524e-09
 56.09125     86.5 1.293e+04 5.123e-09
 56.12848     86.0 1.296e+04 4.780e-09
 56.14878     85.9 1.276e+04 4.329e-09
 56.17244     85.5 1.272e+04 4.331e-09
 56.21303     85.2 1.259e+04 3.978e-09
 56.25362     85.3 1.262e+04 3.567e-09
 56.28327     85.4 1.259e+04 3.372e-09
 56.29332     85.6 1.246e+04 3.928e-09
 56.30417     85.7 1.253e+04 3.608e-09
 56.32446     85.7 1.259e+04 3.115e-09
 56.34476     85.8 1.260e+04 2.734e-09
 56.36062     85.9 1.250e+04 2.566e-09
 56.37077     86.1 1.245e+04 2.666e-09
 56.38535     86.4 1.239e+04 2.627e-09
 56.40565     86.6 1.239e+04 2.706e-09
 56.42595     86.8 1.240e+04 2.922e-09
 56.43806     86.8 1.241e+04 3.211e-09
 56.44821     87.1 1.232e+04 3.054e-09
 56.45744     87.0 1.233e+04 3.319e-09
 56.46759     87.5 1.239e+04 3.445e-09
 56.48684     87.3 1.239e+04 3.717e-09
 56.50536     86.8 1.244e+04 4.121e-09
 56.51551     87.1 1.228e+04 3.766e-09
 56.52743     86.4 1.232e+04 4.556e-09
 56.54773     85.6 1.238e+04 5.867e-09
 56.56802     84.9 1.245e+04 7.361e-09
 56.58280     84.2 1.251e+04 8.365e-09
 56.59295     84.8 1.243e+04 8.087e-09
 56.60862     83.8 1.243e+04 8.065e-09
 56.62891     82.7 1.240e+04 8.009e-09
 56.64921     81.5 1.241e+04 8.161e-09
 56.66025     79.9 1.251e+04 9.232e-09
 56.67040     80.9 1.235e+04 8.253e-09
 56.68980     79.2 1.264e+04 1.134e-08
 56.71010     77.8 1.301e+04 1.492e-08
 56.72754     76.5 1.306e+04 1.491e-08
 56.73769     77.4 1.315e+04 1.702e-08
 56.75069     76.4 1.310e+04 1.541e-08
 56.76878     75.6 1.291e+04 9.997e-09
 56.77893     76.3 1.297e+04 1.225e-08
 56.79129     74.9 1.287e+04 6.807e-09
 56.80499     72.7 1.270e+04 3.505e-09
 56.81514     73.7 1.284e+04 5.038e-09
 56.83188     71.0 1.224e+04 3.588e-09
 56.85218     69.1 1.197e+04 3.586e-09
 56.87228     67.9 1.192e+04 3.765e-09
 56.88243     67.8 1.245e+04 5.379e-09
 56.89277     66.6 1.251e+04 6.088e-09
 56.91307     65.6 1.256e+04 6.828e-09
 56.93336     64.6 1.256e+04 7.349e-09
 56.94973     63.7 1.259e+04 7.515e-09
 56.95988     62.8 1.275e+04 8.979e-09
 56.97396     61.8 1.279e+04 8.006e-09
 56.99425     60.7 1.288e+04 6.706e-09
 57.01455     59.5 1.304e+04 5.318e-09
 57.02717     57.9 1.316e+04 4.299e-09
 57.03732     56.6 1.324e+04 4.258e-09
 57.05514     54.9 1.324e+04 4.267e-09
 57.07544     52.9 1.331e+04 4.760e-09
 57.09027     50.2 1.350e+04 7.176e-09
 57.09915     50.1 1.344e+04 6.883e-09
 57.10461     49.3 1.343e+04 8.947e-09
 57.11603     47.1 1.374e+04 1.756e-08
 57.13633     45.4 1.391e+04 2.421e-08
 57.15662     43.5 1.386e+04 2.353e-08
 57.17191     42.5 1.341e+04 1.692e-08
 57.18206     41.8 1.311e+04 1.390e-08
 57.19722     40.0 1.250e+04 8.402e-09
 57.22776     39.5 1.194e+04 4.782e-09
 57.26845     39.2 1.175e+04 2.816e-09
 57.30670     39.5 1.170e+04 2.505e-09
 57.32699     40.0 1.162e+04 3.289e-09
 57.34964     40.9 1.169e+04 3.465e-09
 57.39023     41.5 1.194e+04 4.340e-09
 57.41186     41.3 1.213e+04 5.366e-09
 57.42191     41.6 1.210e+04 5.443e-09
 57.44078     41.3 1.226e+04 6.943e-09
 57.46107     41.1 1.234e+04 8.774e-09
 57.47154     41.0 1.240e+04 9.293e-09
 57.48169     41.2 1.244e+04 1.048e-08
 57.50167     41.4 1.242e+04 9.739e-09
 57.52196     41.3 1.240e+04 7.796e-09
 57.53883     41.0 1.210e+04 5.587e-09
 57.54898     41.4 1.231e+04 6.725e-09
 57.56256     40.8 1.207e+04 5.180e-09
 57.59310     39.9 1.175e+04 4.592e-09
 57.61647     38.8 1.188e+04 5.735e-09
 57.62652     37.9 1.245e+04 1.091e-08
 57.64374     37.7 1.246e+04 1.213e-08
 57.67429     37.4 1.233e+04 1.263e-08
 57.71315     38.0 1.166e+04 8.594e-09
 57.73345     38.1 1.205e+04 1.055e-08
 57.74532     39.2 1.156e+04 7.051e-09
 57.76102     39.7 1.140e+04 4.641e-09
 57.77117     38.7 1.136e+04 3.202e-09
 57.79607     38.4 1.107e+04 2.081e-09
 57.83676     39.7 1.077e+04 1.834e-09
 57.87735     42.0 1.067e+04 1.789e-09
 57.90595     44.2 1.069e+04 1.823e-09
 57.92625     43.4 1.053e+04 1.706e-09
 57.95854     45.4 1.054e+04 1.822e-09
 57.99913     47.3 1.062e+04 2.011e-09
 58.03972     49.2 1.084e+04 2.293e-09
 58.06084     50.5 1.098e+04 2.569e-09
 58.08114     49.7 1.089e+04 2.458e-09
 58.11066     50.2 1.092e+04 2.590e-09
 58.12794     50.7 1.094e+04 2.812e-09
 58.13809     50.0 1.094e+04 2.798e-09
 58.15116     50.3 1.104e+04 3.299e-09
 58.17145     50.6 1.118e+04 4.012e-09
 58.19175     50.6 1.137e+04 4.706e-09
 58.20539     50.3 1.169e+04 5.492e-09
 58.21553     50.0 1.152e+04 5.068e-09
 58.23234     48.9 1.211e+04 6.474e-09
 58.25264     45.5 1.336e+04 1.347e-08
 58.27268     41.8 1.524e+04 5.060e-08
 58.28283     42.4 1.456e+04 3.566e-08
 58.29323     40.0 1.616e+04 9.782e-08
 58.31353     37.9 1.638e+04 1.087e-07
 58.33383     37.1 1.582e+04 7.696e-08
 58.35012     35.8 1.503e+04 3.114e-08
 58.36027     36.8 1.451e+04 2.981e-08
 58.36609     34.2 1.387e+04 1.306e-08
 58.37623     33.6 1.410e+04 1.563e-08
 58.39472     32.4 1.344e+04 1.337e-08
 58.41501     32.8 1.342e+04 1.383e-08
 58.42757     33.4 1.349e+04 1.549e-08
 58.43772     34.4 1.351e+04 1.550e-08
 58.45561     35.0 1.374e+04 1.972e-08
 58.47590     35.7 1.406e+04 2.554e-08
 58.49486     36.2 1.442e+04 3.409e-08
 58.50501     37.2 1.454e+04 3.455e-08
 58.51650     37.7 1.505e+04 4.873e-08
 58.53679     38.0 1.539e+04 5.811e-08
 58.55709     38.5 1.521e+04 5.050e-08
 58.57231     39.1 1.465e+04 3.080e-08
 58.58246     39.1 1.554e+04 5.181e-08
 58.59768     39.4 1.493e+04 2.895e-08
 58.61798     38.9 1.444e+04 1.375e-08
 58.63828     37.9 1.359e+04 8.817e-09
 58.64975     37.9 1.296e+04 8.017e-09
 58.65990     37.7 1.399e+04 1.341e-08
 58.67743     38.2 1.329e+04 1.105e-08
 58.68758     38.4 1.336e+04 1.309e-08
 58.69917     39.3 1.321e+04 1.227e-08
 58.71705     40.4 1.298e+04 1.123e-08
 58.72720     40.4 1.343e+04 2.121e-08
 58.73976     41.2 1.324e+04 1.653e-08
 58.76006     42.1 1.312e+04 1.336e-08
 58.78035     43.0 1.307e+04 1.230e-08
 58.79449     43.8 1.298e+04 1.119e-08
 58.80464     43.6 1.329e+04 1.367e-08
 58.82095     44.6 1.315e+04 1.189e-08
 58.84124     45.6 1.311e+04 1.064e-08
 58.86154     46.4 1.315e+04 9.916e-09
 58.87194     47.2 1.312e+04 9.460e-09
 58.88208     46.7 1.308e+04 9.315e-09
 58.90213     47.5 1.308e+04 9.179e-09
 58.92243     48.3 1.312e+04 9.224e-09
 58.93923     49.0 1.320e+04 9.533e-09
 58.94938     48.2 1.344e+04 9.766e-09
 58.96302     48.7 1.367e+04 1.120e-08
 58.98332     48.6 1.395e+04 1.470e-08
 58.99892     48.1 1.441e+04 2.313e-08
 59.00907     48.8 1.465e+04 2.843e-08
 59.01663     47.9 1.529e+04 4.493e-08
 59.02165     47.6 1.541e+04 5.355e-08
 59.02889     47.0 1.580e+04 7.283e-08
 59.03904     46.5 1.631e+04 1.018e-07
 59.04918     46.3 1.668e+04 1.298e-07
 59.05530     45.3 1.709e+04 1.402e-07
 59.06037     45.2 1.717e+04 1.414e-07
 59.06948     44.9 1.711e+04 1.402e-07
 59.08392     43.9 1.696e+04 1.280e-07
 59.09412     43.2 1.653e+04 1.118e-07
 59.10510     42.7 1.562e+04 6.176e-08
 59.12539     42.1 1.472e+04 2.601e-08
 59.14569     41.0 1.421e+04 1.132e-08
 59.16142     40.3 1.389e+04 6.531e-09
 59.17156     40.6 1.382e+04 7.397e-09
 59.18628     40.8 1.360e+04 5.531e-09
 59.20658     41.5 1.346e+04 4.247e-09
 59.22688     42.2 1.347e+04 3.315e-09
 59.23886     42.7 1.351e+04 2.795e-09
 59.24901     43.0 1.364e+04 2.811e-09
 59.26747     43.3 1.352e+04 2.625e-09
 59.28777     43.8 1.354e+04 2.655e-09
 59.30616     44.2 1.367e+04 2.855e-09
 59.31630     44.1 1.370e+04 2.835e-09
 59.32041     44.2 1.381e+04 3.436e-09
 59.33056     43.8 1.377e+04 4.113e-09
 59.34866     43.8 1.384e+04 5.515e-09
 59.36895     43.9 1.389e+04 7.595e-09
 59.38360     43.9 1.391e+04 9.781e-09
 59.39375     44.0 1.386e+04 8.129e-09
 59.40955     43.8 1.374e+04 8.731e-09
 59.42984     43.5 1.360e+04 8.722e-09
 59.45014     43.3 1.343e+04 8.700e-09
 59.46104     43.1 1.342e+04 9.083e-09
 59.47119     43.2 1.344e+04 8.674e-09
 59.49073     42.6 1.360e+04 1.135e-08
 59.51103     41.8 1.406e+04 1.889e-08
 59.52834     41.2 1.475e+04 3.624e-08
 59.53849     41.2 1.492e+04 3.826e-08
 59.55162     40.9 1.560e+04 6.353e-08
 59.57192     40.5 1.588e+04 7.602e-08
 59.59222     40.1 1.572e+04 6.763e-08
 59.60578     40.2 1.506e+04 4.275e-08
 59.61593     40.1 1.464e+04 2.836e-08
 59.63175     39.6 1.382e+04 1.395e-08
 59.64190     38.7 1.389e+04 9.446e-09
 59.66303     36.7 1.309e+04 3.207e-09
 59.68342     36.5 1.292e+04 3.001e-09
 59.70404     37.1 1.194e+04 2.382e-09
 59.74464     38.6 1.177e+04 2.389e-09
 59.78523     40.3 1.163e+04 2.549e-09
 59.81801     41.9 1.150e+04 2.835e-09
 59.83831     43.1 1.175e+04 3.601e-09
 59.86642     44.4 1.168e+04 3.966e-09
 59.90701     45.5 1.164e+04 4.284e-09
 59.93736     46.3 1.162e+04 4.508e-09
 59.95324     46.6 1.170e+04 4.769e-09
 59.96339     46.0 1.177e+04 4.819e-09
 59.97271     45.9 1.191e+04 5.155e-09
 59.98285     46.6 1.203e+04 5.288e-09
 59.99815     46.1 1.225e+04 5.879e-09
 60.01844     44.3 1.280e+04 8.099e-09
 60.03874     41.4 1.359e+04 1.537e-08
 60.05015     38.8 1.426e+04 3.022e-08
 60.06030     39.6 1.377e+04 2.220e-08
 60.07933     37.0 1.384e+04 2.586e-08
 60.09963     34.5 1.366e+04 2.408e-08
 60.11745     32.2 1.328e+04 1.913e-08
 60.12759     32.1 1.286e+04 1.390e-08
 60.14022     29.7 1.247e+04 1.262e-08
 60.16052     28.2 1.225e+04 1.243e-08
 60.18082     27.4 1.224e+04 1.321e-08
 60.19489     26.9 1.218e+04 1.334e-08
 60.20504     27.2 1.202e+04 1.180e-08
 60.23166     26.8 1.209e+04 1.293e-08
 60.26210     26.8 1.165e+04 9.348e-09
 60.27233     26.6 1.146e+04 7.636e-09
 60.27491     26.9 1.122e+04 6.222e-09
 60.28498     26.4 1.107e+04 5.103e-09
 60.30269     26.4 1.096e+04 4.826e-09
 60.32289     26.5 1.096e+04 4.873e-09
 60.33963     26.6 1.102e+04 5.201e-09
 60.34978     26.7 1.092e+04 5.091e-09
 60.36349     26.6 1.105e+04 5.953e-09
 60.38378     26.7 1.116e+04 7.511e-09
 60.40408     26.7 1.139e+04 9.712e-09
 60.41707     26.9 1.167e+04 1.265e-08
 60.43747     27.2 1.125e+04 1.116e-08
 60.47531     27.5 1.132e+04 1.135e-08
 60.50566     27.7 1.102e+04 9.329e-09
 60.52586     27.4 1.084e+04 7.946e-09
 60.54616     26.8 1.073e+04 6.893e-09
 60.56181     25.9 1.057e+04 6.776e-09
 60.57196     25.6 1.028e+04 6.314e-09
 60.58607     24.9 1.035e+04 6.768e-09
 60.59622     24.8 1.040e+04 6.849e-09
 60.60705     23.9 1.068e+04 8.280e-09
 60.62734     22.7 1.116e+04 1.127e-08
 60.63926     21.8 1.174e+04 1.625e-08
 60.64941     21.7 1.163e+04 1.547e-08
 60.66794     21.3 1.190e+04 1.604e-08
 60.68823     20.8 1.187e+04 1.471e-08
 60.70655     19.4 1.189e+04 1.243e-08
 60.71670     18.7 1.127e+04 8.508e-09
 60.72883     17.3 1.129e+04 8.286e-09
 60.74912     15.1 1.208e+04 1.030e-08
 60.76942     12.5 1.344e+04 1.951e-08
 60.78400     11.9 1.401e+04 4.044e-08
 60.79415     11.2 1.427e+04 2.936e-08
 60.81001     12.0 1.493e+04 5.989e-08
 60.83031     12.7 1.535e+04 8.010e-08
 60.85060     11.7 1.631e+04 9.272e-08
 60.86144      8.5 1.738e+04 1.251e-07
 60.86647      7.8 1.788e+04 1.681e-07
 60.87588      5.9 1.826e+04 2.615e-07
 60.88603      4.8 1.836e+04 3.868e-07
 60.89499      4.4 1.829e+04 5.312e-07
 60.90007      4.4 1.834e+04 6.746e-07
 60.90632      4.2 1.849e+04 7.052e-07
 60.91254      4.4 1.856e+04 6.285e-07
 60.91761      4.4 1.859e+04 6.274e-07
 60.92662      4.5 1.886e+04 4.596e-07
 60.93371      4.2 1.907e+04 3.211e-07
 60.93879      3.6 1.861e+04 2.135e-07
 60.95204      2.3 1.738e+04 9.512e-08
 60.97238     -0.1 1.514e+04 4.731e-08
 60.99268     -2.0 1.323e+04 2.727e-08
 61.00618     -2.2 1.241e+04 2.131e-08
 61.01633     -2.4 1.124e+04 1.646e-08
 61.03327     -2.0 1.096e+04 1.346e-08
 61.05357     -2.0 1.083e+04 1.260e-08
 61.07348     -1.9 1.092e+04 1.305e-08
 61.08363     -1.8 1.050e+04 1.191e-08
 61.09416     -2.0 1.082e+04 1.317e-08
 61.11446     -2.3 1.141e+04 1.715e-08
 61.13476     -2.8 1.264e+04 2.578e-08
 61.15092     -2.6 1.382e+04 4.082e-08
 61.16107     -1.3 1.212e+04 2.249e-08
 61.17535     -0.2 1.251e+04 2.682e-08
 61.19565      1.2 1.261e+04 2.590e-08
 61.21594      1.9 1.256e+04 2.242e-08
 61.22836      2.2 1.223e+04 1.701e-08
 61.23133      2.2 1.030e+04 7.378e-09
 61.23920      1.4 9.532e+03 5.104e-09
 61.25654      1.2 9.576e+03 5.142e-09
 61.27683      2.6 9.882e+03 6.023e-09
 61.29566      3.7 9.989e+03 6.567e-09
 61.30591      3.7 8.937e+03 3.727e-09
 61.32777      5.8 9.215e+03 4.377e-09
 61.36836      8.3 9.756e+03 5.601e-09
 61.39871      9.6 9.494e+03 4.391e-09
 61.41891     10.3 1.008e+04 5.708e-09
 61.43921     11.0 9.997e+03 6.050e-09
 61.45055     10.8 1.049e+04 7.075e-09
 61.46079     11.3 1.008e+04 6.196e-09
 61.47990     10.9 1.048e+04 7.570e-09
 61.50010     10.9 1.086e+04 9.749e-09
 61.51784     10.9 1.110e+04 1.180e-08
 61.52799     11.4 1.086e+04 9.946e-09
 61.54040     11.5 1.112e+04 1.197e-08
 61.55054     11.3 1.078e+04 9.219e-09
 61.56099     11.2 1.096e+04 1.067e-08
 61.58128     11.2 1.098e+04 1.145e-08
 61.59529     10.9 1.137e+04 1.172e-08
 61.60544     11.8 1.114e+04 1.136e-08
 61.62188     11.6 1.122e+04 1.086e-08
 61.64217     11.6 1.146e+04 1.028e-08
 61.66247     10.6 1.337e+04 1.089e-08
 61.67273      8.2 1.583e+04 1.797e-08
 61.68288     11.3 1.233e+04 1.138e-08
 61.70306      7.7 1.453e+04 2.032e-08
 61.72336      6.8 1.503e+04 5.074e-08
 61.74003      8.8 1.519e+04 8.748e-08
 61.75018      9.8 1.468e+04 7.243e-08
 61.76395     11.3 1.475e+04 7.779e-08
 61.78425     13.6 1.425e+04 5.546e-08
 61.80454     14.3 1.362e+04 3.129e-08
 61.81747     13.9 1.299e+04 1.871e-08
 61.82762     13.2 1.488e+04 2.228e-08
 61.84514     11.2 1.853e+04 2.178e-08
 61.86189      9.9 2.207e+04 2.964e-08
 61.87204     14.7 1.451e+04 1.182e-08
 61.88477     13.2 1.656e+04 1.176e-08
 61.89487      8.6 2.320e+04 5.506e-08
 61.90086      4.1 2.918e+04 2.556e-08
 61.91100      0.3 2.830e+04 2.880e-08
 61.92115     -1.6 2.513e+04 6.465e-08
 61.92847     -3.5 2.060e+04 3.190e-07
 61.93354     -5.9 1.941e+04 1.164e-06
 61.94145     -6.1 1.839e+04 2.589e-06
 61.95160     -7.1 1.809e+04 3.654e-06
 61.96175     -8.9 1.818e+04 3.252e-06
 61.96719    -10.7 1.878e+04 1.778e-06
 61.97226    -12.4 1.972e+04 7.704e-07
 61.98204    -15.5 1.998e+04 3.031e-07
 61.99219    -18.8 1.857e+04 1.571e-07
 62.00084    -20.9 1.698e+04 1.038e-07
 62.00591    -21.2 1.646e+04 8.906e-08
 62.01249    -21.8 1.581e+04 7.232e-08
 62.02253    -22.1 1.529e+04 5.788e-08
 62.02761    -21.9 1.540e+04 5.731e-08
 62.03278    -21.9 1.518e+04 4.645e-08
 62.03956    -22.4 1.452e+04 3.740e-08
 62.04975    -21.5 1.404e+04 3.445e-08
 62.06840    -21.1 1.334e+04 2.387e-08
 62.08870    -20.9 1.249e+04 1.761e-08
 62.10695    -20.4 1.197e+04 1.548e-08
 62.11710    -19.7 1.187e+04 1.401e-08
 62.12929    -18.7 1.167e+04 1.371e-08
 62.14959    -17.6 1.154e+04 1.414e-08
 62.16988    -16.6 1.170e+04 1.511e-08
 62.18338    -15.6 1.185e+04 1.655e-08
 62.18774    -16.3 1.249e+04 2.265e-08
 62.19454    -15.4 1.230e+04 2.040e-08
 62.21048    -14.4 1.261e+04 2.423e-08
 62.23077    -13.3 1.295e+04 2.871e-08
 62.25107    -12.4 1.319e+04 3.242e-08
 62.26184    -11.7 1.333e+04 3.463e-08
 62.27199    -11.8 1.382e+04 3.945e-08
 62.29166    -11.9 1.440e+04 4.815e-08
 62.31196    -12.8 1.536e+04 6.381e-08
 62.32913    -14.2 1.652e+04 9.769e-08
 62.33923    -14.7 1.740e+04 1.339e-07
 62.34403    -14.8 1.801e+04 1.741e-07
 62.34910    -16.1 1.800e+04 1.733e-07
 62.35753    -16.9 1.825e+04 1.983e-07
 62.36768    -17.4 1.842e+04 2.236e-07
 62.37283    -18.3 1.856e+04 2.310e-07
 62.37791    -18.6 1.883e+04 2.092e-07
 62.38797    -20.1 1.876e+04 2.027e-07
 62.39812    -21.2 1.866e+04 1.987e-07
 62.40648    -22.5 1.847e+04 1.882e-07
 62.41156    -23.8 1.932e+04 1.770e-07
 62.41842    -24.4 1.987e+04 1.926e-07
 62.42857    -25.5 2.007e+04 1.950e-07
 62.43872    -26.8 2.019e+04 1.873e-07
 62.44520    -29.1 2.071e+04 1.827e-07
 62.45028    -31.8 2.363e+04 4.593e-07
 62.45901    -38.1 2.419e+04 7.314e-07
 62.46916    -45.5 2.310e+04 1.125e-06
 62.47885    -53.4 2.056e+04 1.632e-06
 62.48393    -53.5 1.704e+04 1.158e-05
 62.48946    -60.3 1.821e+04 3.635e-06
 62.49961    -63.9 1.891e+04 9.404e-07
 62.50477    -65.9 1.885e+04 3.072e-07
 62.50984    -66.1 1.861e+04 2.472e-07
 62.51757    -68.5 1.766e+04 9.825e-08
 62.52265    -70.8 1.791e+04 6.641e-08
 62.53005    -73.2 1.541e+04 3.826e-08
 62.54020    -73.9 1.395e+04 2.780e-08
 62.55127    -74.1 1.288e+04 2.053e-08
 62.56147    -76.1 1.188e+04 1.296e-08
 62.57582    -75.6 9.870e+03 7.931e-09
 62.59611    -75.0 8.905e+03 5.650e-09
 62.61641    -73.0 8.620e+03 4.524e-09
 62.62876    -71.4 8.360e+03 3.694e-09
 62.63891    -70.8 8.430e+03 3.681e-09
 62.66725    -69.4 8.275e+03 3.187e-09
 62.70794    -66.8 7.886e+03 2.600e-09
 62.74853    -63.7 7.473e+03 2.140e-09
 62.77370    -60.9 7.369e+03 2.002e-09
 62.79399    -59.6 7.823e+03 2.446e-09
 62.81641    -56.9 7.721e+03 2.316e-09
 62.83670    -56.0 7.477e+03 1.709e-09
 62.87031    -53.5 7.468e+03 1.679e-09
 62.90829    -51.1 7.504e+03 1.653e-09
 62.92859    -50.0 7.647e+03 1.692e-09
 62.95150    -47.8 7.617e+03 1.626e-09
 62.99209    -45.4 7.596e+03 1.537e-09
 63.03268    -42.9 7.613e+03 1.477e-09
 63.06318    -40.7 7.631e+03 1.470e-09
 63.08347    -39.1 7.621e+03 1.098e-09
 63.11387    -37.2 7.700e+03 1.117e-09
 63.15446    -36.2 8.298e+03 1.347e-09
 63.19506    -35.2 9.193e+03 3.278e-09
 63.21807    -33.9 1.032e+04 7.247e-09
 63.23836    -32.0 9.697e+03 4.717e-09
 63.27624    -30.8 1.089e+04 9.554e-09
 63.30659    -29.2 1.127e+04 1.160e-08
 63.32679    -29.2 1.184e+04 1.413e-08
 63.34709    -29.2 1.249e+04 1.714e-08
 63.36261    -30.0 1.320e+04 2.171e-08
 63.37276    -28.5 1.276e+04 1.859e-08
 63.38768    -29.1 1.324e+04 2.196e-08
 63.40798    -29.7 1.349e+04 2.569e-08
 63.42827    -30.0 1.351e+04 2.770e-08
 63.44005    -30.4 1.337e+04 2.793e-08
 63.45020    -29.1 1.305e+04 2.060e-08
 63.45919    -29.4 1.284e+04 1.972e-08
 63.46934    -28.7 1.256e+04 1.624e-08
 63.48916    -29.1 1.247e+04 1.599e-08
 63.50735    -29.4 1.233e+04 1.590e-08
 63.51750    -28.6 1.198e+04 1.150e-08
 63.52976    -28.7 1.193e+04 1.214e-08
 63.55005    -28.7 1.194e+04 1.308e-08
 63.57035    -28.5 1.195e+04 1.363e-08
 63.58479    -28.4 1.191e+04 1.363e-08
 63.59494    -28.1 1.157e+04 1.159e-08
 63.61094    -27.9 1.162e+04 1.163e-08
 63.64148    -27.0 1.165e+04 1.159e-08
 63.66243    -26.0 1.152e+04 9.520e-09
 63.68273    -24.6 1.122e+04 5.750e-09
 63.72277    -23.6 1.121e+04 5.473e-09
 63.76336    -22.3 1.109e+04 5.239e-09
 63.79702    -20.4 1.085e+04 4.315e-09
 63.81722    -18.8 1.092e+04 4.218e-09
 63.83420    -17.5 1.070e+04 3.709e-09
 63.85450    -16.9 1.047e+04 3.188e-09
 63.88504    -15.9 1.032e+04 2.755e-09
 63.92573    -14.0 9.928e+03 2.282e-09
 63.95191    -12.0 9.688e+03 2.097e-09
 63.97221    -10.5 1.005e+04 2.516e-09
 64.00692     -8.7 9.987e+03 2.505e-09
 64.04751     -7.4 1.003e+04 2.985e-09
 64.07786     -5.8 1.007e+04 4.107e-09
 64.09202     -5.4 9.941e+03 4.436e-09
 64.10057     -4.9 9.809e+03 4.027e-09
 64.10660     -4.0 1.017e+04 4.883e-09
 64.11836     -3.3 1.024e+04 5.089e-09
 64.13865     -3.0 1.013e+04 5.073e-09
 64.15895     -2.4 1.014e+04 5.190e-09
 64.17390     -1.9 1.010e+04 4.901e-09
 64.18405     -1.4 1.052e+04 6.317e-09
 64.19954     -1.0 1.037e+04 5.682e-09
 64.21984     -0.7 1.017e+04 5.082e-09
 64.24014     -0.4 1.006e+04 4.790e-09
 64.25134     -0.2 1.000e+04 4.689e-09
 64.26149      0.3 1.015e+04 5.338e-09
 64.28073      0.7 1.007e+04 5.327e-09
 64.30103      1.0 9.989e+03 5.397e-09
 64.31864      1.4 1.008e+04 5.545e-09
 64.32879      2.2 1.001e+04 5.289e-09
 64.34162      2.3 1.001e+04 4.987e-09
 64.36192      2.4 1.002e+04 4.724e-09
 64.38221      2.4 9.960e+03 4.595e-09
 64.39608      2.6 9.923e+03 4.533e-09
 64.40623      3.0 9.851e+03 3.578e-09
 64.41351      2.9 9.815e+03 3.519e-09
 64.42366      3.9 9.985e+03 4.703e-09
 64.44310      3.5 9.979e+03 4.591e-09
 64.46338      2.8 1.001e+04 4.972e-09
 64.48368      2.6 1.016e+04 5.712e-09
 64.50399      1.2 1.096e+04 7.639e-09
 64.52429     -1.2 1.192e+04 1.195e-08
 64.54082     -3.2 1.269e+04 1.910e-08
 64.55097     -3.7 1.305e+04 1.985e-08
 64.56488     -5.6 1.361e+04 3.274e-08
 64.58518     -6.2 1.380e+04 4.174e-08
 64.60547     -6.7 1.393e+04 4.181e-08
 64.61827     -7.6 1.368e+04 3.581e-08
 64.62842     -6.5 1.383e+04 3.674e-08
 64.64607     -8.4 1.288e+04 2.175e-08
 64.66636    -10.2 1.203e+04 1.464e-08
 64.68556    -11.1 1.157e+04 1.147e-08
 64.69571    -11.5 1.102e+04 8.007e-09
 64.70696    -11.7 1.079e+04 6.986e-09
 64.72486    -11.6 1.063e+04 6.190e-09
 64.73500    -12.1 1.031e+04 4.999e-09
 64.74755    -11.9 1.023e+04 4.582e-09
 64.76301    -11.5 1.020e+04 4.434e-09
 64.77316    -11.5 1.003e+04 3.184e-09
 64.78814    -11.1 1.011e+04 3.192e-09
 64.80844    -10.9 1.023e+04 3.568e-09
 64.82874    -10.6 1.033e+04 4.201e-09
 64.84045    -10.3 1.052e+04 5.099e-09
 64.85060     -9.9 1.025e+04 3.666e-09
 64.86933     -9.5 1.037e+04 4.370e-09
 64.88963     -9.1 1.047e+04 5.282e-09
 64.90775     -8.7 1.055e+04 6.318e-09
 64.91790     -8.6 1.034e+04 4.529e-09
 64.93022     -8.3 1.038e+04 5.596e-09
 64.95052     -7.9 1.044e+04 6.793e-09
 64.97081     -7.3 1.049e+04 7.870e-09
 64.98519     -6.8 1.049e+04 8.329e-09
 64.99534     -6.4 1.042e+04 7.707e-09
 65.01141     -5.9 1.047e+04 8.059e-09
 65.03170     -5.6 1.040e+04 7.859e-09
 65.04635     -5.4 1.029e+04 7.570e-09
 65.05650     -5.7 1.009e+04 6.582e-09
 65.06264     -5.5 9.952e+03 5.590e-09
 65.07278     -5.1 1.005e+04 6.299e-09
 65.09259     -5.0 9.989e+03 5.544e-09
 65.11289     -5.4 9.877e+03 4.978e-09
 65.13003     -5.9 1.012e+04 5.788e-09
 65.15042     -4.9 1.034e+04 7.020e-09
 65.18412     -5.8 1.046e+04 7.524e-09
 65.20747     -7.0 1.032e+04 8.110e-09
 65.21752     -6.5 1.025e+04 7.621e-09
 65.23467     -7.4 1.060e+04 9.197e-09
 65.25497     -7.0 1.063e+04 1.044e-08
 65.27467     -8.9 1.190e+04 1.545e-08
 65.28482     -8.4 1.163e+04 1.276e-08
 65.29556    -11.5 1.348e+04 2.265e-08
 65.31586    -13.1 1.457e+04 4.989e-08
 65.33615    -12.6 1.542e+04 8.693e-08
 65.35211    -11.4 1.585e+04 1.062e-07
 65.36226    -11.8 1.554e+04 8.386e-08
 65.36784    -11.1 1.539e+04 8.007e-08
 65.37799     -9.7 1.534e+04 7.593e-08
 65.39704     -9.1 1.487e+04 6.410e-08
 65.41734     -8.7 1.406e+04 4.675e-08
 65.42956     -8.3 1.331e+04 3.592e-08
 65.43971     -8.8 1.335e+04 3.393e-08
 65.45793     -8.0 1.318e+04 3.212e-08
 65.47823     -7.1 1.318e+04 3.384e-08
 65.49685     -6.0 1.344e+04 3.886e-08
 65.50700     -5.9 1.346e+04 3.658e-08
 65.51882     -5.3 1.468e+04 4.915e-08
 65.53912     -7.3 1.720e+04 9.038e-08
 65.55429    -10.2 1.944e+04 1.898e-07
 65.56439    -14.0 1.926e+04 4.459e-07
 65.57420    -15.8 1.830e+04 1.288e-06
 65.57927    -16.7 1.834e+04 1.100e-06
 65.58469    -18.0 1.784e+04 2.185e-06
 65.59484    -20.3 1.791e+04 3.131e-06
 65.60498    -25.6 1.843e+04 2.953e-06
 65.61292    -34.5 1.922e+04 2.106e-06
 65.61797    -40.6 1.875e+04 2.988e-06
 65.62269    -46.6 1.826e+04 2.970e-06
 65.62777    -49.3 1.862e+04 3.101e-06
 65.63540    -55.9 1.881e+04 3.107e-06
 65.64558    -68.3 1.921e+04 3.434e-06
 65.65164    -83.4 1.957e+04 3.064e-06
 65.65672    -84.2 1.807e+04 7.436e-06
 65.66587   -100.0 1.850e+04 3.306e-06
 65.67602   -110.5 2.002e+04 8.494e-07
 65.68416   -117.7 1.980e+04 3.614e-07
 65.68835   -115.9 1.976e+04 3.965e-07
 65.69037   -116.2 1.977e+04 2.985e-07
 65.69632   -120.9 1.893e+04 2.207e-07
 65.70647   -124.3 1.812e+04 1.730e-07
 65.71662   -126.9 1.721e+04 1.323e-07
 65.72401   -128.9 1.635e+04 1.011e-07
 65.72909   -126.7 1.611e+04 5.131e-08
 65.74203   -128.5 1.516e+04 3.942e-08
 65.76238   -132.1 1.294e+04 2.270e-08
 65.78268   -133.5 1.198e+04 1.578e-08
 65.79648   -134.1 1.145e+04 1.244e-08
 65.80663   -134.4 9.963e+03 8.032e-09
 65.82327   -134.7 9.735e+03 7.547e-09
 65.84357   -134.9 9.651e+03 7.249e-09
 65.86378   -135.1 9.646e+03 7.187e-09
 65.88407   -135.2 9.412e+03 5.444e-09
 65.90446   -136.2 9.757e+03 6.412e-09
 65.92475   -137.4 1.024e+04 7.896e-09
 65.94122   -138.8 1.079e+04 9.893e-09
 65.95137   -138.5 1.086e+04 1.024e-08
 65.96535   -140.3 1.138e+04 1.270e-08
 65.98564   -142.2 1.183e+04 1.528e-08
 66.00067   -144.1 1.222e+04 1.779e-08
 66.01082   -144.4 1.255e+04 2.130e-08
 66.01867   -146.4 1.275e+04 2.300e-08
 66.02881   -146.4 1.275e+04 2.170e-08
 66.04653   -148.3 1.278e+04 2.184e-08
 66.06683   -149.9 1.269e+04 2.086e-08
 66.08596   -151.1 1.236e+04 1.751e-08
 66.09611   -151.1 1.211e+04 1.659e-08
 66.10742   -152.2 1.166e+04 1.298e-08
 66.12772   -153.1 1.122e+04 1.032e-08
 66.14802   -154.0 1.089e+04 8.616e-09
 66.16341   -154.7 1.074e+04 7.710e-09
 66.17355   -154.7 1.054e+04 6.844e-09
 66.18861   -155.4 1.051e+04 6.668e-09
 66.20891   -156.2 1.052e+04 6.689e-09
 66.22920   -157.2 1.079e+04 7.250e-09
 66.24085   -158.2 1.111e+04 8.448e-09
 66.25100   -157.9 1.091e+04 8.362e-09
 66.26980   -158.9 1.121e+04 9.480e-09
 66.29009   -159.9 1.137e+04 9.884e-09
 66.30814   -160.9 1.139e+04 9.879e-09
 66.31829   -160.3 1.120e+04 9.376e-09
 66.32216   -161.1 1.112e+04 8.107e-09
 66.33231   -161.7 1.080e+04 6.727e-09
 66.35098   -162.2 1.061e+04 4.847e-09
 66.37128   -162.5 1.046e+04 3.586e-09
 66.38559   -162.6 1.044e+04 3.021e-09
 66.39574   -162.0 1.041e+04 3.092e-09
 66.41187   -161.9 1.043e+04 3.005e-09
 66.43217   -161.9 1.046e+04 3.002e-09
 66.45246   -164.7 1.115e+04 3.248e-09
 66.46303   -170.6 1.566e+04 9.602e-09
 66.47318   -169.9 1.472e+04 9.372e-09
 66.49306   -173.5 1.715e+04 5.395e-08
 66.50823   -175.4 1.808e+04 1.429e-07
 66.51833   -177.3 1.884e+04 2.472e-07
 66.52848   -180.4 1.935e+04 3.902e-07
 66.53531   -184.3 1.941e+04 4.793e-07
 66.54038   -183.9 1.929e+04 4.308e-07
 66.54878   -187.5 1.927e+04 4.668e-07
 66.55892   -190.9 1.911e+04 4.609e-07
 66.56895   -193.6 1.871e+04 3.548e-07
 66.57403   -194.0 1.881e+04 3.909e-07
 66.57922   -196.3 1.829e+04 2.671e-07
 66.58937   -198.1 1.764e+04 1.698e-07
 66.59952   -199.6 1.689e+04 1.108e-07
 66.60767   -200.8 1.611e+04 7.637e-08
 66.61275   -200.7 1.635e+04 8.607e-08
 66.61981   -201.6 1.567e+04 6.140e-08
 66.62996   -202.2 1.508e+04 4.746e-08
 66.63848   -202.5 1.469e+04 3.978e-08
 66.64355   -203.1 1.470e+04 4.080e-08
 66.64640   -203.2 1.450e+04 3.694e-08
 66.65147   -203.2 1.455e+04 3.726e-08
 66.66041   -203.2 1.445e+04 3.566e-08
 66.67502   -203.1 1.425e+04 3.217e-08
 66.68522   -203.2 1.457e+04 3.481e-08
 66.69602   -202.4 1.395e+04 2.670e-08
 66.71632   -201.2 1.322e+04 1.968e-08
 66.73662   -199.9 1.293e+04 1.718e-08
 66.75251   -198.6 1.289e+04 1.674e-08
 66.76266   -198.4 1.314e+04 1.984e-08
 66.77721   -197.7 1.328e+04 2.068e-08
 66.79751   -197.5 1.369e+04 2.597e-08
 66.81780   -197.5 1.418e+04 3.559e-08
 66.82996   -197.4 1.479e+04 5.022e-08
 66.84010   -196.7 1.523e+04 6.517e-08
 66.85840   -196.9 1.587e+04 8.538e-08
 66.87869   -197.7 1.636e+04 1.012e-07
 66.89725   -198.8 1.657e+04 1.081e-07
 66.90740   -198.7 1.632e+04 8.752e-08
 66.91929   -199.9 1.633e+04 8.853e-08
 66.93958   -201.1 1.616e+04 8.175e-08
 66.95499   -202.2 1.584e+04 6.922e-08
 66.96514   -203.7 1.500e+04 3.418e-08
 66.97470   -204.5 1.455e+04 2.372e-08
 66.98484   -204.4 1.401e+04 1.455e-08
 67.00047   -204.9 1.361e+04 1.077e-08
 67.02077   -205.3 1.324e+04 8.115e-09
 67.04107   -205.6 1.291e+04 6.274e-09
 67.05214   -205.7 1.267e+04 4.972e-09
 67.06229   -205.0 1.240e+04 4.379e-09
 67.08166   -204.9 1.227e+04 3.736e-09
 67.10196   -204.7 1.218e+04 3.175e-09
 67.11944   -204.6 1.208e+04 2.740e-09
 67.12958   -204.1 1.208e+04 2.726e-09
 67.14255   -204.0 1.204e+04 2.500e-09
 67.16285   -203.8 1.202e+04 2.378e-09
 67.18314   -203.3 1.201e+04 2.320e-09
 67.19698   -202.8 1.202e+04 2.302e-09
 67.21737   -201.4 1.195e+04 2.378e-09
 67.25438   -200.5 1.195e+04 2.337e-09
 67.27668   -200.0 1.216e+04 2.418e-09
 67.29698   -201.1 1.179e+04 2.227e-09
 67.33167   -201.1 1.206e+04 2.921e-09
 67.35196   -200.9 1.224e+04 3.427e-09
 67.37615   -201.2 1.251e+04 4.679e-09
 67.41675   -201.5 1.280e+04 6.096e-09
 67.45734   -202.1 1.302e+04 7.394e-09
 67.48655   -202.6 1.311e+04 8.209e-09
 67.50685   -203.3 1.339e+04 1.310e-08
 67.53853   -203.6 1.331e+04 1.290e-08
 67.57912   -203.8 1.303e+04 1.055e-08
 67.61971   -203.2 1.271e+04 7.983e-09
 67.64144   -201.9 1.246e+04 6.091e-09
 67.66174   -201.1 1.228e+04 4.901e-09
 67.70090   -199.9 1.223e+04 4.039e-09
 67.74149   -198.7 1.224e+04 3.856e-09
 67.77603   -198.0 1.251e+04 4.281e-09
 67.79633   -197.5 1.241e+04 4.268e-09
 67.82268   -197.1 1.272e+04 6.045e-09
 67.86327   -197.0 1.297e+04 8.739e-09
 67.89936   -197.1 1.312e+04 1.159e-08
 67.91966   -199.4 1.303e+04 1.254e-08
 67.93092   -200.2 1.305e+04 1.284e-08
 67.95122   -198.1 1.274e+04 1.174e-08
 67.98505   -198.7 1.270e+04 1.185e-08
 68.02565   -199.3 1.246e+04 1.059e-08
 68.06551   -200.1 1.227e+04 8.949e-09
 68.08581   -199.1 1.252e+04 9.466e-09
 68.10683   -199.9 1.222e+04 7.306e-09
 68.14743   -200.5 1.198e+04 5.448e-09
 68.18802   -200.6 1.191e+04 4.306e-09
 68.22040   -200.4 1.187e+04 3.517e-09
 68.23284   -199.6 1.192e+04 3.223e-09
 68.24095   -199.8 1.187e+04 2.924e-09
 68.26911   -199.6 1.180e+04 2.649e-09
 68.30980   -199.0 1.158e+04 2.220e-09
 68.35039   -197.7 1.133e+04 1.886e-09
 68.37529   -196.3 1.123e+04 1.758e-09
 68.39559   -195.5 1.109e+04 1.481e-09
 68.43158   -194.0 1.107e+04 1.463e-09
 68.47217   -192.5 1.114e+04 1.490e-09
 68.50988   -191.3 1.128e+04 1.766e-09
 68.53018   -190.3 1.112e+04 1.437e-09
 68.54234   -189.2 1.122e+04 1.669e-09
 68.56264   -189.5 1.129e+04 1.338e-09
 68.59395   -188.6 1.130e+04 1.558e-09
 68.63454   -187.8 1.129e+04 1.804e-09
 68.66477   -186.9 1.133e+04 1.988e-09
 68.68507   -185.8 1.116e+04 1.491e-09
 68.71573   -185.0 1.119e+04 1.589e-09
 68.75632   -184.1 1.118e+04 1.610e-09
 68.79692   -182.9 1.117e+04 1.583e-09
 68.81966   -181.5 1.117e+04 1.426e-09
 68.83995   -180.4 1.114e+04 1.471e-09
 68.87810   -178.8 1.118e+04 1.277e-09
 68.91870   -177.0 1.126e+04 1.127e-09
 68.95425   -175.0 1.130e+04 1.085e-09
 68.97454   -174.1 1.126e+04 1.195e-09
 68.99988   -172.2 1.127e+04 1.178e-09
 69.04048   -170.3 1.131e+04 1.192e-09
 69.08107   -168.4 1.138e+04 1.261e-09
 69.10914   -166.5 1.146e+04 1.333e-09
 69.12943   -165.7 1.142e+04 1.427e-09
 69.16225   -163.8 1.149e+04 1.460e-09
 69.18532   -161.9 1.155e+04 1.463e-09
 69.20562   -161.6 1.142e+04 1.272e-09
 69.24344   -159.6 1.149e+04 1.319e-09
 69.26402   -157.5 1.156e+04 1.363e-09
 69.28432   -157.1 1.154e+04 1.529e-09
 69.32463   -155.0 1.163e+04 1.527e-09
 69.36522   -152.9 1.168e+04 1.521e-09
 69.39862   -150.8 1.179e+04 1.486e-09
 69.41891   -150.4 1.176e+04 1.467e-09
 69.44641   -148.3 1.183e+04 1.373e-09
 69.48700   -146.3 1.192e+04 1.295e-09
 69.52759   -144.3 1.204e+04 1.243e-09
 69.55350   -142.3 1.212e+04 1.226e-09
 69.57380   -142.1 1.212e+04 1.258e-09
 69.60878   -140.2 1.224e+04 1.262e-09
 69.64937   -138.2 1.233e+04 1.279e-09
 69.68809   -136.2 1.242e+04 1.298e-09
 69.70839   -136.0 1.241e+04 1.332e-09
 69.73056   -133.9 1.248e+04 1.270e-09
 69.77115   -131.7 1.260e+04 1.219e-09
 69.80801   -129.5 1.270e+04 1.196e-09
 69.82831   -129.2 1.265e+04 1.017e-09
 69.84298   -127.0 1.278e+04 1.016e-09
 69.86328   -126.5 1.281e+04 8.826e-10
 69.89293   -124.3 1.293e+04 8.406e-10
 69.93353   -122.2 1.305e+04 8.157e-10
 69.97412   -120.1 1.313e+04 8.023e-10
 69.99787   -118.0 1.320e+04 7.969e-10
 70.01817   -117.0 1.316e+04 7.859e-10
 70.05531   -114.8 1.341e+04 7.971e-10
 70.09590   -112.8 1.354e+04 8.959e-10
 70.13246   -110.9 1.356e+04 1.144e-09
 70.15276   -109.7 1.342e+04 1.559e-09
 70.17708   -108.0 1.349e+04 2.239e-09
 70.21768   -106.7 1.366e+04 3.018e-09
 70.25827   -105.9 1.389e+04 3.579e-09
 70.28735   -105.5 1.408e+04 3.767e-09
 70.30765   -104.2 1.410e+04 4.442e-09
 70.33946   -104.0 1.433e+04 4.096e-09
 70.38005   -104.0 1.452e+04 3.769e-09
 70.42064   -104.3 1.467e+04 3.743e-09
 70.44224   -105.3 1.511e+04 4.234e-09
 70.45229   -103.9 1.510e+04 4.858e-09
 70.47129   -102.5 1.494e+04 4.332e-09
 70.50183   -104.2 1.518e+04 5.711e-09
 70.54242   -106.6 1.522e+04 7.231e-09
 70.57683   -109.1 1.521e+04 7.736e-09
 70.59713   -108.8 1.539e+04 9.855e-09
 70.61336   -111.0 1.532e+04 8.297e-09
 70.63356   -111.9 1.546e+04 7.691e-09
 70.65386   -113.3 1.545e+04 6.279e-09
 70.66423   -114.1 1.550e+04 5.327e-09
 70.67437   -115.2 1.550e+04 6.136e-09
 70.69445   -116.0 1.552e+04 5.734e-09
 70.71475   -116.9 1.555e+04 5.736e-09
 70.73152   -117.9 1.557e+04 6.782e-09
 70.74167   -119.1 1.541e+04 1.054e-08
 70.75534   -119.9 1.546e+04 1.354e-08
 70.77229   -120.6 1.556e+04 1.564e-08
 70.78243   -119.8 1.549e+04 1.530e-08
 70.79594   -120.5 1.553e+04 1.653e-08
 70.80897   -121.2 1.554e+04 1.660e-08
 70.81911   -122.6 1.553e+04 1.411e-08
 70.83653   -123.1 1.553e+04 1.105e-08
 70.85683   -123.7 1.553e+04 8.514e-09
 70.87626   -124.3 1.551e+04 7.033e-09
 70.88641   -125.8 1.548e+04 5.866e-09
 70.89742   -126.1 1.538e+04 5.804e-09
 70.91771   -126.2 1.532e+04 5.859e-09
 70.93801   -126.3 1.521e+04 5.911e-09
 70.95371   -126.3 1.514e+04 5.528e-09
 70.96385   -127.2 1.517e+04 4.513e-09
 70.97860   -127.1 1.530e+04 3.698e-09
 70.99890   -126.9 1.544e+04 3.194e-09
 71.02110   -126.7 1.551e+04 2.893e-09
 71.04149   -128.0 1.546e+04 2.778e-09
 71.07013   -127.2 1.540e+04 2.678e-09
 71.09397   -126.0 1.531e+04 2.672e-09
 71.11427   -125.5 1.533e+04 2.919e-09
 71.15132   -123.9 1.526e+04 3.077e-09
 71.17609   -122.1 1.524e+04 3.282e-09
 71.18614   -123.5 1.535e+04 4.209e-09
 71.20187   -122.9 1.537e+04 4.261e-09
 71.22216   -121.8 1.539e+04 4.336e-09
 71.24246   -121.3 1.540e+04 4.470e-09
 71.25333   -120.5 1.538e+04 4.696e-09
 71.26348   -121.7 1.526e+04 6.111e-09
 71.28305   -120.9 1.526e+04 6.495e-09
 71.30335   -120.1 1.531e+04 6.795e-09
 71.32063   -119.4 1.535e+04 7.003e-09
 71.33078   -120.7 1.544e+04 6.651e-09
 71.34394   -120.0 1.549e+04 6.493e-09
 71.36424   -119.3 1.551e+04 6.239e-09
 71.38454   -118.5 1.554e+04 5.963e-09
 71.39807   -117.8 1.557e+04 5.744e-09
 71.40822   -118.6 1.546e+04 4.721e-09
 71.41527   -117.8 1.543e+04 4.668e-09
 71.42541   -117.8 1.543e+04 5.031e-09
 71.44543   -117.1 1.542e+04 5.018e-09
 71.46537   -116.4 1.537e+04 5.116e-09
 71.48576   -117.3 1.540e+04 3.566e-09
 71.51666   -116.0 1.539e+04 3.598e-09
 71.55725   -114.7 1.537e+04 3.450e-09
 71.59785   -113.5 1.537e+04 2.998e-09
 71.62045   -112.4 1.537e+04 2.532e-09
 71.64075   -113.6 1.536e+04 1.896e-09
 71.67903   -112.0 1.548e+04 1.657e-09
 71.71666   -110.2 1.559e+04 1.431e-09
 71.73695   -110.1 1.555e+04 1.442e-09
 71.75504   -108.2 1.561e+04 1.279e-09
 71.77534   -108.6 1.552e+04 1.146e-09
 71.80081   -106.4 1.537e+04 1.122e-09
 71.84141   -104.3 1.535e+04 1.117e-09
 71.88200   -102.2 1.540e+04 1.180e-09
 71.90993   -100.3 1.545e+04 1.324e-09
 71.93023   -100.6 1.542e+04 1.466e-09
 71.96318    -98.7 1.541e+04 1.725e-09
 72.00378    -96.9 1.540e+04 1.979e-09
 72.04437    -95.1 1.538e+04 2.186e-09
 72.08496    -93.9 1.529e+04 3.578e-09
 72.12556    -92.3 1.525e+04 3.832e-09
 72.16615    -90.7 1.526e+04 3.984e-09
 72.19941    -89.0 1.528e+04 3.967e-09
 72.21971    -89.3 1.534e+04 4.115e-09
 72.24734    -87.6 1.535e+04 3.914e-09
 72.28793    -85.9 1.536e+04 3.576e-09
 72.32852    -84.0 1.538e+04 3.213e-09
 72.35430    -82.1 1.543e+04 2.854e-09
 72.36512    -82.5 1.541e+04 2.909e-09
 72.37993    -81.8 1.533e+04 3.536e-09
 72.40971    -80.0 1.534e+04 3.418e-09
 72.45030    -78.0 1.531e+04 3.294e-09
 72.48889    -75.9 1.525e+04 3.177e-09
 72.50919    -76.3 1.528e+04 3.081e-09
 72.53149    -74.2 1.530e+04 2.877e-09
 72.57208    -72.0 1.532e+04 2.675e-09
 72.61268    -69.8 1.535e+04 2.521e-09
 72.64378    -67.7 1.536e+04 2.437e-09
 72.66408    -68.0 1.553e+04 1.487e-09
 72.69386    -66.1 1.545e+04 1.588e-09
 72.73446    -64.2 1.533e+04 1.753e-09
 72.77505    -62.3 1.524e+04 1.880e-09
 72.79867    -60.3 1.518e+04 1.942e-09
 72.81896    -60.3 1.532e+04 1.244e-09
 72.85623    -58.2 1.529e+04 1.287e-09
 72.89683    -56.2 1.527e+04 1.364e-09
 72.93326    -54.1 1.525e+04 1.483e-09
 72.95355    -53.7 1.551e+04 8.119e-10
 72.97801    -51.7 1.550e+04 8.809e-10
 73.00262    -50.0 1.556e+04 9.699e-10
 73.02291    -50.0 1.551e+04 8.558e-10
 73.05920    -48.4 1.549e+04 9.729e-10
 73.08815    -47.1 1.546e+04 1.191e-09
 73.10844    -46.5 1.544e+04 1.114e-09
 73.14039    -45.1 1.523e+04 1.564e-09
 73.18098    -44.0 1.509e+04 1.822e-09
 73.22157    -43.1 1.502e+04 1.847e-09
 73.24303    -42.0 1.471e+04 1.714e-09
 73.26333    -41.6 1.466e+04 1.882e-09
 73.30276    -40.6 1.452e+04 1.609e-09
 73.34335    -39.7 1.445e+04 1.518e-09
 73.37763    -38.9 1.430e+04 1.596e-09
 73.39792    -39.4 1.393e+04 2.740e-09
 73.42454    -38.6 1.371e+04 3.157e-09
 73.46513    -37.4 1.354e+04 3.293e-09
 73.50573    -36.1 1.328e+04 2.857e-09
 73.53251    -34.6 1.329e+04 2.162e-09
 73.55281    -34.6 1.322e+04 1.484e-09
 73.58691    -33.0 1.328e+04 1.055e-09
 73.62530    -31.5 1.328e+04 8.359e-10
 73.64560    -31.5 1.326e+04 8.416e-10
 73.66710    -30.2 1.326e+04 7.724e-10
 73.68740    -30.1 1.313e+04 6.742e-10
 73.70869    -29.0 1.299e+04 7.712e-10
 73.74928    -28.0 1.292e+04 1.009e-09
 73.78988    -27.3 1.289e+04 1.422e-09
 73.82199    -27.2 1.286e+04 2.127e-09
 73.84229    -27.0 1.277e+04 2.092e-09
 73.87106    -27.4 1.265e+04 3.401e-09
 73.91166    -28.2 1.259e+04 5.727e-09
 73.95225    -29.4 1.250e+04 7.420e-09
 73.97688    -31.2 1.233e+04 7.390e-09
 73.99718    -31.2 1.222e+04 7.037e-09
 74.03344    -32.0 1.179e+04 4.120e-09
 74.07403    -32.6 1.166e+04 2.002e-09
 74.11147    -32.8 1.158e+04 1.210e-09
 74.13177    -32.6 1.148e+04 1.355e-09
 74.15522    -31.6 1.134e+04 1.166e-09
 74.19581    -30.1 1.128e+04 9.992e-10
 74.23640    -28.5 1.122e+04 8.615e-10
 74.26636    -26.7 1.120e+04 8.114e-10
 74.27794    -26.3 1.110e+04 1.303e-09
 74.28858    -26.0 1.102e+04 1.616e-09
 74.31759    -24.3 1.102e+04 1.619e-09
 74.35818    -22.9 1.105e+04 2.022e-09
 74.39878    -21.4 1.112e+04 2.891e-09
 74.42125    -20.1 1.130e+04 3.990e-09
 74.44154    -19.3 1.120e+04 3.702e-09
 74.47996    -18.2 1.128e+04 3.978e-09
 74.52056    -17.3 1.129e+04 3.961e-09
 74.55584    -16.2 1.123e+04 3.412e-09
 74.57614    -14.9 1.104e+04 2.604e-09
 74.60174    -13.5 1.102e+04 2.507e-09
 74.64234    -11.9 1.102e+04 2.621e-09
 74.68293    -10.4 1.105e+04 3.126e-09
 74.71073     -8.8 1.117e+04 3.636e-09
 74.73102     -7.1 1.125e+04 4.230e-09
 74.76411     -5.6 1.139e+04 4.837e-09
 74.80471     -4.9 1.146e+04 4.503e-09
 74.84530     -4.7 1.153e+04 3.951e-09
 74.88589     -2.5 1.193e+04 5.078e-09
 74.91126     -3.5 1.194e+04 5.345e-09
 74.93156     -1.8 1.169e+04 3.373e-09
 74.96708     -2.5 1.165e+04 4.709e-09
 75.00021     -3.2 1.180e+04 7.532e-09
 75.02050     -1.6 1.186e+04 8.280e-09
 75.03802     -3.3 1.197e+04 1.064e-08
 75.05822     -4.6 1.215e+04 1.314e-08
 75.07746     -5.8 1.230e+04 1.600e-08
 75.08760     -4.5 1.220e+04 1.520e-08
 75.09881     -6.0 1.217e+04 1.548e-08
 75.11911     -7.2 1.198e+04 1.542e-08
 75.13941     -7.8 1.161e+04 1.418e-08
 75.15490     -8.2 1.132e+04 1.093e-08
 75.16505     -7.3 1.133e+04 1.207e-08
 75.18000     -7.7 1.109e+04 9.220e-09
 75.20030     -8.2 1.086e+04 7.000e-09
 75.22059     -8.8 1.061e+04 5.612e-09
 75.23234     -9.4 1.039e+04 4.888e-09
 75.23416     -8.2 1.052e+04 5.587e-09
 75.24271     -8.5 1.054e+04 5.912e-09
 75.26119     -9.1 1.030e+04 5.223e-09
 75.28148     -9.5 1.018e+04 5.071e-09
 75.29964     -9.7 1.010e+04 5.196e-09
 75.30979     -9.1 1.010e+04 5.282e-09
 75.32208     -9.5 1.005e+04 5.585e-09
 75.34237    -10.0 1.016e+04 6.183e-09
 75.36267    -10.6 1.030e+04 6.804e-09
 75.37708    -11.4 1.037e+04 7.226e-09
 75.38723    -10.9 1.045e+04 7.785e-09
 75.40326    -11.8 1.054e+04 8.167e-09
 75.42356    -12.8 1.054e+04 8.145e-09
 75.44386    -13.9 1.057e+04 7.368e-09
 75.45453    -15.4 1.069e+04 6.716e-09
 75.46468    -15.6 1.088e+04 8.423e-09
 75.48445    -17.5 1.096e+04 8.281e-09
 75.50474    -19.3 1.127e+04 8.505e-09
 75.52182    -20.9 1.196e+04 1.106e-08
 75.53197    -20.9 1.203e+04 1.246e-08
 75.54390    -22.3 1.265e+04 1.596e-08
 75.55405    -20.7 1.189e+04 1.090e-08
 75.56563    -22.0 1.271e+04 1.502e-08
 75.58593    -23.6 1.348e+04 2.299e-08
 75.59927    -25.3 1.413e+04 3.535e-08
 75.60942    -25.8 1.430e+04 3.772e-08
 75.62652    -27.2 1.517e+04 5.875e-08
 75.64682    -28.1 1.571e+04 8.057e-08
 75.66656    -29.2 1.570e+04 8.403e-08
 75.67671    -29.6 1.603e+04 9.228e-08
 75.68741    -30.3 1.516e+04 6.655e-08
 75.70771    -30.6 1.375e+04 3.337e-08
 75.72801    -31.1 1.244e+04 1.631e-08
 75.74401    -31.4 1.170e+04 9.563e-09
 75.75416    -31.7 1.172e+04 9.667e-09
 75.76860    -31.3 1.129e+04 6.997e-09
 75.78890    -30.5 1.103e+04 5.780e-09
 75.80919    -29.5 1.088e+04 5.118e-09
 75.82145    -28.4 1.078e+04 4.695e-09
 75.83160    -28.2 1.077e+04 4.869e-09
 75.84979    -26.9 1.075e+04 4.583e-09
 75.86539    -25.8 1.078e+04 4.406e-09
 75.87554    -26.0 1.087e+04 4.871e-09
 75.88875    -25.0 1.087e+04 4.778e-09
 75.89889    -24.7 1.082e+04 4.781e-09
 75.91068    -23.6 1.083e+04 4.761e-09
 75.93097    -22.7 1.092e+04 4.853e-09
 75.95127    -21.9 1.098e+04 5.035e-09
 75.96619    -21.0 1.106e+04 5.290e-09
 75.97634    -20.8 1.104e+04 5.402e-09
 75.99186    -20.0 1.113e+04 5.905e-09
 76.01216    -19.2 1.122e+04 6.523e-09
 76.03246    -18.4 1.132e+04 7.229e-09
 76.04363    -17.6 1.148e+04 8.125e-09
 76.05378    -17.6 1.161e+04 9.037e-09
 76.07305    -17.1 1.186e+04 1.046e-08
 76.09335    -16.7 1.218e+04 1.251e-08
 76.11093    -16.3 1.257e+04 1.538e-08
 76.12108    -16.7 1.279e+04 1.744e-08
 76.13394    -16.5 1.305e+04 1.942e-08
 76.15424    -16.3 1.319e+04 2.039e-08
 76.17453    -16.2 1.325e+04 2.029e-08
 76.18688    -16.2 1.319e+04 1.894e-08
 76.19057    -17.1 1.279e+04 1.491e-08
 76.19852    -17.8 1.250e+04 1.198e-08
 76.21513    -17.8 1.234e+04 1.047e-08
 76.23542    -17.6 1.221e+04 9.497e-09
 76.25567    -17.3 1.213e+04 8.884e-09
 76.27597    -17.6 1.213e+04 8.881e-09
 76.29631    -17.3 1.218e+04 9.051e-09
 76.31661    -17.0 1.222e+04 9.300e-09
 76.33311    -16.7 1.227e+04 9.671e-09
 76.35351    -17.5 1.244e+04 1.092e-08
 76.38784    -16.6 1.231e+04 7.910e-09
 76.41066    -15.5 1.235e+04 6.682e-09
 76.42071    -16.1 1.240e+04 5.921e-09
 76.43839    -16.0 1.238e+04 5.129e-09
 76.46780    -15.5 1.237e+04 4.940e-09
 76.48820    -16.5 1.226e+04 3.758e-09
 76.50962    -16.0 1.227e+04 4.996e-09
 76.55021    -15.6 1.251e+04 7.862e-09
 76.59081    -15.0 1.278e+04 1.109e-08
 76.62279    -14.6 1.284e+04 1.273e-08
 76.64299    -15.5 1.296e+04 1.274e-08
 76.66165    -15.6 1.299e+04 1.318e-08
 76.68195    -15.7 1.299e+04 1.319e-08
 76.71249    -15.8 1.269e+04 1.243e-08
 76.75318    -15.7 1.237e+04 9.594e-09
 76.77768    -15.5 1.209e+04 6.918e-09
 76.79797    -17.2 1.205e+04 7.316e-09
 76.81991    -17.0 1.174e+04 5.709e-09
 76.84021    -18.2 1.168e+04 5.889e-09
 76.87496    -17.6 1.151e+04 5.217e-09
 76.91227    -16.7 1.140e+04 4.426e-09
 76.93256    -17.6 1.125e+04 3.828e-09
 76.95615    -16.8 1.116e+04 2.812e-09
 76.99674    -16.1 1.116e+04 2.064e-09
 77.03733    -15.7 1.117e+04 1.666e-09
 77.06716    -15.4 1.118e+04 1.519e-09
 77.08745    -16.0 1.107e+04 1.348e-09
 77.11852    -15.9 1.108e+04 1.479e-09
 77.15911    -16.0 1.122e+04 1.687e-09
 77.19971    -16.0 1.130e+04 1.916e-09
 77.22204    -16.0 1.134e+04 2.038e-09
 77.24234    -16.1 1.126e+04 1.974e-09
 77.28089    -16.1 1.132e+04 2.010e-09
 77.32149    -16.3 1.146e+04 2.077e-09
 77.35664    -16.9 1.163e+04 2.633e-09
 77.37693    -17.0 1.157e+04 2.664e-09
 77.40267    -17.1 1.178e+04 3.462e-09
 77.44259    -17.1 1.197e+04 3.740e-09
 77.46289    -18.5 1.184e+04 2.055e-09
 77.48386    -18.7 1.195e+04 1.552e-09
 77.51152    -18.7 1.166e+04 1.297e-09
 77.53182    -18.4 1.132e+04 1.155e-09
 77.56504    -17.5 1.164e+04 1.134e-09
 77.60564    -16.3 1.192e+04 1.309e-09
 77.64611    -15.2 1.211e+04 1.803e-09
 77.68671    -14.3 1.241e+04 2.859e-09
 77.72742    -14.4 1.287e+04 6.477e-09
 77.75776    -14.6 1.342e+04 1.411e-08
 77.77404    -15.4 1.401e+04 2.449e-08
 77.78419    -16.1 1.392e+04 2.197e-08
 77.79826    -16.8 1.467e+04 3.739e-08
 77.81096    -17.6 1.529e+04 5.613e-08
 77.82110    -17.5 1.507e+04 4.967e-08
 77.83885    -18.4 1.531e+04 5.568e-08
 77.85915    -19.6 1.515e+04 5.415e-08
 77.87825    -20.3 1.458e+04 3.899e-08
 77.88840    -20.4 1.444e+04 3.406e-08
 77.89974    -21.1 1.394e+04 2.522e-08
 77.92004    -21.6 1.346e+04 1.808e-08
 77.94034    -22.0 1.300e+04 1.340e-08
 77.95579    -22.3 1.254e+04 9.422e-09
 77.97619    -21.4 1.280e+04 1.333e-08
 78.01157    -20.9 1.225e+04 7.922e-09
 78.05216    -20.0 1.189e+04 4.463e-09
 78.08557    -18.7 1.160e+04 3.371e-09
 78.10360    -18.5 1.158e+04 3.534e-09
 78.11078    -17.8 1.163e+04 3.706e-09
 78.13335    -16.1 1.148e+04 3.182e-09
 78.17394    -14.2 1.138e+04 3.064e-09
 78.21454    -12.3 1.128e+04 3.042e-09
 78.24537    -10.5 1.125e+04 3.044e-09
 78.26567     -9.7 1.114e+04 2.589e-09
 78.29572     -7.9 1.118e+04 2.587e-09
 78.33631     -6.8 1.144e+04 3.293e-09
 78.37691     -6.0 1.175e+04 5.736e-09
 78.40026     -5.0 1.215e+04 1.013e-08
 78.42055     -3.7 1.189e+04 7.616e-09
 78.45809     -3.0 1.233e+04 1.263e-08
 78.49869     -2.3 1.250e+04 1.498e-08
 78.53485     -1.7 1.236e+04 1.416e-08
 78.55515     -0.5 1.246e+04 1.485e-08
 78.57987      0.3 1.237e+04 1.414e-08
 78.61022      1.1 1.193e+04 1.083e-08
 78.62225      1.5 1.184e+04 1.035e-08
 78.63240      1.8 1.197e+04 1.152e-08
 78.66096      2.7 1.142e+04 7.182e-09
 78.68974      4.0 1.084e+04 4.328e-09
 78.71003      4.6 1.131e+04 7.203e-09
 78.72856      6.1 1.094e+04 5.227e-09
 78.74885      7.7 1.121e+04 6.924e-09
 78.78284      9.5 1.114e+04 6.510e-09
 78.81319     10.4 1.108e+04 5.424e-09
 78.83339     11.2 1.089e+04 4.866e-09
 78.84443     12.3 1.079e+04 4.285e-09
 78.85458     12.7 1.086e+04 4.280e-09
 78.87398     13.4 1.078e+04 3.652e-09
 78.89428     14.2 1.071e+04 3.386e-09
 78.91173     15.0 1.070e+04 3.222e-09
 78.92187     15.0 1.083e+04 3.680e-09
 78.93487     15.5 1.093e+04 3.775e-09
 78.95517     16.0 1.105e+04 4.257e-09
 78.97546     16.7 1.109e+04 5.590e-09
 78.98917     17.4 1.136e+04 6.613e-09
 78.99932     17.5 1.174e+04 1.003e-08
 79.01606     17.7 1.211e+04 1.207e-08
 79.03635     17.1 1.266e+04 1.552e-08
 79.04985     15.7 1.325e+04 2.338e-08
 79.05982     16.5 1.333e+04 2.254e-08
 79.06661     16.3 1.371e+04 2.906e-08
 79.07695     15.2 1.429e+04 4.339e-08
 79.09724     15.0 1.484e+04 5.800e-08
 79.11754     14.4 1.479e+04 5.944e-08
 79.13391     14.3 1.428e+04 3.596e-08
 79.14406     12.9 1.436e+04 3.720e-08
 79.15813     11.5 1.382e+04 2.521e-08
 79.17843     10.2 1.348e+04 2.100e-08
 79.19872      9.4 1.334e+04 2.045e-08
 79.21135      9.1 1.331e+04 2.296e-08
 79.22150      8.4 1.345e+04 2.863e-08
 79.23932      8.8 1.333e+04 2.888e-08
 79.25961      9.4 1.323e+04 2.686e-08
 79.27865      9.7 1.298e+04 2.266e-08
 79.28880      9.1 1.255e+04 1.680e-08
 79.30021      9.3 1.222e+04 1.364e-08
 79.32050      9.7 1.201e+04 1.122e-08
 79.35105     10.7 1.177e+04 8.030e-09
 79.39174     10.2 1.136e+04 7.192e-09
 79.42358     12.3 1.141e+04 7.100e-09
 79.44388     12.2 1.077e+04 4.111e-09
 79.47292     14.6 1.081e+04 4.563e-09
 79.51352     16.8 1.089e+04 4.686e-09
 79.55411     18.6 1.114e+04 5.066e-09
 79.57847     20.2 1.136e+04 6.389e-09
 79.59877     20.2 1.101e+04 5.403e-09
 79.63530     21.6 1.129e+04 7.122e-09
 79.67589     22.8 1.152e+04 9.048e-09
 79.71306     23.9 1.135e+04 9.198e-09
 79.73336     24.4 1.125e+04 7.342e-09
 79.75708     25.6 1.114e+04 4.621e-09
 79.79767     25.9 1.092e+04 2.248e-09
 79.83826     26.1 1.038e+04 1.476e-09
 79.86795     27.0 1.014e+04 1.314e-09
 79.88825     27.8 1.013e+04 1.280e-09
 79.91945     28.7 1.013e+04 1.284e-09
 79.96004     29.1 1.025e+04 1.352e-09
 79.99422     28.6 1.053e+04 1.606e-09
 80.01452     28.6 1.022e+04 1.500e-09
 80.02284     27.3 1.096e+04 1.954e-09
 80.04314     28.8 1.095e+04 2.025e-09
 80.07158     25.7 1.140e+04 3.583e-09
 80.08994     24.6 1.153e+04 5.808e-09
 80.10009     25.1 1.155e+04 5.821e-09
 80.11207     25.0 1.137e+04 8.824e-09
 80.13237     25.1 1.149e+04 8.094e-09
 80.15266     24.5 1.179e+04 6.208e-09
 80.16738     23.4 1.164e+04 4.943e-09
 80.17753     23.7 1.170e+04 4.976e-09
 80.20350     23.6 1.172e+04 4.349e-09
 80.24419     22.9 1.138e+04 3.197e-09
 80.28479     22.3 1.166e+04 2.959e-09
 80.31232     22.6 1.165e+04 2.994e-09
 80.33262     23.3 1.161e+04 3.035e-09
 80.36597     24.3 1.172e+04 3.002e-09
 80.40657     25.5 1.185e+04 3.319e-09
 80.44691     26.5 1.190e+04 4.565e-09
 80.46721     27.3 1.195e+04 4.884e-09
 80.48775     29.0 1.180e+04 6.932e-09
 80.52835     30.6 1.162e+04 6.466e-09
 80.56894     31.8 1.135e+04 5.425e-09
 80.60180     32.7 1.112e+04 5.303e-09
 80.62210     33.5 1.124e+04 5.709e-09
 80.63720     34.8 1.107e+04 5.809e-09
 80.65750     34.5 1.166e+04 6.107e-09
 80.69072     36.0 1.111e+04 5.271e-09
 80.73131     37.9 1.077e+04 4.044e-09
 80.75669     39.7 1.056e+04 2.913e-09
 80.77698     40.7 1.089e+04 3.013e-09
 80.81250     42.5 1.059e+04 2.716e-09
 80.85309     44.6 1.052e+04 2.801e-09
 80.89128     46.5 1.054e+04 3.208e-09
 80.91157     47.4 1.063e+04 2.860e-09
 80.93428     49.4 1.068e+04 3.493e-09
 80.97487     51.3 1.085e+04 4.245e-09
 81.01547     53.2 1.110e+04 5.096e-09
 81.04617     54.9 1.144e+04 6.188e-09
 81.06646     55.4 1.159e+04 5.889e-09
 81.08641     55.8 1.183e+04 6.618e-09
 81.10660     56.1 1.195e+04 6.724e-09
 81.12341     56.5 1.199e+04 6.519e-09
 81.13356     56.9 1.191e+04 5.714e-09
 81.14720     57.2 1.195e+04 4.767e-09
 81.17774     57.2 1.188e+04 4.532e-09
 81.20105     57.7 1.170e+04 4.471e-09
 81.22135     58.5 1.155e+04 2.134e-09
 81.25902     59.4 1.144e+04 2.297e-09
 81.28018     60.5 1.133e+04 2.651e-09
 81.30048     60.8 1.136e+04 2.760e-09
 81.33565     62.2 1.127e+04 3.016e-09
 81.35594     63.2 1.101e+04 1.783e-09
 81.38080     64.9 1.085e+04 1.885e-09
 81.42140     66.8 1.070e+04 1.793e-09
 81.46199     68.8 1.054e+04 1.595e-09
 81.49053     70.8 1.037e+04 1.434e-09
 81.51083     72.0 1.018e+04 1.156e-09
 81.54318     74.1 1.004e+04 1.115e-09
 81.58377     76.2 9.994e+03 1.154e-09
 81.62436     78.3 9.888e+03 1.281e-09
 81.64542     80.6 9.778e+03 1.470e-09
 81.66572     81.9 9.638e+03 1.148e-09
 81.70555     84.2 9.539e+03 1.333e-09
 81.74614     86.5 9.459e+03 1.507e-09
 81.78001     88.8 9.377e+03 1.607e-09
 81.80031     90.0 9.280e+03 1.415e-09
 81.82733     92.3 9.210e+03 1.537e-09
 81.86792     94.5 9.120e+03 1.589e-09
 81.90287     96.6 9.021e+03 1.586e-09
 81.92316     96.1 8.922e+03 1.503e-09
 81.93490     98.2 8.762e+03 1.318e-09
 81.95520     99.4 8.751e+03 1.431e-09
 81.98970    101.5 8.605e+03 1.238e-09
 82.03029    103.5 8.481e+03 1.016e-09
 82.06949    105.4 8.397e+03 7.780e-10
 82.08979    106.5 8.348e+03 9.847e-10
 82.11148    108.3 8.233e+03 7.528e-10
 82.15207    109.9 8.029e+03 5.839e-10
 82.19267    111.6 7.786e+03 5.241e-10
 82.22438    113.4 7.728e+03 5.221e-10
 82.24468    114.6 7.752e+03 6.459e-10
 82.27385    116.4 7.722e+03 6.693e-10
 82.31445    118.2 7.694e+03 7.411e-10
 82.35504    120.1 7.655e+03 8.148e-10
 82.37927    121.8 7.617e+03 8.176e-10
 82.39956    122.9 7.621e+03 9.195e-10
 82.43623    124.7 7.519e+03 8.662e-10
 82.47682    126.4 7.417e+03 7.813e-10
 82.51386    128.2 7.319e+03 7.219e-10
 82.53416    129.4 7.269e+03 7.457e-10
 82.54585    131.3 7.258e+03 7.451e-10
 82.56614    132.1 7.271e+03 8.138e-10
 82.59860    134.0 7.280e+03 8.475e-10
 82.63919    136.0 7.337e+03 9.465e-10
 82.66875    138.1 7.421e+03 1.081e-09
 82.68904    139.3 7.356e+03 1.143e-09
 82.72038    141.4 7.449e+03 1.271e-09
 82.76097    143.6 7.549e+03 1.353e-09
 82.80157    145.7 7.657e+03 1.410e-09
 82.82364    147.8 7.792e+03 1.511e-09
 82.84393    149.0 7.756e+03 1.592e-09
 82.88275    151.0 7.974e+03 1.870e-09
 82.92334    153.0 8.262e+03 2.358e-09
 82.95823    154.5 8.528e+03 2.947e-09
 82.97852    155.1 8.471e+03 3.083e-09
 82.99429    155.5 8.574e+03 3.454e-09
 83.01448    156.3 8.696e+03 3.946e-09
 83.03478    157.0 8.913e+03 4.709e-09
 83.04562    157.5 9.174e+03 5.606e-09
 83.05577    157.8 9.133e+03 5.646e-09
 83.07537    157.8 9.365e+03 6.539e-09
 83.09567    157.8 9.650e+03 7.669e-09
 83.11292    157.1 1.016e+04 9.690e-09
 83.12307    157.4 1.002e+04 8.947e-09
 83.13626    155.3 1.164e+04 1.424e-08
 83.15656    152.8 1.366e+04 2.498e-08
 83.17686    150.2 1.518e+04 4.068e-08
 83.18863    147.5 1.616e+04 5.945e-08
 83.19199    150.2 1.307e+04 2.043e-08
 83.20051    150.5 1.372e+04 2.377e-08
 83.21745    147.7 1.545e+04 4.171e-08
 83.22904    143.6 1.718e+04 9.125e-08
 83.23406    144.0 1.745e+04 1.008e-07
 83.24272    142.7 1.789e+04 1.321e-07
 83.25287    141.4 1.845e+04 1.991e-07
 83.26264    139.5 1.873e+04 3.686e-07
 83.26771    139.8 1.874e+04 5.097e-07
 83.27317    138.5 1.867e+04 7.449e-07
 83.28332    137.0 1.872e+04 7.732e-07
 83.29346    135.3 1.875e+04 7.224e-07
 83.30136    133.6 1.892e+04 5.425e-07
 83.30643    133.7 1.901e+04 6.455e-07
 83.31376    132.1 1.920e+04 3.192e-07
 83.32391    130.5 1.922e+04 1.673e-07
 83.33505    129.1 1.885e+04 1.126e-07
 83.34525    128.4 1.885e+04 9.272e-08
 83.35953    125.7 1.722e+04 4.907e-08
 83.37982    123.2 1.527e+04 4.076e-08
 83.40012    121.5 1.506e+04 4.249e-08
 83.41255    120.4 1.508e+04 4.875e-08
 83.42270    120.4 1.508e+04 4.963e-08
 83.44071    119.5 1.537e+04 5.487e-08
 83.46101    118.9 1.537e+04 5.615e-08
 83.47984    118.2 1.506e+04 4.842e-08
 83.48999    118.2 1.507e+04 4.718e-08
 83.49998    117.0 1.472e+04 3.276e-08
 83.51012    118.9 1.572e+04 6.152e-08
 83.52190    117.5 1.564e+04 5.126e-08
 83.54220    115.4 1.548e+04 4.329e-08
 83.55729    112.8 1.537e+04 4.344e-08
 83.56744    112.4 1.533e+04 4.022e-08
 83.58279    109.5 1.546e+04 4.983e-08
 83.60309    107.0 1.585e+04 7.245e-08
 83.62338    104.8 1.594e+04 7.605e-08
 83.63473    102.9 1.566e+04 6.710e-08
 83.64488    102.0 1.603e+04 7.787e-08
 83.66398    100.6 1.520e+04 4.425e-08
 83.68427     98.9 1.421e+04 2.062e-08
 83.70203     96.7 1.356e+04 9.972e-09
 83.71218     95.2 1.351e+04 8.058e-09
 83.72487     93.4 1.294e+04 5.286e-09
 83.74516     93.1 1.255e+04 4.652e-09
 83.76546     93.3 1.229e+04 3.912e-09
 83.77947     93.3 1.220e+04 3.305e-09
 83.78962     92.6 1.214e+04 2.740e-09
 83.81141     94.1 1.188e+04 2.331e-09
 83.83181     93.8 1.185e+04 2.236e-09
 83.84696     94.9 1.149e+04 1.608e-09
 83.86726     93.6 1.141e+04 1.518e-09
 83.89758     95.2 1.138e+04 1.574e-09
 83.93817     96.7 1.137e+04 1.839e-09
 83.96852     97.1 1.135e+04 2.248e-09
 83.98872     97.5 1.138e+04 2.831e-09
 84.00165     98.0 1.145e+04 3.594e-09
 84.01180     97.2 1.177e+04 4.464e-09
 84.02931     97.1 1.205e+04 5.823e-09
 84.04961     96.3 1.242e+04 8.155e-09
 84.06895     95.1 1.299e+04 1.246e-08
 84.07910     92.4 1.447e+04 3.348e-08
 84.09020     91.6 1.486e+04 4.551e-08
 84.11050     90.8 1.515e+04 5.292e-08
 84.13080     90.1 1.522e+04 5.153e-08
 84.14296     89.2 1.498e+04 4.398e-08
 84.14841     89.4 1.545e+04 5.599e-08
 84.15654     87.1 1.533e+04 4.394e-08
 84.17139     86.0 1.472e+04 2.887e-08
 84.19169     84.9 1.397e+04 1.806e-08
 84.21198     83.9 1.319e+04 1.191e-08
 84.22384     83.4 1.252e+04 8.952e-09
 84.23399     81.7 1.219e+04 7.716e-09
 84.25258     82.1 1.197e+04 6.940e-09
 84.27287     82.7 1.182e+04 6.177e-09
 84.29113     83.4 1.169e+04 5.404e-09
 84.30128     82.3 1.172e+04 5.449e-09
 84.31347     82.9 1.159e+04 4.747e-09
 84.33376     83.6 1.148e+04 4.165e-09
 84.35406     84.2 1.140e+04 3.727e-09
 84.36858     84.9 1.127e+04 3.316e-09
 84.37873     83.8 1.133e+04 3.986e-09
 84.39465     84.7 1.125e+04 3.810e-09
 84.41495     85.7 1.120e+04 3.667e-09
 84.43525     86.7 1.120e+04 3.589e-09
 84.44602     87.7 1.116e+04 3.475e-09
 84.45493     86.6 1.123e+04 3.924e-09
 84.46445     86.0 1.120e+04 3.993e-09
 84.47584     86.9 1.117e+04 3.801e-09
 84.49614     87.7 1.108e+04 3.707e-09
 84.51332     88.7 1.105e+04 3.721e-09
 84.52347     87.7 1.110e+04 4.089e-09
 84.53673     88.6 1.112e+04 4.285e-09
 84.55703     89.5 1.114e+04 4.524e-09
 84.57732     90.4 1.118e+04 4.759e-09
 84.59076     91.3 1.124e+04 4.974e-09
 84.60091     90.1 1.151e+04 5.733e-09
 84.61792     90.8 1.162e+04 6.038e-09
 84.63821     91.4 1.172e+04 6.366e-09
 84.65806     91.8 1.181e+04 6.789e-09
 84.66821     89.8 1.226e+04 9.445e-09
 84.67880     89.8 1.262e+04 1.145e-08
 84.69910     89.5 1.313e+04 1.503e-08
 84.71940     89.2 1.370e+04 2.082e-08
 84.73550     89.1 1.421e+04 2.881e-08
 84.74565     86.2 1.516e+04 4.569e-08
 84.75999     86.5 1.513e+04 4.406e-08
 84.77579     86.7 1.489e+04 3.794e-08
 84.78594     84.9 1.490e+04 3.705e-08
 84.80058     85.1 1.454e+04 2.678e-08
 84.81295     85.3 1.414e+04 1.801e-08
 84.82309     82.5 1.368e+04 9.668e-09
 84.84118     82.7 1.337e+04 7.371e-09
 84.86147     83.1 1.315e+04 6.555e-09
 84.88024     83.8 1.302e+04 5.973e-09
 84.89049     82.4 1.304e+04 5.630e-09
 84.91241     83.8 1.275e+04 5.232e-09
 84.95300     85.7 1.249e+04 5.086e-09
 84.99360     87.9 1.239e+04 5.072e-09
 85.02518     90.2 1.236e+04 5.079e-09
 85.04547     89.5 1.232e+04 4.114e-09
 85.07478     91.9 1.231e+04 4.154e-09
 85.09747     94.4 1.232e+04 4.311e-09
 85.11777     93.6 1.211e+04 2.241e-09
 85.15597     96.2 1.209e+04 2.366e-09
 85.18006     98.7 1.206e+04 2.619e-09
 85.20036     98.1 1.195e+04 2.099e-09
 85.23716    100.6 1.196e+04 2.419e-09
 85.27775    103.1 1.202e+04 2.852e-09
 85.31466    105.6 1.212e+04 3.405e-09
 85.33495    105.2 1.213e+04 2.583e-09
 85.35894    107.5 1.223e+04 3.083e-09
 85.39953    109.7 1.236e+04 3.615e-09
 85.44012    111.8 1.246e+04 4.036e-09
 85.46954    113.9 1.251e+04 4.226e-09
 85.48984    113.5 1.239e+04 2.886e-09
 85.52131    115.7 1.237e+04 2.940e-09
 85.56190    117.9 1.238e+04 2.946e-09
 85.60250    120.2 1.241e+04 3.001e-09
 85.62443    122.5 1.245e+04 3.155e-09
 85.64473    121.9 1.236e+04 2.826e-09
 85.68368    124.1 1.243e+04 3.353e-09
 85.72016    126.2 1.252e+04 3.984e-09
 85.74046    125.9 1.229e+04 2.433e-09
 85.75902    127.9 1.235e+04 3.070e-09
 85.77932    127.1 1.233e+04 3.499e-09
 85.80546    128.9 1.234e+04 4.185e-09
 85.84605    130.7 1.240e+04 5.033e-09
 85.88665    132.5 1.251e+04 5.754e-09
 85.91391    134.3 1.270e+04 6.377e-09
 85.92396    132.6 1.248e+04 5.226e-09
 85.93719    133.4 1.250e+04 5.275e-09
 85.95749    134.0 1.259e+04 5.390e-09
 85.97779    134.4 1.282e+04 5.718e-09
 85.99116    134.7 1.311e+04 6.599e-09
 86.00131    133.8 1.301e+04 6.509e-09
 86.01838    133.5 1.333e+04 8.386e-09
 86.03868    133.0 1.362e+04 1.228e-08
 86.05160    132.3 1.406e+04 2.072e-08
 86.06123    132.4 1.389e+04 1.877e-08
 86.06860    131.0 1.408e+04 2.086e-08
 86.07927    129.8 1.492e+04 3.815e-08
 86.09957    128.1 1.581e+04 6.212e-08
 86.11986    125.7 1.609e+04 6.480e-08
 86.13590    123.4 1.597e+04 5.589e-08
 86.14605    122.2 1.543e+04 3.699e-08
 86.16046    120.1 1.509e+04 1.759e-08
 86.18075    117.5 1.492e+04 6.788e-09
 86.20105    114.6 1.424e+04 3.499e-09
 86.21334    113.5 1.334e+04 3.476e-09
 86.22349    113.0 1.343e+04 3.469e-09
 86.25189    113.6 1.317e+04 3.464e-09
 86.29258    115.1 1.286e+04 2.863e-09
 86.33317    116.7 1.276e+04 2.435e-09
 86.35828    118.6 1.279e+04 2.448e-09
 86.36795    118.4 1.277e+04 2.020e-09
 86.38344    118.8 1.252e+04 1.275e-09
 86.41436    120.8 1.259e+04 1.384e-09
 86.45495    122.5 1.275e+04 1.751e-09
 86.49287    124.1 1.281e+04 2.263e-09
 86.51317    124.5 1.276e+04 2.821e-09
 86.53614    126.2 1.293e+04 3.362e-09
 86.57673    127.6 1.312e+04 3.685e-09
 86.60708    128.2 1.317e+04 3.781e-09
 86.62728    128.9 1.315e+04 3.727e-09
 86.64756    129.8 1.311e+04 3.583e-09
 86.66786    130.4 1.306e+04 3.964e-09
 86.68443    131.2 1.308e+04 3.984e-09
 86.69458    131.4 1.301e+04 4.279e-09
 86.70846    132.1 1.309e+04 4.372e-09
 86.72501    132.7 1.320e+04 4.560e-09
 86.73515    132.6 1.334e+04 4.955e-09
 86.74906    133.1 1.343e+04 5.224e-09
 86.76935    133.6 1.353e+04 5.555e-09
 86.78965    134.0 1.363e+04 5.993e-09
 86.80245    134.2 1.372e+04 6.612e-09
 86.81260    133.8 1.362e+04 8.208e-09
 86.83024    134.1 1.373e+04 9.291e-09
 86.85054    134.3 1.390e+04 1.076e-08
 86.86975    134.4 1.410e+04 1.263e-08
 86.87989    133.8 1.436e+04 1.391e-08
 86.89113    133.5 1.450e+04 1.566e-08
 86.91143    133.3 1.459e+04 1.710e-08
 86.93173    133.0 1.464e+04 1.846e-08
 86.94719    132.9 1.469e+04 1.963e-08
 86.95734    132.0 1.467e+04 1.960e-08
 86.97232    132.1 1.470e+04 2.000e-08
 86.99262    132.2 1.476e+04 2.031e-08
 87.00593    132.3 1.484e+04 2.061e-08
 87.01607    132.1 1.465e+04 1.814e-08
 87.02463    132.4 1.473e+04 1.886e-08
 87.03478    132.3 1.472e+04 1.880e-08
 87.05351    132.8 1.479e+04 1.986e-08
 87.07380    133.3 1.487e+04 2.126e-08
 87.09193    133.8 1.496e+04 2.288e-08
 87.10208    133.9 1.493e+04 2.294e-08
 87.11440    134.5 1.511e+04 2.478e-08
 87.13469    135.0 1.533e+04 2.582e-08
 87.15499    135.3 1.538e+04 2.581e-08
 87.16937    135.6 1.539e+04 2.528e-08
 87.17952    135.8 1.536e+04 2.488e-08
 87.19558    135.9 1.539e+04 2.558e-08
 87.21588    136.1 1.538e+04 2.649e-08
 87.23618    136.2 1.536e+04 2.808e-08
 87.24682    136.5 1.537e+04 3.081e-08
 87.25697    136.5 1.547e+04 3.376e-08
 87.27677    136.7 1.558e+04 3.791e-08
 87.29707    136.8 1.572e+04 4.198e-08
 87.31411    136.8 1.586e+04 4.351e-08
 87.32417    136.7 1.576e+04 4.041e-08
 87.33756    136.5 1.570e+04 3.667e-08
 87.35796    135.8 1.569e+04 3.533e-08
 87.37825    135.0 1.552e+04 3.017e-08
 87.39156    134.5 1.515e+04 2.265e-08
 87.40171    134.5 1.513e+04 2.157e-08
 87.41884    134.4 1.479e+04 1.580e-08
 87.43914    134.3 1.453e+04 1.139e-08
 87.45885    134.2 1.430e+04 8.522e-09
 87.46900    134.0 1.440e+04 9.043e-09
 87.47973    133.7 1.437e+04 7.789e-09
 87.50003    133.4 1.440e+04 7.595e-09
 87.52033    133.0 1.440e+04 7.477e-09
 87.53630    132.7 1.439e+04 7.209e-09
 87.54645    132.1 1.448e+04 7.622e-09
 87.56092    131.6 1.442e+04 6.972e-09
 87.58122    131.2 1.428e+04 6.465e-09
 87.60151    131.0 1.424e+04 6.411e-09
 87.61374    130.6 1.428e+04 6.891e-09
 87.62389    129.6 1.431e+04 8.393e-09
 87.63876    129.2 1.437e+04 9.511e-09
 87.64891    129.1 1.440e+04 1.011e-08
 87.66240    128.8 1.441e+04 1.167e-08
 87.68104    128.7 1.437e+04 1.198e-08
 87.69119    126.9 1.445e+04 1.466e-08
 87.71324    126.8 1.423e+04 1.346e-08
 87.75393    126.7 1.393e+04 1.144e-08
 87.79453    127.1 1.372e+04 1.058e-08
 87.82597    127.8 1.372e+04 1.075e-08
 87.84627    127.2 1.353e+04 6.499e-09
 87.86547    127.6 1.367e+04 7.819e-09
 87.88567    128.0 1.383e+04 9.391e-09
 87.90322    128.5 1.389e+04 1.106e-08
 87.91337    128.4 1.367e+04 8.331e-09
 87.92626    128.8 1.371e+04 9.225e-09
 87.94656    129.2 1.368e+04 9.991e-09
 87.96025    129.6 1.360e+04 1.019e-08
 87.97040    129.4 1.363e+04 1.003e-08
 87.98066    130.0 1.359e+04 1.001e-08
 87.99081    130.0 1.339e+04 8.149e-09
 88.00745    130.6 1.336e+04 8.097e-09
 88.02774    131.1 1.332e+04 8.038e-09
 88.04796    131.6 1.325e+04 7.970e-09
 88.06826    132.0 1.308e+04 7.238e-09
 88.08863    132.5 1.297e+04 7.316e-09
 88.10893    133.0 1.290e+04 7.331e-09
 88.12540    133.5 1.287e+04 7.331e-09
 88.13555    133.3 1.282e+04 6.935e-09
 88.14952    133.7 1.277e+04 6.909e-09
 88.16982    134.0 1.272e+04 6.808e-09
 88.19012    134.3 1.267e+04 6.612e-09
 88.20285    134.6 1.261e+04 6.346e-09
 88.21300    134.5 1.252e+04 5.772e-09
 88.23071    134.7 1.244e+04 5.324e-09
 88.25101    135.0 1.236e+04 4.808e-09
 88.27014    135.2 1.228e+04 4.256e-09
 88.28029    135.2 1.218e+04 3.642e-09
 88.28174    135.4 1.211e+04 3.199e-09
 88.29189    135.3 1.209e+04 3.191e-09
 88.31190    135.5 1.202e+04 2.828e-09
 88.33219    135.8 1.194e+04 2.557e-09
 88.34759    136.1 1.181e+04 2.414e-09
 88.35774    136.2 1.180e+04 2.395e-09
 88.37278    136.8 1.176e+04 2.391e-09
 88.39308    137.4 1.177e+04 2.408e-09
 88.41338    138.1 1.180e+04 2.516e-09
 88.42503    138.7 1.179e+04 2.803e-09
 88.43518    138.7 1.186e+04 3.179e-09
 88.45397    139.3 1.184e+04 3.860e-09
 88.47427    140.1 1.189e+04 4.965e-09
 88.49233    140.7 1.207e+04 6.804e-09
 88.50248    140.5 1.224e+04 8.569e-09
 88.51486    140.9 1.265e+04 1.295e-08
 88.53516    141.0 1.326e+04 2.008e-08
 88.55545    141.0 1.389e+04 3.023e-08
 88.56977    140.7 1.449e+04 4.035e-08
 88.57992    140.1 1.445e+04 3.865e-08
 88.59092    139.7 1.491e+04 4.641e-08
 88.59806    139.2 1.519e+04 5.031e-08
 88.60313    139.2 1.594e+04 6.803e-08
 88.60840    138.5 1.595e+04 6.795e-08
 88.61347    137.9 1.586e+04 6.402e-08
 88.62132    136.9 1.613e+04 6.481e-08
 88.63147    133.9 1.748e+04 6.972e-08
 88.64162    127.8 2.040e+04 1.053e-07
 88.64712    120.5 2.087e+04 2.521e-07
 88.65219    117.6 1.992e+04 4.471e-07
 88.66191    113.9 1.899e+04 6.809e-07
 88.67206    111.9 1.866e+04 6.741e-07
 88.68077    111.2 1.835e+04 5.131e-07
 88.68584    111.4 1.851e+04 3.105e-07
 88.69236    110.2 1.911e+04 1.137e-07
 88.70251    108.5 1.971e+04 3.938e-08
 88.71446    104.3 2.003e+04 8.387e-09
 88.72466     97.9 1.538e+04 3.289e-09
 88.73812     92.3 1.212e+04 1.652e-09
 88.76867     84.4 1.161e+04 9.881e-10
 88.80936     81.6 1.021e+04 8.734e-10
 88.84930     82.1 1.006e+04 8.588e-10
 88.86959     81.8 1.017e+04 8.951e-10
 88.89054     83.2 1.011e+04 1.004e-09
 88.91477     84.9 1.007e+04 1.243e-09
 88.93506     84.6 1.012e+04 1.304e-09
 88.97173     86.2 1.015e+04 1.574e-09
 89.00419     87.8 1.020e+04 1.707e-09
 89.02448     87.1 1.019e+04 1.721e-09
 89.05292     88.7 1.015e+04 1.594e-09
 89.09351     90.4 1.008e+04 1.324e-09
 89.13410     92.1 1.001e+04 1.026e-09
 89.15907     93.7 9.945e+03 7.971e-10
 89.17937     93.1 9.920e+03 7.670e-10
 89.21529     94.9 9.833e+03 7.426e-10
 89.25588     97.0 9.798e+03 7.812e-10
 89.29367     99.0 9.807e+03 9.727e-10
 89.31396     98.9 1.003e+04 1.386e-09
 89.33707    100.8 1.036e+04 1.966e-09
 89.36742    101.5 1.054e+04 2.140e-09
 89.38106    101.7 1.069e+04 2.576e-09
 89.39121    100.6 1.094e+04 3.560e-09
 89.40791    100.3 1.129e+04 5.130e-09
 89.42821     99.9 1.159e+04 7.018e-09
 89.44836     99.6 1.184e+04 8.709e-09
 89.45851     98.1 1.224e+04 1.153e-08
 89.46880     97.3 1.225e+04 1.143e-08
 89.48910     96.4 1.213e+04 1.053e-08
 89.50939     95.8 1.183e+04 8.723e-09
 89.52580     95.4 1.144e+04 6.625e-09
 89.53595     93.4 1.130e+04 6.083e-09
 89.54740     93.1 1.084e+04 4.407e-09
 89.55755     93.5 1.100e+04 4.669e-09
 89.57028     93.3 1.060e+04 3.484e-09
 89.59058     93.4 1.026e+04 2.959e-09
 89.60325     93.8 1.019e+04 2.902e-09
 89.61339     92.9 1.026e+04 3.187e-09
 89.63117     93.6 1.025e+04 3.187e-09
 89.65147     94.4 1.025e+04 3.210e-09
 89.67054     95.2 1.028e+04 3.270e-09
 89.68069     94.4 1.036e+04 3.386e-09
 89.69206     95.0 1.041e+04 3.410e-09
 89.71236     95.5 1.048e+04 3.453e-09
 89.73266     95.8 1.055e+04 3.553e-09
 89.74799     96.0 1.059e+04 3.743e-09
 89.75813     95.1 1.059e+04 3.827e-09
 89.77325     95.4 1.059e+04 3.909e-09
 89.79355     95.9 1.050e+04 3.960e-09
 89.81384     96.3 1.046e+04 3.804e-09
 89.82543     96.7 1.038e+04 3.453e-09
 89.83558     96.1 1.029e+04 2.868e-09
 89.85444     96.3 1.031e+04 2.494e-09
 89.86889     96.3 1.038e+04 2.325e-09
 89.87904     97.2 1.043e+04 2.674e-09
 89.89273     96.8 1.048e+04 2.697e-09
 89.90287     95.1 1.063e+04 2.676e-09
 89.91533     93.8 1.099e+04 3.509e-09
 89.93562     92.6 1.131e+04 5.689e-09
 89.95592     91.9 1.164e+04 9.085e-09
 89.97017     91.3 1.194e+04 1.286e-08
 89.98032     89.8 1.227e+04 1.554e-08
 89.99651     88.7 1.264e+04 1.508e-08
 90.01681     86.9 1.284e+04 1.426e-08
 90.03711     84.5 1.297e+04 1.342e-08
 90.04761     81.8 1.319e+04 1.350e-08
 90.05776     78.3 1.364e+04 1.651e-08
 90.07770     76.3 1.388e+04 2.090e-08
 90.09800     74.7 1.400e+04 2.464e-08
 90.11491     73.5 1.397e+04 2.615e-08
 90.12506     72.0 1.377e+04 2.300e-08
 90.13859     71.5 1.328e+04 1.707e-08
 90.15888     71.0 1.266e+04 1.136e-08
 90.17918     70.6 1.208e+04 7.358e-09
 90.19038     70.3 1.160e+04 5.173e-09
 90.19341     70.9 1.169e+04 5.361e-09
 90.20250     70.0 1.148e+04 4.345e-09
 90.21977     70.3 1.134e+04 3.719e-09
 90.24007     70.5 1.126e+04 3.191e-09
 90.27061     71.4 1.116e+04 2.842e-09
 90.31130     72.5 1.095e+04 2.478e-09
 90.33729     74.0 1.086e+04 2.494e-09
 90.35759     73.7 1.101e+04 3.033e-09
 90.38225     74.6 1.082e+04 2.546e-09
 90.40244     75.0 1.080e+04 2.584e-09
 90.41454     75.6 1.074e+04 2.718e-09
 90.42469     75.6 1.076e+04 2.832e-09
 90.44304     75.9 1.073e+04 2.881e-09
 90.46333     76.4 1.065e+04 3.070e-09
 90.48183     76.6 1.062e+04 3.196e-09
 90.49198     76.6 1.065e+04 3.286e-09
 90.50173     76.9 1.058e+04 3.415e-09
 90.51188     77.4 1.073e+04 4.210e-09
 90.52422     77.6 1.070e+04 4.192e-09
 90.54452     77.8 1.059e+04 3.956e-09
 90.55928     77.8 1.048e+04 3.559e-09
 90.56943     77.8 1.047e+04 3.359e-09
 90.59536     77.8 1.031e+04 2.827e-09
 90.62677     78.3 1.013e+04 2.473e-09
 90.64706     78.7 1.014e+04 2.421e-09
 90.67664     79.1 1.021e+04 2.627e-09
 90.71724     79.4 1.028e+04 3.060e-09
 90.74758     79.3 1.030e+04 3.447e-09
 90.76778     79.2 1.028e+04 3.639e-09
 90.78146     79.0 1.024e+04 3.774e-09
 90.79161     79.0 1.039e+04 4.438e-09
 90.80838     78.8 1.038e+04 4.614e-09
 90.82322     78.6 1.038e+04 4.834e-09
 90.83337     78.1 1.044e+04 4.993e-09
 90.84876     77.9 1.045e+04 5.176e-09
 90.85890     77.7 1.062e+04 5.861e-09
 90.86927     77.4 1.059e+04 5.930e-09
 90.88956     77.2 1.059e+04 5.955e-09
 90.90986     76.9 1.063e+04 5.944e-09
 90.92620     76.5 1.072e+04 5.918e-09
 90.93635     76.3 1.082e+04 6.157e-09
 90.95045     75.6 1.090e+04 5.970e-09
 90.97075     74.8 1.089e+04 5.890e-09
 90.99105     73.9 1.094e+04 5.680e-09
 91.00364     73.1 1.090e+04 5.265e-09
 91.01379     72.7 1.091e+04 5.148e-09
 91.03164     72.0 1.078e+04 4.635e-09
 91.05194     71.4 1.065e+04 4.216e-09
 91.07094     71.1 1.056e+04 3.980e-09
 91.08109     70.8 1.058e+04 3.884e-09
 91.09253     70.7 1.052e+04 3.834e-09
 91.11282     70.7 1.050e+04 3.832e-09
 91.13312     71.0 1.050e+04 3.863e-09
 91.14471     71.3 1.054e+04 4.010e-09
 91.14982     71.0 1.055e+04 4.180e-09
 91.15853     70.9 1.053e+04 3.843e-09
 91.17371     71.1 1.061e+04 4.021e-09
 91.19401     71.3 1.077e+04 4.412e-09
 91.21431     71.4 1.096e+04 4.994e-09
 91.22583     71.4 1.116e+04 5.688e-09
 91.23598     71.3 1.109e+04 4.983e-09
 91.25490     71.2 1.125e+04 5.574e-09
 91.27520     71.1 1.139e+04 6.066e-09
 91.29312     70.9 1.150e+04 6.396e-09
 91.30327     70.8 1.143e+04 5.638e-09
 91.31579     70.7 1.153e+04 5.904e-09
 91.33609     70.6 1.163e+04 6.196e-09
 91.35638     70.4 1.175e+04 6.568e-09
 91.37057     70.3 1.191e+04 7.011e-09
 91.38072     70.3 1.189e+04 6.644e-09
 91.39698     70.2 1.209e+04 7.060e-09
 91.41727     70.1 1.225e+04 7.357e-09
 91.43757     70.0 1.230e+04 7.332e-09
 91.44801     70.1 1.233e+04 7.220e-09
 91.45634     70.4 1.215e+04 6.434e-09
 91.46620     69.2 1.239e+04 7.820e-09
 91.48841     69.1 1.240e+04 7.207e-09
 91.51540     69.9 1.224e+04 6.436e-09
 91.52546     70.8 1.215e+04 6.367e-09
 91.53905     71.2 1.216e+04 6.132e-09
 91.55935     71.5 1.218e+04 6.041e-09
 91.57965     71.8 1.222e+04 6.017e-09
 91.59275     72.1 1.225e+04 6.004e-09
 91.60290     72.7 1.230e+04 6.435e-09
 91.62024     73.0 1.233e+04 6.488e-09
 91.64054     73.3 1.233e+04 6.441e-09
 91.66005     73.5 1.232e+04 6.330e-09
 91.67020     74.0 1.237e+04 6.660e-09
 91.69138     74.1 1.224e+04 5.878e-09
 91.73207     75.3 1.197e+04 5.130e-09
 91.77266     76.6 1.190e+04 4.740e-09
 91.80498     78.1 1.198e+04 4.775e-09
 91.82528     78.7 1.199e+04 5.015e-09
 91.84360     78.8 1.204e+04 4.766e-09
 91.86380     78.6 1.222e+04 5.120e-09
 91.88223     78.4 1.250e+04 6.671e-09
 91.89238     78.1 1.256e+04 8.359e-09
 91.90439     78.0 1.285e+04 1.202e-08
 91.92469     77.9 1.324e+04 1.756e-08
 91.94499     77.8 1.371e+04 2.458e-08
 91.95967     77.6 1.415e+04 3.107e-08
 91.96982     77.2 1.377e+04 2.508e-08
 91.98558     76.6 1.378e+04 2.443e-08
 92.00587     75.8 1.372e+04 2.192e-08
 92.02617     74.7 1.365e+04 1.981e-08
 92.03712     73.4 1.378e+04 2.063e-08
 92.04727     72.7 1.336e+04 1.737e-08
 92.06676     71.3 1.357e+04 1.938e-08
 92.08706     70.0 1.394e+04 2.412e-08
 92.09903     68.6 1.429e+04 2.925e-08
 92.10624     68.3 1.476e+04 3.652e-08
 92.11456     68.5 1.433e+04 2.973e-08
 92.12765     67.2 1.435e+04 2.905e-08
 92.14795     66.0 1.421e+04 2.447e-08
 92.16825     64.6 1.385e+04 1.665e-08
 92.18186     62.7 1.345e+04 1.167e-08
 92.19201     62.5 1.319e+04 1.008e-08
 92.20884     60.6 1.315e+04 1.034e-08
 92.22914     58.9 1.319e+04 1.158e-08
 92.24915     57.4 1.328e+04 1.266e-08
 92.25930     57.4 1.327e+04 1.246e-08
 92.26973     55.9 1.324e+04 1.180e-08
 92.29003     53.7 1.360e+04 9.949e-09
 92.31032     48.9 1.439e+04 1.034e-08
 92.32550     44.6 1.555e+04 1.200e-08
 92.33157     41.5 1.653e+04 1.563e-08
 92.33670     43.8 1.573e+04 1.179e-08
 92.34579     36.8 1.777e+04 3.150e-08
 92.35589     33.4 1.776e+04 8.633e-08
 92.37116     31.6 1.821e+04 1.635e-07
 92.39151     28.8 1.853e+04 1.516e-07
 92.40404     25.6 1.873e+04 7.308e-08
 92.41276     28.7 1.810e+04 1.023e-07
 92.42052     29.8 1.832e+04 1.328e-07
 92.43210     26.3 1.815e+04 5.049e-08
 92.45240     20.8 1.576e+04 1.746e-08
 92.47134     17.6 1.319e+04 1.486e-08
 92.48149     20.3 1.371e+04 1.426e-08
 92.49299     18.8 1.288e+04 1.405e-08
 92.51329     18.5 1.284e+04 1.541e-08
 92.53359     18.2 1.296e+04 1.775e-08
 92.54878     17.6 1.301e+04 1.865e-08
 92.55893     18.8 1.301e+04 1.877e-08
 92.57418     17.9 1.297e+04 1.838e-08
 92.59448     16.7 1.269e+04 1.619e-08
 92.61477     16.3 1.223e+04 1.280e-08
 92.62623     15.7 1.181e+04 9.811e-09
 92.63637     16.9 1.185e+04 9.806e-09
 92.66561     15.4 1.123e+04 6.008e-09
 92.69372     15.6 1.060e+04 3.473e-09
 92.71401     16.8 1.040e+04 2.598e-09
 92.73206     17.4 1.012e+04 2.235e-09
 92.75236     18.5 1.020e+04 2.675e-09
 92.78749     20.0 1.015e+04 2.662e-09
 92.82808     21.3 1.015e+04 2.796e-09
 92.84851     21.7 1.018e+04 3.157e-09
 92.85856     22.0 1.016e+04 3.310e-09
 92.87863     22.4 1.022e+04 3.733e-09
 92.89893     22.6 1.036e+04 4.815e-09
 92.91571     23.1 1.048e+04 5.571e-09
 92.92585     23.1 1.043e+04 5.400e-09
 92.93952     23.0 1.062e+04 6.331e-09
 92.95981     22.6 1.096e+04 7.976e-09
 92.98011     21.8 1.140e+04 1.088e-08
 92.99315     20.7 1.191e+04 1.518e-08
 93.00330     21.0 1.162e+04 1.303e-08
 93.02070     19.5 1.216e+04 1.758e-08
 93.04100     17.4 1.284e+04 2.359e-08
 93.05335     14.5 1.357e+04 3.024e-08
 93.06265     15.5 1.273e+04 2.160e-08
 93.07059     14.7 1.336e+04 2.717e-08
 93.08159     11.8 1.393e+04 3.565e-08
 93.10189      9.4 1.407e+04 3.978e-08
 93.12219      7.2 1.403e+04 4.096e-08
 93.13789      5.4 1.390e+04 4.063e-08
 93.14804      4.8 1.462e+04 5.323e-08
 93.16278      3.3 1.419e+04 4.673e-08
 93.18308      2.3 1.369e+04 3.915e-08
 93.20337      1.5 1.322e+04 3.196e-08
 93.21533      0.7 1.275e+04 2.547e-08
 93.22548     -0.1 1.266e+04 2.470e-08
 93.24397     -0.7 1.217e+04 1.975e-08
 93.26426     -1.1 1.177e+04 1.646e-08
 93.28263     -1.3 1.151e+04 1.459e-08
 93.29278     -1.8 1.144e+04 1.455e-08
 93.30486     -1.7 1.129e+04 1.361e-08
 93.32515     -1.6 1.124e+04 1.314e-08
 93.34545     -1.4 1.119e+04 1.269e-08
 93.36007     -1.0 1.109e+04 1.207e-08
 93.36917     -1.3 1.096e+04 1.119e-08
 93.37484     -0.7 1.106e+04 1.222e-08
 93.38604     -0.5 1.085e+04 1.007e-08
 93.40634     -0.9 1.077e+04 8.697e-09
 93.42664     -1.3 1.066e+04 7.895e-09
 93.43752     -1.7 1.052e+04 7.342e-09
 93.44766     -2.2 1.020e+04 5.825e-09
 93.46723     -2.5 1.006e+04 5.328e-09
 93.48753     -2.5 9.911e+03 4.739e-09
 93.50481     -2.4 9.736e+03 4.054e-09
 93.51496     -2.6 9.537e+03 3.321e-09
 93.52812     -2.9 9.532e+03 2.833e-09
 93.54842     -3.7 9.528e+03 2.689e-09
 93.56871     -5.0 9.762e+03 2.900e-09
 93.58226     -8.2 1.088e+04 3.899e-09
 93.59240    -10.1 1.127e+04 4.933e-09
 93.60931    -15.1 1.289e+04 1.323e-08
 93.62960    -18.3 1.368e+04 3.600e-08
 93.64955    -17.6 1.410e+04 6.717e-08
 93.65970    -17.7 1.348e+04 4.953e-08
 93.67020    -17.1 1.343e+04 3.179e-08
 93.68619    -19.5 1.326e+04 1.579e-08
 93.69633    -19.4 1.362e+04 1.650e-08
 93.71079    -23.8 1.184e+04 9.232e-09
 93.72700    -25.2 1.104e+04 6.720e-09
 93.73714    -24.7 1.076e+04 4.949e-09
 93.75138    -24.5 1.058e+04 4.321e-09
 93.77168    -23.9 1.046e+04 3.770e-09
 93.79198    -23.2 1.045e+04 3.301e-09
 93.80444    -22.7 1.041e+04 3.058e-09
 93.81459    -22.4 1.039e+04 2.504e-09
 93.83257    -21.5 1.038e+04 2.600e-09
 93.85286    -21.3 1.047e+04 2.613e-09
 93.87174    -20.0 1.032e+04 3.229e-09
 93.89213    -19.1 1.042e+04 2.860e-09
 93.91385    -18.0 1.046e+04 3.540e-09
 93.93405    -17.5 1.048e+04 3.588e-09
 93.94918    -16.4 1.058e+04 3.536e-09
 93.95933    -16.4 1.065e+04 3.559e-09
 93.97464    -15.8 1.058e+04 3.575e-09
 93.99494    -14.7 1.063e+04 3.072e-09
 94.00768    -14.3 1.053e+04 3.030e-09
 94.01783    -14.4 1.068e+04 3.610e-09
 94.02662    -13.2 1.062e+04 3.035e-09
 94.03677    -13.2 1.067e+04 2.876e-09
 94.05583    -12.8 1.060e+04 2.794e-09
 94.07613    -11.7 1.062e+04 2.349e-09
 94.09392    -11.4 1.065e+04 2.360e-09
 94.10407    -11.7 1.065e+04 2.219e-09
 94.11672    -10.4 1.072e+04 2.200e-09
 94.13702    -10.3 1.083e+04 2.298e-09
 94.15731    -10.0 1.096e+04 2.854e-09
 94.17136     -9.5 1.109e+04 3.519e-09
 94.18151    -10.0 1.106e+04 2.966e-09
 94.19791     -9.9 1.133e+04 4.290e-09
 94.21820     -9.3 1.150e+04 6.034e-09
 94.23850     -8.7 1.172e+04 7.863e-09
 94.24881     -8.1 1.190e+04 9.049e-09
 94.25896     -8.6 1.172e+04 7.005e-09
 94.27909     -8.4 1.175e+04 6.865e-09
 94.29939     -8.2 1.178e+04 6.280e-09
 94.31610     -8.5 1.180e+04 5.858e-09
 94.32558     -9.1 1.174e+04 5.032e-09
 94.32917     -9.8 1.192e+04 6.357e-09
 94.33998    -10.1 1.195e+04 6.751e-09
 94.36028    -10.3 1.202e+04 7.630e-09
 94.38058    -10.5 1.218e+04 8.378e-09
 94.39355    -11.0 1.245e+04 9.537e-09
 94.40370    -11.3 1.235e+04 8.565e-09
 94.42117    -11.7 1.244e+04 9.376e-09
 94.44147    -12.1 1.251e+04 9.322e-09
 94.46084    -12.2 1.241e+04 8.349e-09
 94.47099    -12.5 1.226e+04 6.742e-09
 94.48206    -12.8 1.234e+04 5.205e-09
 94.50236    -13.6 1.241e+04 4.364e-09
 94.52265    -14.4 1.228e+04 4.105e-09
 94.53829    -14.7 1.225e+04 4.105e-09
 94.54844    -14.9 1.212e+04 3.880e-09
 94.56325    -15.3 1.202e+04 4.032e-09
 94.58354    -15.2 1.187e+04 3.980e-09
 94.60384    -15.1 1.184e+04 3.648e-09
 94.61573    -15.0 1.170e+04 3.393e-09
 94.62588    -15.5 1.166e+04 3.119e-09
 94.64061    -15.5 1.176e+04 2.526e-09
 94.66100    -15.5 1.168e+04 2.339e-09
 94.69537    -15.9 1.162e+04 2.239e-09
 94.73596    -16.7 1.150e+04 2.549e-09
 94.76067    -18.4 1.185e+04 4.012e-09
 94.78096    -20.5 1.209e+04 4.583e-09
 94.80690    -22.5 1.255e+04 6.906e-09
 94.82710    -24.7 1.264e+04 9.615e-09
 94.83791    -25.9 1.218e+04 1.236e-08
 94.84806    -26.7 1.206e+04 1.087e-08
 94.86769    -27.4 1.217e+04 8.479e-09
 94.88799    -29.3 1.215e+04 5.817e-09
 94.90521    -31.4 1.169e+04 4.639e-09
 94.91536    -31.9 1.159e+04 4.111e-09
 94.92858    -33.0 1.140e+04 3.529e-09
 94.94888    -34.0 1.138e+04 3.169e-09
 94.96200    -35.2 1.146e+04 3.024e-09
 94.97215    -35.6 1.138e+04 2.657e-09
 94.98265    -37.0 1.133e+04 3.010e-09
 94.99280    -36.9 1.129e+04 2.971e-09
 95.00977    -37.4 1.119e+04 3.716e-09
 95.03007    -37.4 1.120e+04 4.066e-09
 95.04995    -37.7 1.104e+04 3.701e-09
 95.07034    -37.5 1.096e+04 3.364e-09
 95.10130    -37.7 1.053e+04 2.063e-09
 95.14189    -37.4 1.023e+04 1.179e-09
 95.18249    -37.0 1.015e+04 9.640e-10
 95.20503    -36.0 1.017e+04 9.917e-10
 95.22533    -34.7 1.036e+04 1.039e-09
 95.26339    -34.1 1.033e+04 1.319e-09
 95.28369    -33.9 1.032e+04 1.400e-09
 95.30427    -32.7 1.032e+04 2.051e-09
 95.33962    -31.3 1.030e+04 2.334e-09
 95.35992    -30.3 1.058e+04 3.466e-09
 95.38545    -29.1 1.049e+04 3.003e-09
 95.42605    -28.2 1.042e+04 2.032e-09
 95.46664    -27.7 1.024e+04 1.687e-09
 95.49451    -26.2 1.013e+04 1.743e-09
 95.51481    -25.5 1.031e+04 2.364e-09
 95.54783    -23.6 1.021e+04 2.242e-09
 95.58842    -21.3 1.027e+04 1.574e-09
 95.62901    -19.9 1.036e+04 1.024e-09
 95.66961    -17.6 1.034e+04 1.007e-09
 95.71020    -16.0 1.035e+04 1.143e-09
 95.75079    -14.2 1.044e+04 1.567e-09
 95.78399    -12.6 1.059e+04 2.266e-09
 95.80429    -12.2 1.061e+04 2.083e-09
 95.83198    -10.5 1.066e+04 2.767e-09
 95.87257     -9.1 1.075e+04 2.953e-09
 95.90637     -7.8 1.081e+04 2.687e-09
 95.92667     -7.9 1.086e+04 2.697e-09
 95.93888     -6.8 1.095e+04 2.472e-09
 95.95918     -6.2 1.097e+04 2.366e-09
 95.99435     -5.2 1.104e+04 2.387e-09
 96.03494     -4.0 1.109e+04 2.641e-09
 96.07347     -2.8 1.132e+04 2.887e-09
 96.09377     -2.1 1.137e+04 2.982e-09
 96.11613     -0.7 1.150e+04 3.083e-09
 96.15672      0.5 1.163e+04 3.361e-09
 96.19732      2.1 1.182e+04 3.743e-09
 96.22766      3.8 1.190e+04 4.093e-09
 96.23781      3.2 1.254e+04 5.150e-09
 96.23841      2.7 1.262e+04 5.212e-09
 96.24846      4.0 1.253e+04 5.194e-09
 96.26816      0.6 1.421e+04 1.164e-08
 96.28846     -1.5 1.528e+04 5.034e-08
 96.30561     -1.6 1.564e+04 6.429e-08
 96.31576     -0.3 1.647e+04 1.114e-07
 96.32905     -2.2 1.765e+04 8.168e-08
 96.34935    -11.6 2.009e+04 4.429e-08
 96.36964    -21.1 1.484e+04 3.284e-08
 96.38305    -24.6 1.396e+04 9.169e-09
 96.39320    -25.8 1.456e+04 7.742e-09
 96.41024    -32.1 1.284e+04 3.175e-09
 96.43053    -34.3 1.235e+04 2.310e-09
 96.45035    -35.0 1.242e+04 2.196e-09
 96.46050    -36.0 1.244e+04 2.160e-09
 96.47113    -36.9 1.263e+04 2.645e-09
 96.49142    -37.5 1.245e+04 4.134e-09
 96.51172    -36.9 1.248e+04 6.425e-09
 96.52779    -36.1 1.278e+04 8.595e-09
 96.53794    -36.7 1.288e+04 8.771e-09
 96.54916    -36.4 1.298e+04 9.910e-09
 96.55930    -35.7 1.294e+04 9.988e-09
 96.57261    -35.5 1.304e+04 1.080e-08
 96.59290    -35.4 1.307e+04 1.089e-08
 96.60524    -35.0 1.305e+04 9.761e-09
 96.61538    -35.0 1.300e+04 7.900e-09
 96.63350    -34.6 1.284e+04 6.393e-09
 96.65379    -34.1 1.268e+04 5.091e-09
 96.67253    -33.6 1.258e+04 3.976e-09
 96.68268    -33.3 1.260e+04 3.255e-09
 96.69439    -32.8 1.248e+04 2.832e-09
 96.71468    -32.3 1.242e+04 2.616e-09
 96.73498    -31.9 1.240e+04 2.625e-09
 96.74998    -31.5 1.254e+04 3.074e-09
 96.76012    -31.0 1.262e+04 2.691e-09
 96.77557    -31.0 1.266e+04 3.057e-09
 96.79587    -30.8 1.263e+04 3.992e-09
 96.81617    -30.7 1.267e+04 4.586e-09
 96.82742    -30.9 1.260e+04 5.390e-09
 96.83757    -30.6 1.246e+04 4.619e-09
 96.85676    -30.9 1.250e+04 4.999e-09
 96.87065    -31.7 1.254e+04 5.180e-09
 96.88079    -32.1 1.239e+04 4.774e-09
 96.89472    -33.0 1.236e+04 5.149e-09
 96.90486    -32.2 1.218e+04 4.419e-09
 96.91765    -33.0 1.208e+04 4.415e-09
 96.93795    -33.4 1.201e+04 4.551e-09
 96.95824    -33.8 1.191e+04 4.289e-09
 96.97216    -34.0 1.196e+04 3.884e-09
 96.98231    -33.2 1.198e+04 3.097e-09
 97.00908    -33.8 1.207e+04 2.632e-09
 97.04977    -34.0 1.188e+04 2.346e-09
 97.09037    -33.9 1.164e+04 2.000e-09
 97.11709    -33.8 1.155e+04 1.819e-09
 97.13739    -32.2 1.156e+04 1.597e-09
 97.17155    -32.0 1.155e+04 1.561e-09
 97.19233    -31.5 1.156e+04 1.760e-09
 97.21263    -31.0 1.152e+04 2.151e-09
 97.25169    -30.7 1.168e+04 2.418e-09
 97.27198    -29.2 1.179e+04 2.356e-09
 97.28309    -30.1 1.190e+04 2.618e-09
 97.30329    -31.3 1.180e+04 3.935e-09
 97.32358    -31.5 1.195e+04 5.887e-09
 97.33908    -32.0 1.230e+04 7.596e-09
 97.34923    -31.4 1.235e+04 8.069e-09
 97.36418    -32.5 1.284e+04 9.858e-09
 97.38447    -35.0 1.334e+04 1.079e-08
 97.40477    -38.2 1.353e+04 1.201e-08
 97.41653    -40.8 1.346e+04 1.330e-08
 97.42667    -39.9 1.364e+04 1.393e-08
 97.44536    -42.0 1.308e+04 1.270e-08
 97.46566    -43.6 1.261e+04 8.197e-09
 97.48382    -45.5 1.242e+04 4.252e-09
 97.49397    -44.7 1.250e+04 4.400e-09
 97.50348    -47.2 1.225e+04 2.552e-09
 97.51363    -47.1 1.220e+04 2.537e-09
 97.53679    -49.5 1.183e+04 1.976e-09
 97.56146    -51.3 1.175e+04 1.832e-09
 97.58176    -50.4 1.179e+04 1.770e-09
 97.61808    -52.7 1.191e+04 1.766e-09
 97.65867    -55.2 1.210e+04 2.034e-09
 97.69605    -58.0 1.238e+04 2.329e-09
 97.71635    -56.5 1.235e+04 2.193e-09
 97.73986    -60.0 1.257e+04 2.278e-09
 97.78045    -64.3 1.307e+04 2.366e-09
 97.81502    -69.0 1.340e+04 3.515e-09
 97.83531    -68.1 1.352e+04 3.527e-09
 97.85084    -71.4 1.371e+04 6.731e-09
 97.86089    -71.2 1.369e+04 7.060e-09
 97.87159    -73.5 1.397e+04 1.004e-08
 97.89189    -75.9 1.404e+04 1.122e-08
 97.91218    -78.0 1.390e+04 1.063e-08
 97.92819    -79.4 1.366e+04 7.423e-09
 97.93834    -78.9 1.356e+04 7.046e-09
 97.95278    -80.1 1.340e+04 4.338e-09
 97.97307    -81.3 1.324e+04 2.942e-09
 97.99337    -82.3 1.310e+04 2.499e-09
 98.00573    -82.9 1.305e+04 2.495e-09
 98.02613    -82.3 1.299e+04 2.615e-09
 98.06460    -82.6 1.285e+04 2.774e-09
 98.10520    -82.7 1.268e+04 2.912e-09
 98.14042    -82.3 1.257e+04 2.973e-09
 98.16072    -81.8 1.257e+04 3.125e-09
 98.18638    -81.5 1.257e+04 3.245e-09
 98.22698    -81.4 1.255e+04 3.474e-09
 98.26757    -81.3 1.257e+04 3.658e-09
 98.29531    -81.1 1.275e+04 3.404e-09
 98.30536    -80.9 1.281e+04 4.090e-09
 98.31812    -80.8 1.277e+04 3.702e-09
 98.34866    -80.6 1.260e+04 3.288e-09
 98.38935    -80.4 1.239e+04 2.534e-09
 98.42990    -79.4 1.215e+04 1.679e-09
 98.45795    -77.7 1.204e+04 1.135e-09
 98.47829    -77.6 1.205e+04 1.167e-09
 98.51113    -76.2 1.197e+04 9.540e-10
 98.55172    -74.5 1.195e+04 8.831e-10
 98.58479    -72.8 1.195e+04 8.701e-10
 98.60508    -72.4 1.181e+04 8.614e-10
 98.63291    -71.0 1.194e+04 9.399e-10
 98.67350    -69.9 1.198e+04 1.208e-09
 98.71409    -69.0 1.206e+04 1.624e-09
 98.73968    -68.5 1.221e+04 2.163e-09
 98.75997    -68.3 1.212e+04 2.063e-09
 98.79528    -68.2 1.230e+04 2.808e-09
 98.83587    -68.3 1.245e+04 3.773e-09
 98.87427    -68.5 1.255e+04 4.790e-09
 98.89456    -68.5 1.239e+04 4.756e-09
 98.91706    -68.7 1.233e+04 5.122e-09
 98.95765    -68.7 1.227e+04 5.143e-09
 98.99825    -68.1 1.208e+04 4.372e-09
 99.02916    -66.8 1.193e+04 3.062e-09
 99.04945    -66.0 1.178e+04 3.029e-09
 99.07943    -64.3 1.173e+04 2.266e-09
 99.10098    -62.3 1.168e+04 1.740e-09
 99.12127    -62.1 1.178e+04 1.576e-09
 99.16062    -60.0 1.183e+04 1.321e-09
 99.18404    -57.8 1.191e+04 1.241e-09
 99.20434    -57.1 1.187e+04 1.314e-09
 99.24181    -55.2 1.211e+04 1.415e-09
 99.28240    -53.6 1.217e+04 1.950e-09
 99.31863    -52.0 1.229e+04 2.999e-09
 99.33893    -51.4 1.228e+04 3.522e-09
 99.36359    -50.2 1.255e+04 5.312e-09
 99.40418    -49.3 1.274e+04 6.664e-09
 99.44477    -48.9 1.277e+04 6.723e-09
 99.47352    -48.3 1.276e+04 4.565e-09
 99.49382    -48.1 1.286e+04 5.864e-09
 99.52596    -47.8 1.295e+04 3.534e-09
 99.56655    -47.8 1.302e+04 2.551e-09
 99.60714    -47.2 1.304e+04 2.436e-09
 99.62841    -46.6 1.320e+04 2.671e-09
 99.64871    -46.3 1.322e+04 3.815e-09
 99.68833    -45.7 1.305e+04 3.635e-09
 99.72366    -44.8 1.278e+04 2.923e-09
 99.74396    -45.0 1.274e+04 3.164e-09
 99.76300    -44.1 1.248e+04 2.348e-09
 99.78330    -43.8 1.237e+04 2.794e-09
 99.81011    -42.8 1.221e+04 2.374e-09
 99.85070    -41.8 1.211e+04 2.257e-09
 99.89130    -41.1 1.214e+04 2.333e-09
 99.91789    -40.6 1.197e+04 3.123e-09
 99.93819    -40.2 1.186e+04 2.896e-09
 99.97248    -39.9 1.173e+04 4.062e-09
100.01308    -39.3 1.168e+04 5.316e-09
