# Columns:
#   distance along LOS (in CHIMPs)
#   peculiar velocity  (in km/s)
#   temperature (K)
#   HI number density
# pos=(109.319,90.8881,91.4999), angles=(1.56292,1.71319)
  0.00149    103.7 1.803e+04 3.391e-07
  0.01041    103.7 1.759e+04 1.638e-07
  0.02772    103.5 1.697e+04 6.656e-08
  0.04745    103.4 1.625e+04 3.002e-08
  0.06700    103.2 1.517e+04 1.903e-08
  0.07687    102.6 1.466e+04 1.981e-08
  0.08691    103.3 1.453e+04 1.989e-08
  0.10664    103.9 1.455e+04 2.166e-08
  0.12638    104.5 1.472e+04 2.540e-08
  0.14611    104.9 1.488e+04 2.964e-08
  0.16584    105.1 1.484e+04 3.116e-08
  0.18557    105.2 1.474e+04 3.046e-08
  0.20488    105.4 1.442e+04 2.734e-08
  0.21475    106.1 1.463e+04 3.364e-08
  0.22503    106.5 1.410e+04 2.412e-08
  0.24476    106.8 1.358e+04 1.639e-08
  0.26450    107.1 1.315e+04 1.134e-08
  0.28423    107.4 1.282e+04 8.410e-09
  0.30396    108.1 1.256e+04 6.769e-09
  0.32369    108.9 1.238e+04 5.808e-09
  0.34276    109.7 1.208e+04 5.433e-09
  0.35262    109.9 1.205e+04 4.345e-09
  0.36315    110.8 1.183e+04 4.358e-09
  0.38289    111.8 1.181e+04 4.379e-09
  0.40262    112.7 1.176e+04 4.507e-09
  0.42235    113.5 1.168e+04 4.777e-09
  0.44208    114.4 1.161e+04 5.109e-09
  0.46181    115.2 1.152e+04 5.434e-09
  0.48063    116.0 1.143e+04 5.686e-09
  0.49050    116.3 1.140e+04 4.725e-09
  0.50127    117.1 1.134e+04 5.074e-09
  0.52101    118.0 1.128e+04 5.416e-09
  0.54074    118.9 1.124e+04 5.750e-09
  0.56047    119.7 1.119e+04 6.107e-09
  0.58020    120.5 1.115e+04 6.507e-09
  0.59993    121.4 1.112e+04 7.005e-09
  0.61851    122.2 1.113e+04 7.656e-09
  0.62838    122.3 1.111e+04 7.472e-09
  0.63940    123.1 1.112e+04 8.111e-09
  0.65913    123.8 1.119e+04 8.986e-09
  0.67886    124.3 1.135e+04 1.026e-08
  0.69859    124.5 1.157e+04 1.249e-08
  0.71832    124.6 1.182e+04 1.580e-08
  0.73805    124.6 1.213e+04 1.929e-08
  0.75639    124.6 1.242e+04 2.000e-08
  0.76625    125.0 1.237e+04 1.840e-08
  0.77752    124.7 1.245e+04 1.816e-08
  0.79725    123.9 1.244e+04 1.663e-08
  0.81698    122.6 1.220e+04 1.339e-08
  0.83671    121.0 1.167e+04 9.859e-09
  0.85644    119.2 1.101e+04 7.070e-09
  0.87617    117.4 1.042e+04 5.291e-09
  0.89426    115.9 9.935e+03 4.081e-09
  0.90413    116.5 1.028e+04 4.826e-09
  0.91564    115.2 9.833e+03 3.944e-09
  0.93537    114.5 9.586e+03 3.468e-09
  0.95510    114.1 9.517e+03 3.264e-09
  0.97483    113.7 9.395e+03 2.968e-09
  0.99456    113.5 9.340e+03 2.745e-09
  1.01430    113.2 9.218e+03 2.476e-09
  1.03214    113.1 9.100e+03 2.290e-09
  1.04201    112.9 9.262e+03 2.393e-09
  1.06372    112.0 9.396e+03 2.629e-09
  1.10328    112.1 9.296e+03 2.597e-09
  1.14275    113.0 9.214e+03 2.575e-09
  1.17021    114.2 9.267e+03 2.553e-09
  1.18995    114.0 9.399e+03 2.771e-09
  1.21171    115.0 9.246e+03 2.637e-09
  1.23134    116.1 9.233e+03 2.636e-09
  1.25107    117.1 9.325e+03 2.723e-09
  1.27081    118.0 9.490e+03 2.872e-09
  1.29054    118.6 9.778e+03 3.182e-09
  1.30790    118.6 1.035e+04 3.913e-09
  1.31776    118.6 1.093e+04 4.698e-09
  1.33000    118.6 1.168e+04 6.480e-09
  1.34973    118.6 1.221e+04 9.425e-09
  1.36946    118.6 1.257e+04 1.401e-08
  1.38919    118.5 1.290e+04 2.102e-08
  1.40893    118.1 1.341e+04 3.129e-08
  1.42866    117.5 1.410e+04 4.494e-08
  1.44577    116.6 1.490e+04 6.059e-08
  1.45564    117.0 1.473e+04 5.933e-08
  1.46812    115.9 1.557e+04 6.953e-08
  1.48785    114.3 1.572e+04 6.826e-08
  1.50758    112.3 1.569e+04 5.674e-08
  1.52732    110.1 1.519e+04 3.657e-08
  1.54705    107.4 1.415e+04 2.061e-08
  1.56678    104.8 1.267e+04 1.274e-08
  1.58365    103.4 1.158e+04 1.004e-08
  1.59352    103.4 1.180e+04 1.165e-08
  1.60624    103.1 1.180e+04 1.145e-08
  1.62597    102.9 1.171e+04 1.116e-08
  1.65567    102.6 1.167e+04 1.075e-08
  1.69523    102.6 1.164e+04 1.004e-08
  1.72172    102.4 1.161e+04 9.547e-09
  1.74145    102.2 1.194e+04 1.110e-08
  1.77416    101.7 1.176e+04 9.727e-09
  1.81362    101.0 1.145e+04 7.977e-09
  1.85308    100.5 1.101e+04 5.573e-09
  1.89254    100.3 1.056e+04 3.314e-09
  1.93201    100.2 1.007e+04 1.987e-09
  1.97147    100.4 9.458e+03 1.668e-09
  1.99748    101.5 9.327e+03 1.688e-09
  2.01721    100.8 9.372e+03 2.121e-09
  2.05040    102.3 9.266e+03 2.399e-09
  2.08986    103.8 9.207e+03 2.593e-09
  2.12932    105.0 9.183e+03 2.608e-09
  2.16879    106.3 9.084e+03 2.556e-09
  2.20825    107.7 8.915e+03 2.356e-09
  2.24771    109.3 8.751e+03 2.066e-09
  2.27323    111.0 8.621e+03 1.806e-09
  2.29296    110.0 8.501e+03 1.618e-09
  2.32664    111.7 8.368e+03 1.391e-09
  2.36610    113.5 8.247e+03 1.269e-09
  2.40557    115.4 8.159e+03 1.224e-09
  2.44503    117.4 8.151e+03 1.227e-09
  2.48449    119.5 8.157e+03 1.244e-09
  2.52395    121.5 8.184e+03 1.306e-09
  2.54898    123.5 8.232e+03 1.419e-09
  2.56872    122.5 8.188e+03 1.447e-09
  2.60288    124.2 8.339e+03 1.610e-09
  2.64234    125.8 8.599e+03 1.867e-09
  2.68181    126.2 9.031e+03 2.396e-09
  2.72127    125.7 9.489e+03 3.205e-09
  2.76073    125.3 9.944e+03 4.898e-09
  2.80020    124.8 1.028e+04 5.825e-09
  2.82474    123.7 1.024e+04 5.413e-09
  2.84447    121.8 1.006e+04 4.513e-09
  2.87912    120.4 9.780e+03 3.156e-09
  2.91859    118.6 9.308e+03 2.076e-09
  2.95805    117.2 8.994e+03 1.881e-09
  2.99751    116.6 9.009e+03 2.008e-09
  3.03698    116.5 9.137e+03 2.362e-09
  3.07644    116.3 9.274e+03 2.546e-09
  3.10049    115.8 9.305e+03 2.511e-09
  3.12022    114.1 9.446e+03 2.980e-09
  3.15536    113.7 9.343e+03 2.816e-09
  3.19483    113.7 9.266e+03 2.757e-09
  3.23429    114.4 9.293e+03 2.790e-09
  3.27375    115.4 9.468e+03 2.956e-09
  3.31322    116.5 9.756e+03 3.197e-09
  3.35268    117.3 9.920e+03 3.288e-09
  3.37615    117.6 9.994e+03 3.185e-09
  3.38592    117.2 9.983e+03 3.411e-09
  3.40181    117.7 1.015e+04 3.691e-09
  3.42155    118.1 1.033e+04 4.280e-09
  3.44128    118.5 1.053e+04 5.258e-09
  3.46101    119.0 1.081e+04 7.060e-09
  3.48074    119.6 1.122e+04 1.007e-08
  3.50047    120.5 1.176e+04 1.399e-08
  3.51393    121.5 1.231e+04 1.882e-08
  3.52379    121.1 1.259e+04 1.679e-08
  3.53993    121.6 1.267e+04 1.650e-08
  3.55967    121.6 1.279e+04 1.533e-08
  3.57940    121.3 1.279e+04 1.327e-08
  3.59913    120.8 1.256e+04 1.179e-08
  3.61886    120.1 1.252e+04 1.192e-08
  3.63859    119.5 1.252e+04 1.326e-08
  3.65180    119.4 1.269e+04 1.613e-08
  3.66167    118.9 1.241e+04 1.472e-08
  3.67806    119.1 1.264e+04 1.690e-08
  3.69779    119.2 1.270e+04 1.742e-08
  3.71752    119.2 1.265e+04 1.729e-08
  3.73725    119.2 1.251e+04 1.685e-08
  3.75698    119.1 1.232e+04 1.613e-08
  3.77671    119.1 1.211e+04 1.519e-08
  3.78968    118.9 1.186e+04 1.381e-08
  3.79955    119.3 1.142e+04 1.136e-08
  3.81618    119.5 1.125e+04 1.045e-08
  3.83591    119.7 1.103e+04 9.116e-09
  3.85564    120.0 1.075e+04 7.520e-09
  3.87537    120.4 1.044e+04 5.974e-09
  3.90507    120.7 9.950e+03 4.046e-09
  3.92766    121.1 9.712e+03 3.340e-09
  3.93742    122.0 9.743e+03 4.023e-09
  3.95430    122.6 9.699e+03 3.914e-09
  3.97403    123.1 9.714e+03 3.956e-09
  3.99376    123.5 9.789e+03 4.192e-09
  4.01349    124.0 9.969e+03 4.757e-09
  4.03322    124.3 1.021e+04 5.627e-09
  4.05295    124.4 1.046e+04 6.696e-09
  4.06544    124.5 1.068e+04 7.909e-09
  4.07530    125.4 1.096e+04 8.960e-09
  4.09242    125.5 1.121e+04 1.048e-08
  4.11215    125.5 1.147e+04 1.229e-08
  4.13188    125.4 1.175e+04 1.442e-08
  4.15161    125.3 1.203e+04 1.666e-08
  4.17134    125.2 1.223e+04 1.825e-08
  4.19108    125.0 1.230e+04 1.834e-08
  4.20331    124.7 1.226e+04 1.782e-08
  4.21318    125.2 1.288e+04 2.412e-08
  4.23054    124.8 1.278e+04 2.295e-08
  4.25027    124.4 1.247e+04 1.999e-08
  4.27000    124.2 1.201e+04 1.620e-08
  4.28973    124.1 1.149e+04 1.267e-08
  4.30947    124.0 1.100e+04 9.947e-09
  4.32920    124.0 1.059e+04 8.015e-09
  4.34119    124.1 1.024e+04 6.635e-09
  4.35106    124.1 1.034e+04 6.897e-09
  4.36866    124.3 9.949e+03 5.762e-09
  4.38839    124.8 9.755e+03 5.450e-09
  4.40812    125.7 9.760e+03 5.449e-09
  4.42785    126.7 9.812e+03 5.581e-09
  4.44759    127.5 9.990e+03 6.197e-09
  4.46732    128.2 1.038e+04 7.824e-09
  4.47907    128.8 1.097e+04 1.102e-08
  4.48893    129.0 1.090e+04 8.978e-09
  4.50678    129.4 1.184e+04 1.412e-08
  4.52651    130.1 1.313e+04 2.393e-08
  4.54624    131.1 1.441e+04 4.099e-08
  4.56598    132.1 1.556e+04 6.590e-08
  4.58571    132.5 1.650e+04 9.364e-08
  4.60544    132.3 1.701e+04 1.105e-07
  4.61694    132.0 1.706e+04 1.107e-07
  4.62681    131.2 1.791e+04 1.443e-07
  4.63992    131.3 1.791e+04 1.514e-07
  4.64974    131.4 1.791e+04 1.514e-07
  4.65960    131.4 1.789e+04 1.487e-07
  4.66947    131.4 1.799e+04 1.433e-07
  4.67933    131.0 1.803e+04 1.402e-07
  4.68578    130.4 1.804e+04 1.368e-07
  4.69072    129.8 1.858e+04 1.722e-07
  4.69907    129.5 1.884e+04 1.838e-07
  4.70893    129.0 1.937e+04 2.159e-07
  4.71880    128.0 1.987e+04 2.771e-07
  4.72866    126.8 2.008e+04 3.674e-07
  4.73853    125.6 2.007e+04 4.656e-07
  4.74839    124.4 1.995e+04 5.028e-07
  4.75472    123.1 1.989e+04 4.915e-07
  4.75966    121.7 1.954e+04 6.844e-07
  4.76813    120.9 1.947e+04 5.313e-07
  4.77799    120.5 1.935e+04 3.357e-07
  4.78786    120.4 1.905e+04 2.051e-07
  4.80271    119.0 1.813e+04 8.344e-08
  4.82249    117.1 1.582e+04 2.754e-08
  4.84222    114.2 1.291e+04 1.330e-08
  4.86195    112.8 1.182e+04 1.068e-08
  4.88168    112.8 1.165e+04 1.041e-08
  4.89270    113.3 1.165e+04 1.050e-08
  4.90256    111.5 1.167e+04 1.095e-08
  4.92114    111.9 1.188e+04 1.164e-08
  4.94087    111.9 1.213e+04 1.242e-08
  4.95524    111.5 1.221e+04 1.246e-08
  4.96510    113.9 1.179e+04 1.016e-08
  4.98034    113.4 1.182e+04 1.008e-08
  5.00007    112.3 1.183e+04 9.504e-09
  5.01980    110.6 1.172e+04 8.464e-09
  5.03057    107.6 1.186e+04 8.403e-09
  5.04044    103.7 1.181e+04 8.295e-09
  5.05926     97.0 1.325e+04 9.210e-09
  5.07401     91.7 1.522e+04 1.148e-08
  5.08383     81.1 2.035e+04 2.407e-08
  5.09370     67.8 2.254e+04 1.034e-07
  5.09942     58.3 2.162e+04 2.696e-07
  5.10435     56.5 2.121e+04 2.598e-07
  5.11343     50.0 2.126e+04 2.565e-07
  5.12329     44.6 2.141e+04 1.904e-07
  5.13316     35.6 2.286e+04 9.678e-08
  5.14303     31.4 2.293e+04 6.632e-08
  5.15787     15.6 2.085e+04 4.527e-08
  5.16845      1.8 2.027e+04 5.533e-08
  5.17832      5.2 1.668e+04 4.043e-08
  5.19739     -0.4 1.983e+04 8.334e-08
  5.21213     -6.8 2.195e+04 2.083e-07
  5.22195     -9.0 2.110e+04 3.446e-07
  5.23182    -10.5 2.041e+04 4.614e-07
  5.23729    -11.7 2.011e+04 4.994e-07
  5.24223    -10.3 2.022e+04 5.222e-07
  5.25155    -11.4 1.994e+04 5.359e-07
  5.26142    -12.1 2.025e+04 4.785e-07
  5.27128    -13.7 2.121e+04 3.635e-07
  5.28115    -15.9 2.285e+04 2.289e-07
  5.29101    -18.9 2.502e+04 1.217e-07
  5.30088    -21.6 2.566e+04 7.544e-08
  5.30628    -27.8 2.455e+04 3.656e-08
  5.31121    -22.4 2.485e+04 9.659e-08
  5.32061    -26.2 2.505e+04 6.627e-08
  5.33048    -28.8 2.485e+04 5.510e-08
  5.34034    -32.6 2.528e+04 4.432e-08
  5.35021    -35.9 2.574e+04 3.984e-08
  5.36007    -39.5 2.566e+04 4.009e-08
  5.36994    -44.7 2.409e+04 5.366e-08
  5.37517    -48.0 2.255e+04 6.879e-08
  5.38010    -44.5 2.376e+04 8.467e-08
  5.38967    -49.1 2.152e+04 1.227e-07
  5.39954    -52.5 2.122e+04 1.852e-07
  5.40940    -55.6 2.154e+04 3.249e-07
  5.41927    -60.6 2.275e+04 5.587e-07
  5.42913    -70.5 2.475e+04 7.137e-07
  5.43900    -86.9 2.567e+04 6.976e-07
  5.44411   -106.2 2.438e+04 5.596e-07
  5.44904    -96.5 2.446e+04 1.050e-06
  5.45873   -117.2 2.256e+04 5.295e-07
  5.46860   -129.0 2.070e+04 3.817e-07
  5.47846   -136.0 2.058e+04 3.001e-07
  5.48833   -141.8 2.026e+04 2.294e-07
  5.49819   -146.6 1.965e+04 1.713e-07
  5.50806   -150.4 1.894e+04 1.283e-07
  5.51305   -153.4 1.825e+04 9.773e-08
  5.51798   -153.0 1.827e+04 9.840e-08
  5.52779   -155.7 1.762e+04 7.694e-08
  5.53766   -158.2 1.693e+04 6.123e-08
  5.55250   -161.5 1.597e+04 4.622e-08
  5.57222   -166.9 1.379e+04 2.708e-08
  5.59195   -167.2 1.381e+04 2.649e-08
  5.61175   -169.8 1.327e+04 2.089e-08
  5.63148   -172.2 1.271e+04 1.660e-08
  5.65121   -174.4 1.235e+04 1.407e-08
  5.67094   -176.2 1.225e+04 1.318e-08
  5.69067   -177.6 1.226e+04 1.306e-08
  5.71009   -178.9 1.227e+04 1.304e-08
  5.71996   -176.5 1.216e+04 1.229e-08
  5.73014   -177.6 1.215e+04 1.249e-08
  5.74987   -178.5 1.211e+04 1.267e-08
  5.76960   -179.2 1.195e+04 1.254e-08
  5.78933   -179.8 1.166e+04 1.168e-08
  5.80906   -180.4 1.132e+04 1.054e-08
  5.82879   -180.8 1.103e+04 9.504e-09
  5.84797   -181.0 1.087e+04 8.895e-09
  5.85784   -179.6 1.148e+04 1.134e-08
  5.86826   -180.1 1.146e+04 1.118e-08
  5.88799   -181.2 1.154e+04 1.121e-08
  5.90772   -183.4 1.233e+04 1.318e-08
  5.92745   -186.0 1.431e+04 2.501e-08
  5.94718   -187.9 1.570e+04 4.962e-08
  5.96692   -189.3 1.640e+04 7.832e-08
  5.98585   -190.4 1.653e+04 9.263e-08
  5.99571   -190.8 1.767e+04 1.457e-07
  6.00140   -190.9 1.697e+04 1.142e-07
  6.01121   -190.9 1.673e+04 1.079e-07
  6.02108   -190.7 1.619e+04 8.932e-08
  6.03095   -190.3 1.571e+04 7.220e-08
  6.04081   -190.0 1.508e+04 5.477e-08
  6.05068   -189.9 1.470e+04 4.468e-08
  6.06552   -190.1 1.415e+04 3.417e-08
  6.08531   -190.1 1.324e+04 2.280e-08
  6.10504   -189.8 1.231e+04 1.522e-08
  6.12372   -189.3 1.167e+04 1.140e-08
  6.13359   -189.3 1.207e+04 1.460e-08
  6.14450   -188.5 1.180e+04 1.258e-08
  6.16423   -187.6 1.167e+04 1.141e-08
  6.18396   -186.7 1.155e+04 1.051e-08
  6.20369   -186.0 1.144e+04 9.831e-09
  6.22343   -185.4 1.140e+04 9.384e-09
  6.24316   -185.1 1.139e+04 9.185e-09
  6.26160   -184.8 1.140e+04 9.173e-09
  6.27147   -184.8 1.178e+04 1.072e-08
  6.28262   -184.6 1.172e+04 1.028e-08
  6.30235   -184.4 1.170e+04 9.989e-09
  6.32208   -184.1 1.171e+04 9.874e-09
  6.34182   -183.8 1.175e+04 9.886e-09
  6.36155   -183.6 1.185e+04 1.007e-08
  6.38128   -183.5 1.217e+04 1.075e-08
  6.39948   -184.1 1.310e+04 1.348e-08
  6.40934   -183.8 1.185e+04 8.490e-09
  6.42074   -185.1 1.314e+04 1.117e-08
  6.44047   -187.0 1.444e+04 1.843e-08
  6.46020   -188.7 1.522e+04 3.140e-08
  6.47994   -190.1 1.555e+04 4.677e-08
  6.49967   -191.2 1.554e+04 5.605e-08
  6.51940   -191.8 1.546e+04 5.776e-08
  6.53736   -191.7 1.487e+04 5.287e-08
  6.54722   -191.0 1.444e+04 4.203e-08
  6.55886   -190.8 1.383e+04 3.529e-08
  6.57859   -190.6 1.324e+04 2.486e-08
  6.59833   -190.5 1.270e+04 1.697e-08
  6.61806   -190.6 1.226e+04 1.247e-08
  6.63779   -190.6 1.196e+04 1.035e-08
  6.65752   -190.4 1.176e+04 9.395e-09
  6.67523   -189.8 1.160e+04 8.842e-09
  6.68510   -189.5 1.115e+04 6.840e-09
  6.69698   -188.8 1.104e+04 6.539e-09
  6.71671   -188.0 1.095e+04 6.312e-09
  6.73645   -187.3 1.083e+04 6.057e-09
  6.75618   -186.4 1.069e+04 5.751e-09
  6.77591   -185.5 1.056e+04 5.420e-09
  6.79564   -184.5 1.045e+04 5.077e-09
  6.81311   -183.4 1.036e+04 4.737e-09
  6.82298   -183.0 1.036e+04 4.793e-09
  6.83510   -181.9 1.029e+04 4.485e-09
  6.85484   -180.8 1.021e+04 4.187e-09
  6.87457   -179.6 1.012e+04 3.857e-09
  6.89430   -178.0 1.003e+04 3.470e-09
  6.91403   -176.3 9.973e+03 3.140e-09
  6.94122   -175.0 9.958e+03 2.934e-09
  6.96095   -173.7 9.911e+03 3.006e-09
  6.98319   -172.1 9.905e+03 2.942e-09
  7.02275   -170.2 9.898e+03 2.785e-09
  7.06221   -167.8 9.869e+03 2.690e-09
  7.10168   -165.5 9.867e+03 2.680e-09
  7.14114   -163.6 1.004e+04 2.841e-09
  7.17064   -162.2 1.040e+04 3.317e-09
  7.19027   -161.5 1.052e+04 3.946e-09
  7.21000   -160.7 1.069e+04 4.670e-09
  7.22674   -159.8 1.089e+04 5.560e-09
  7.23661   -159.8 1.094e+04 5.760e-09
  7.24947   -159.1 1.110e+04 6.437e-09
  7.26920   -158.4 1.122e+04 7.057e-09
  7.28893   -157.8 1.130e+04 7.508e-09
  7.30866   -157.2 1.134e+04 7.736e-09
  7.32839   -156.6 1.135e+04 7.806e-09
  7.34812   -156.0 1.136e+04 7.821e-09
  7.36462   -155.4 1.133e+04 7.757e-09
  7.37448   -155.4 1.133e+04 7.663e-09
  7.38759   -154.8 1.133e+04 7.646e-09
  7.40732   -154.1 1.131e+04 7.526e-09
  7.42705   -153.4 1.129e+04 7.264e-09
  7.43749   -152.6 1.126e+04 6.832e-09
  7.44736   -152.7 1.121e+04 6.605e-09
  7.46651   -151.9 1.115e+04 6.113e-09
  7.48625   -151.1 1.106e+04 5.503e-09
  7.50249   -150.2 1.095e+04 4.872e-09
  7.51236   -150.5 1.104e+04 5.289e-09
  7.52571   -149.4 1.089e+04 4.522e-09
  7.54544   -148.2 1.079e+04 3.774e-09
  7.56517   -146.9 1.077e+04 3.117e-09
  7.58490   -145.9 1.084e+04 2.749e-09
  7.61460   -144.8 1.089e+04 2.358e-09
  7.65416   -142.6 1.083e+04 1.745e-09
  7.69362   -140.2 1.089e+04 1.406e-09
  7.73309   -138.1 1.095e+04 1.333e-09
  7.76858   -136.1 1.101e+04 1.337e-09
  7.78831   -136.2 1.132e+04 1.544e-09
  7.81201   -134.4 1.155e+04 1.855e-09
  7.85147   -132.7 1.162e+04 2.616e-09
  7.89094   -130.9 1.171e+04 3.573e-09
  7.91622   -129.4 1.180e+04 4.340e-09
  7.92599   -129.6 1.188e+04 4.652e-09
  7.94007   -128.7 1.193e+04 4.822e-09
  7.95980   -127.9 1.195e+04 4.849e-09
  7.97953   -127.1 1.198e+04 4.758e-09
  7.99927   -126.3 1.202e+04 4.441e-09
  8.01900   -125.4 1.201e+04 4.018e-09
  8.03873   -124.4 1.201e+04 3.576e-09
  8.05400   -123.5 1.201e+04 3.240e-09
  8.06397   -124.0 1.210e+04 3.178e-09
  8.08825   -122.6 1.200e+04 2.754e-09
  8.12772   -120.8 1.177e+04 2.427e-09
  8.16718   -119.1 1.166e+04 2.351e-09
  8.20664   -118.0 1.163e+04 2.390e-09
  8.24611   -117.4 1.156e+04 2.864e-09
  8.28557   -117.2 1.145e+04 3.475e-09
  8.32009   -117.0 1.138e+04 3.800e-09
  8.33982   -116.6 1.149e+04 3.997e-09
  8.35453   -116.4 1.138e+04 3.925e-09
  8.37417   -116.4 1.136e+04 3.949e-09
  8.39390   -116.3 1.123e+04 3.945e-09
  8.41363   -116.1 1.113e+04 3.834e-09
  8.43336   -115.8 1.099e+04 3.595e-09
  8.45309   -115.4 1.092e+04 3.419e-09
  8.48279   -114.9 1.079e+04 3.057e-09
  8.52235   -113.6 1.057e+04 2.498e-09
  8.56181   -112.3 1.050e+04 2.289e-09
  8.59584   -111.0 1.040e+04 2.155e-09
  8.61557   -111.0 1.053e+04 2.715e-09
  8.64074   -109.5 1.041e+04 2.581e-09
  8.68020   -107.8 1.028e+04 2.414e-09
  8.71966   -105.9 1.017e+04 2.220e-09
  8.75913   -103.8 1.006e+04 2.018e-09
  8.79859   -101.5 9.965e+03 1.837e-09
  8.83805    -99.2 9.879e+03 1.684e-09
  8.87159    -96.8 9.811e+03 1.563e-09
  8.89133    -96.5 9.993e+03 1.720e-09
  8.91698    -93.9 9.943e+03 1.714e-09
  8.95644    -91.2 9.871e+03 1.709e-09
  8.99590    -88.4 9.799e+03 1.680e-09
  9.03537    -85.5 9.729e+03 1.629e-09
  9.07483    -82.5 9.685e+03 1.566e-09
  9.11429    -79.6 9.677e+03 1.508e-09
  9.14735    -76.7 9.683e+03 1.480e-09
  9.16708    -76.3 9.814e+03 1.634e-09
  9.19322    -73.5 9.798e+03 1.588e-09
  9.23268    -70.7 9.793e+03 1.578e-09
  9.27215    -68.1 9.795e+03 1.583e-09
  9.31161    -65.6 9.802e+03 1.605e-09
  9.35107    -63.3 9.803e+03 1.634e-09
  9.39054    -61.2 9.799e+03 1.657e-09
  9.42310    -59.3 9.808e+03 1.690e-09
  9.44283    -59.6 1.008e+04 2.402e-09
  9.46946    -58.4 1.016e+04 2.827e-09
  9.50893    -57.4 1.042e+04 3.694e-09
  9.54839    -57.0 1.082e+04 5.158e-09
  9.57075    -56.8 1.099e+04 6.302e-09
  9.58052    -57.7 1.127e+04 7.143e-09
  9.59752    -58.1 1.162e+04 8.852e-09
  9.61725    -58.4 1.187e+04 1.021e-08
  9.63699    -58.8 1.197e+04 1.066e-08
  9.65672    -59.1 1.205e+04 1.055e-08
  9.67645    -59.6 1.209e+04 9.323e-09
  9.69618    -60.1 1.218e+04 8.500e-09
  9.70853    -60.7 1.222e+04 8.295e-09
  9.71839    -62.3 1.226e+04 8.004e-09
  9.73564    -62.5 1.232e+04 9.650e-09
  9.75537    -62.4 1.243e+04 1.174e-08
  9.77511    -62.2 1.268e+04 1.404e-08
  9.79484    -62.3 1.307e+04 1.680e-08
  9.81457    -62.7 1.356e+04 2.136e-08
  9.83430    -63.2 1.414e+04 2.921e-08
  9.84640    -63.6 1.480e+04 4.126e-08
  9.85627    -64.7 1.577e+04 7.701e-08
  9.87376    -64.8 1.605e+04 8.908e-08
  9.89350    -65.5 1.609e+04 9.211e-08
  9.90988    -66.0 1.582e+04 8.692e-08
  9.91974    -65.2 1.528e+04 6.109e-08
  9.93296    -65.6 1.509e+04 5.952e-08
  9.95269    -65.8 1.502e+04 6.073e-08
  9.97242    -65.7 1.506e+04 6.310e-08
  9.98428    -65.5 1.509e+04 6.307e-08
  9.99415    -66.7 1.534e+04 4.599e-08
 10.01188    -66.8 1.524e+04 4.004e-08
 10.03162    -66.9 1.493e+04 3.086e-08
 10.05135    -67.1 1.434e+04 2.190e-08
 10.07108    -67.3 1.365e+04 1.539e-08
 10.09081    -67.4 1.300e+04 1.157e-08
 10.11054    -67.4 1.255e+04 9.938e-09
 10.12216    -67.2 1.238e+04 9.585e-09
 10.13202    -67.9 1.344e+04 1.775e-08
 10.15001    -67.8 1.364e+04 1.913e-08
 10.16974    -67.7 1.369e+04 2.283e-08
 10.18947    -67.4 1.372e+04 2.708e-08
 10.20920    -67.1 1.374e+04 3.107e-08
 10.22893    -66.7 1.376e+04 3.426e-08
 10.24866    -66.3 1.382e+04 3.604e-08
 10.26003    -65.9 1.384e+04 3.647e-08
 10.26990    -66.6 1.431e+04 4.983e-08
 10.28813    -66.0 1.433e+04 5.122e-08
 10.30786    -65.4 1.421e+04 5.038e-08
 10.32759    -64.4 1.370e+04 4.128e-08
 10.34732    -63.2 1.300e+04 2.898e-08
 10.36705    -62.2 1.237e+04 1.949e-08
 10.38678    -61.6 1.186e+04 1.354e-08
 10.39791    -60.9 1.138e+04 1.001e-08
 10.40778    -61.0 1.158e+04 1.738e-08
 10.42625    -59.8 1.116e+04 1.373e-08
 10.44598    -58.6 1.086e+04 1.109e-08
 10.46571    -57.4 1.060e+04 8.910e-09
 10.48544    -56.2 1.034e+04 6.947e-09
 10.50517    -55.1 1.012e+04 5.333e-09
 10.52491    -54.1 9.989e+03 4.192e-09
 10.53579    -53.1 9.925e+03 3.548e-09
 10.54575    -54.5 9.803e+03 3.764e-09
 10.57443    -51.8 9.541e+03 2.474e-09
 10.61389    -50.2 9.595e+03 2.378e-09
 10.65336    -49.8 9.993e+03 2.850e-09
 10.67376    -48.8 9.231e+03 3.567e-09
 10.68353    -51.0 1.094e+04 4.094e-09
 10.70249    -51.0 1.112e+04 5.344e-09
 10.72222    -49.8 1.074e+04 6.566e-09
 10.74195    -52.7 1.343e+04 1.199e-08
 10.76168    -57.2 1.678e+04 3.226e-08
 10.78142    -60.2 1.768e+04 8.586e-08
 10.80115    -61.2 1.749e+04 1.626e-07
 10.81154    -61.8 1.719e+04 1.914e-07
 10.81643    -61.6 1.676e+04 3.667e-07
 10.82571    -61.4 1.634e+04 2.390e-07
 10.83558    -61.5 1.621e+04 1.667e-07
 10.84545    -62.4 1.629e+04 1.335e-07
 10.85531    -63.5 1.646e+04 1.139e-07
 10.86518    -64.8 1.659e+04 9.755e-08
 10.87504    -66.4 1.664e+04 8.431e-08
 10.88038    -67.7 1.672e+04 7.776e-08
 10.88532    -69.4 1.541e+04 5.400e-08
 10.89477    -70.6 1.514e+04 5.125e-08
 10.90464    -71.6 1.477e+04 4.780e-08
 10.91451    -72.3 1.440e+04 4.338e-08
 10.92437    -72.6 1.399e+04 3.759e-08
 10.93922    -73.1 1.339e+04 2.872e-08
 10.94942    -74.4 1.139e+04 1.326e-08
 10.95929    -75.5 1.083e+04 9.967e-09
 10.97873    -75.9 1.002e+04 5.960e-09
 10.99846    -76.1 9.454e+03 3.784e-09
 11.01819    -76.0 9.071e+03 2.630e-09
 11.04789    -75.4 8.780e+03 1.958e-09
 11.07763    -74.7 8.492e+03 1.571e-09
 11.09736    -75.1 8.747e+03 1.751e-09
 11.12691    -73.7 8.376e+03 1.384e-09
 11.16638    -72.4 8.178e+03 1.305e-09
 11.20584    -71.3 8.114e+03 1.310e-09
 11.24530    -70.2 7.995e+03 1.471e-09
 11.28477    -69.1 7.961e+03 1.680e-09
 11.32423    -68.0 7.934e+03 1.800e-09
 11.35338    -66.9 7.909e+03 1.817e-09
 11.37311    -67.3 8.141e+03 2.309e-09
 11.40315    -66.2 7.941e+03 2.059e-09
 11.44262    -64.9 7.752e+03 1.811e-09
 11.48208    -63.5 7.641e+03 1.658e-09
 11.52154    -61.8 7.596e+03 1.605e-09
 11.56101    -60.2 7.625e+03 1.630e-09
 11.60047    -59.8 8.015e+03 2.167e-09
 11.62913    -60.1 9.416e+03 4.882e-09
 11.63890    -62.3 9.822e+03 6.641e-09
 11.64960    -62.6 1.075e+04 1.165e-08
 11.66934    -62.8 1.170e+04 2.026e-08
 11.68907    -62.4 1.249e+04 3.154e-08
 11.70880    -61.8 1.302e+04 4.027e-08
 11.72853    -61.5 1.324e+04 4.279e-08
 11.74826    -61.5 1.329e+04 4.170e-08
 11.76682    -61.6 1.310e+04 3.445e-08
 11.77668    -63.7 1.293e+04 2.546e-08
 11.78772    -64.6 1.250e+04 2.088e-08
 11.80746    -65.2 1.219e+04 1.882e-08
 11.82719    -65.7 1.206e+04 1.822e-08
 11.84692    -66.0 1.206e+04 1.852e-08
 11.86665    -66.4 1.238e+04 2.059e-08
 11.88638    -66.6 1.269e+04 2.239e-08
 11.90469    -66.9 1.282e+04 2.282e-08
 11.91456    -67.2 1.264e+04 1.889e-08
 11.92585    -67.3 1.245e+04 1.652e-08
 11.94558    -67.3 1.215e+04 1.387e-08
 11.96531    -67.3 1.183e+04 1.163e-08
 11.98504    -67.2 1.154e+04 1.015e-08
 12.00477    -66.8 1.131e+04 9.477e-09
 12.02450    -66.3 1.119e+04 9.349e-09
 12.04257    -65.7 1.113e+04 9.497e-09
 12.05244    -65.7 1.125e+04 7.740e-09
 12.06397    -65.1 1.125e+04 8.818e-09
 12.08370    -64.5 1.128e+04 1.004e-08
 12.10343    -63.8 1.132e+04 1.094e-08
 12.12316    -63.1 1.128e+04 1.137e-08
 12.14289    -62.5 1.113e+04 1.070e-08
 12.16262    -61.8 1.085e+04 9.385e-09
 12.18045    -61.2 1.056e+04 7.508e-09
 12.19031    -61.2 1.100e+04 1.126e-08
 12.20209    -60.5 1.066e+04 9.264e-09
 12.22182    -59.7 1.042e+04 7.326e-09
 12.24155    -59.0 1.032e+04 5.757e-09
 12.26128    -58.2 1.031e+04 4.611e-09
 12.28101    -57.5 1.031e+04 3.828e-09
 12.30075    -56.7 1.034e+04 3.416e-09
 12.31832    -56.0 1.040e+04 3.353e-09
 12.32819    -56.1 1.078e+04 5.153e-09
 12.34021    -56.1 1.076e+04 5.359e-09
 12.35994    -55.6 1.096e+04 5.916e-09
 12.37967    -55.3 1.136e+04 8.250e-09
 12.39213    -55.0 1.163e+04 1.155e-08
 12.40200    -53.5 1.153e+04 7.848e-09
 12.41913    -52.9 1.191e+04 1.124e-08
 12.43887    -52.0 1.232e+04 1.656e-08
 12.45620    -50.9 1.273e+04 2.338e-08
 12.46607    -51.8 1.280e+04 2.748e-08
 12.47833    -50.4 1.314e+04 3.174e-08
 12.49806    -48.9 1.353e+04 3.284e-08
 12.51779    -47.8 1.393e+04 3.081e-08
 12.53752    -47.1 1.448e+04 2.751e-08
 12.55726    -46.9 1.502e+04 2.563e-08
 12.57699    -46.7 1.554e+04 2.609e-08
 12.59408    -46.3 1.628e+04 2.798e-08
 12.60394    -50.4 1.248e+04 1.497e-08
 12.61645    -50.8 1.258e+04 1.753e-08
 12.63618    -50.9 1.276e+04 2.049e-08
 12.65093    -50.8 1.285e+04 2.302e-08
 12.66075    -51.0 1.297e+04 2.458e-08
 12.66785    -50.8 1.314e+04 2.680e-08
 12.67278    -51.0 1.292e+04 2.566e-08
 12.68048    -51.0 1.295e+04 2.602e-08
 12.69035    -50.6 1.304e+04 2.688e-08
 12.70021    -50.4 1.315e+04 2.740e-08
 12.71506    -49.8 1.323e+04 2.746e-08
 12.73195    -49.2 1.309e+04 2.592e-08
 12.74182    -49.9 1.188e+04 1.737e-08
 12.75457    -49.4 1.163e+04 1.446e-08
 12.77430    -49.0 1.148e+04 1.188e-08
 12.79403    -48.5 1.134e+04 1.005e-08
 12.81377    -47.7 1.120e+04 8.626e-09
 12.83350    -46.5 1.114e+04 7.506e-09
 12.85323    -45.2 1.109e+04 6.509e-09
 12.86983    -43.8 1.102e+04 5.596e-09
 12.87970    -43.9 1.032e+04 3.814e-09
 12.89269    -42.3 1.023e+04 3.321e-09
 12.91242    -40.6 1.026e+04 3.060e-09
 12.93215    -39.0 1.032e+04 2.938e-09
 12.95189    -37.4 1.033e+04 2.819e-09
 12.97162    -35.8 1.033e+04 2.756e-09
 12.99135    -34.1 1.047e+04 2.865e-09
 13.00771    -32.3 1.074e+04 3.365e-09
 13.01757    -32.4 1.020e+04 2.618e-09
 13.03081    -30.5 1.035e+04 2.871e-09
 13.05054    -28.8 1.047e+04 3.070e-09
 13.07028    -27.2 1.047e+04 3.305e-09
 13.09001    -25.4 1.042e+04 3.756e-09
 13.10974    -23.2 1.048e+04 4.245e-09
 13.12947    -20.9 1.060e+04 4.371e-09
 13.14559    -19.1 1.067e+04 4.203e-09
 13.15545    -19.4 1.037e+04 3.318e-09
 13.16893    -17.6 1.043e+04 3.414e-09
 13.18867    -15.6 1.046e+04 3.974e-09
 13.20840    -13.3 1.070e+04 4.323e-09
 13.22813    -11.6 1.109e+04 3.887e-09
 13.24786    -10.5 1.129e+04 4.600e-09
 13.26759     -9.6 1.152e+04 6.267e-09
 13.28346     -7.8 1.193e+04 1.021e-08
 13.29333     -9.2 1.163e+04 8.669e-09
 13.30705     -7.8 1.219e+04 1.200e-08
 13.32679     -6.6 1.285e+04 1.753e-08
 13.34652     -5.9 1.373e+04 2.691e-08
 13.36625     -6.3 1.513e+04 3.955e-08
 13.38100     -8.6 1.619e+04 5.855e-08
 13.39082     -9.7 1.678e+04 6.813e-08
 13.40068    -11.3 1.668e+04 1.073e-07
 13.41055    -11.7 1.682e+04 1.368e-07
 13.42041    -11.5 1.697e+04 1.758e-07
 13.42617    -10.7 1.730e+04 1.970e-07
 13.43111    -10.6 1.647e+04 1.286e-07
 13.44014    -10.7 1.687e+04 1.261e-07
 13.45001    -11.1 1.703e+04 1.142e-07
 13.45988    -12.0 1.705e+04 9.737e-08
 13.46974    -13.0 1.682e+04 9.249e-08
 13.48459    -13.5 1.613e+04 8.131e-08
 13.50437    -13.4 1.604e+04 8.273e-08
 13.52410    -12.7 1.606e+04 8.872e-08
 13.54383    -11.9 1.616e+04 8.964e-08
 13.55922    -10.8 1.625e+04 9.569e-08
 13.56908    -11.0 1.536e+04 7.502e-08
 13.58330     -9.7 1.537e+04 7.686e-08
 13.60303     -8.5 1.587e+04 7.651e-08
 13.62276     -7.5 1.628e+04 9.262e-08
 13.64249     -5.9 1.662e+04 9.843e-08
 13.66222     -4.5 1.734e+04 1.120e-07
 13.67697     -3.8 1.743e+04 1.132e-07
 13.68679     -3.2 1.765e+04 1.308e-07
 13.69666     -2.4 1.796e+04 1.612e-07
 13.70193     -1.8 1.838e+04 2.002e-07
 13.70686     -2.2 1.700e+04 6.498e-08
 13.71639     -1.9 1.820e+04 8.259e-08
 13.72625     -1.9 1.961e+04 1.185e-07
 13.73612     -1.9 2.081e+04 2.094e-07
 13.74598     -1.7 1.999e+04 5.326e-07
 13.75585     -1.0 1.847e+04 1.555e-06
 13.76572      1.0 1.765e+04 3.096e-06
 13.77084      3.4 1.840e+04 1.457e-06
 13.77578     -0.5 1.878e+04 3.207e-07
 13.78545     -0.6 1.892e+04 3.351e-07
 13.79531     -1.6 1.878e+04 4.530e-07
 13.80518     -3.3 1.971e+04 2.962e-07
 13.81504     -6.6 1.992e+04 4.530e-07
 13.82491    -11.1 1.981e+04 7.895e-07
 13.83478    -16.4 1.876e+04 1.556e-06
 13.83981    -19.7 1.788e+04 2.811e-06
 13.84474    -18.1 1.854e+04 9.457e-07
 13.85451    -18.9 1.764e+04 2.330e-06
 13.86437    -18.4 1.720e+04 3.828e-06
 13.87424    -17.6 1.745e+04 3.514e-06
 13.88410    -16.7 1.791e+04 2.294e-06
 13.89397    -16.3 1.861e+04 1.320e-06
 13.90381    -16.4 2.007e+04 5.529e-07
 13.91368    -16.2 1.975e+04 3.568e-07
 13.92357    -18.7 2.046e+04 1.494e-07
 13.93343    -21.3 1.872e+04 9.278e-08
 13.94330    -23.4 1.787e+04 7.069e-08
 13.95317    -26.2 1.611e+04 5.260e-08
 13.96303    -26.5 1.582e+04 5.060e-08
 13.97275    -27.6 1.494e+04 4.450e-08
 13.97768    -27.0 1.462e+04 3.940e-08
 13.98276    -27.2 1.454e+04 3.909e-08
 13.99263    -27.6 1.441e+04 3.947e-08
 14.00249    -29.9 1.641e+04 5.056e-08
 14.01236    -34.2 1.981e+04 8.395e-08
 14.02223    -38.7 2.049e+04 1.886e-07
 14.03209    -41.2 1.919e+04 3.969e-07
 14.04169    -41.7 1.833e+04 6.454e-07
 14.04662    -40.4 1.898e+04 3.652e-07
 14.05182    -40.7 1.837e+04 5.679e-07
 14.06169    -40.5 1.827e+04 6.530e-07
 14.07155    -40.7 1.859e+04 4.952e-07
 14.08142    -42.0 1.905e+04 2.721e-07
 14.09129    -44.5 1.889e+04 1.222e-07
 14.10115    -47.8 1.744e+04 6.298e-08
 14.11068    -51.4 1.556e+04 3.506e-08
 14.12059    -45.4 1.773e+04 7.519e-08
 14.13578    -50.5 1.457e+04 2.674e-08
 14.15551    -54.0 1.133e+04 1.498e-08
 14.17524    -54.7 1.079e+04 1.251e-08
 14.19497    -54.7 1.040e+04 1.117e-08
 14.21471    -54.5 1.004e+04 9.860e-09
 14.23444    -53.9 9.708e+03 8.315e-09
 14.24860    -53.4 9.375e+03 6.770e-09
 14.25847    -52.0 9.472e+03 7.194e-09
 14.27390    -51.4 9.140e+03 5.923e-09
 14.29363    -50.8 8.860e+03 4.904e-09
 14.31336    -50.4 8.657e+03 4.258e-09
 14.33310    -49.8 8.516e+03 3.913e-09
 14.35283    -49.1 8.415e+03 3.713e-09
 14.37256    -48.3 8.355e+03 3.648e-09
 14.38648    -47.3 8.341e+03 3.642e-09
 14.39634    -46.3 8.602e+03 3.980e-09
 14.41202    -45.6 8.546e+03 3.972e-09
 14.43175    -44.7 8.536e+03 3.980e-09
 14.45148    -44.0 8.466e+03 3.881e-09
 14.47122    -43.0 8.430e+03 3.766e-09
 14.49095    -42.1 8.343e+03 3.624e-09
 14.52064    -40.9 8.299e+03 3.405e-09
 14.56020    -39.2 8.097e+03 2.589e-09
 14.59967    -37.9 8.065e+03 2.226e-09
 14.63913    -36.6 8.113e+03 2.133e-09
 14.66243    -35.7 8.452e+03 2.505e-09
 14.68216    -34.7 8.240e+03 1.989e-09
 14.71806    -34.1 8.710e+03 2.640e-09
 14.75752    -33.6 9.237e+03 3.928e-09
 14.79698    -33.2 9.817e+03 5.204e-09
 14.83645    -33.7 1.021e+04 5.696e-09
 14.86471    -34.8 1.030e+04 5.704e-09
 14.88445    -34.5 9.880e+03 4.731e-09
 14.91537    -35.4 1.005e+04 4.771e-09
 14.93818    -36.4 1.024e+04 4.712e-09
 14.95791    -35.1 1.037e+04 5.170e-09
 14.99430    -36.7 1.070e+04 5.269e-09
 15.03376    -39.0 1.090e+04 5.238e-09
 15.07322    -41.4 1.118e+04 5.110e-09
 15.11269    -42.9 1.123e+04 5.605e-09
 15.15215    -43.1 1.120e+04 5.835e-09
 15.19161    -42.9 1.118e+04 4.954e-09
 15.21394    -42.3 1.110e+04 4.163e-09
 15.23367    -42.9 1.132e+04 3.456e-09
 15.27054    -41.2 1.113e+04 3.256e-09
 15.31000    -39.6 1.095e+04 2.878e-09
 15.34947    -37.8 1.074e+04 2.240e-09
 15.38893    -35.8 1.059e+04 1.703e-09
 15.42839    -34.0 1.040e+04 1.479e-09
 15.46786    -32.0 1.032e+04 1.429e-09
 15.48969    -29.8 1.028e+04 1.539e-09
 15.50942    -29.6 1.030e+04 1.800e-09
 15.54678    -27.5 1.027e+04 1.979e-09
 15.58624    -25.5 1.028e+04 2.179e-09
 15.62571    -23.4 1.032e+04 2.273e-09
 15.66517    -21.5 1.034e+04 2.262e-09
 15.70463    -19.7 1.031e+04 2.144e-09
 15.74410    -18.0 1.028e+04 2.068e-09
 15.76544    -16.1 1.018e+04 2.133e-09
 15.78518    -16.1 1.020e+04 1.980e-09
 15.82302    -13.9 1.013e+04 2.280e-09
 15.86249    -11.9 1.028e+04 2.673e-09
 15.90195    -10.9 1.076e+04 4.067e-09
 15.94141    -10.1 1.153e+04 1.094e-08
 15.97091     -8.9 1.233e+04 2.261e-08
 15.99055     -7.2 1.271e+04 2.708e-08
 16.01028     -6.0 1.262e+04 2.660e-08
 16.03001     -4.5 1.272e+04 1.799e-08
 16.04100     -5.2 1.237e+04 1.224e-08
 16.05087     -5.6 1.172e+04 6.969e-09
 16.06947     -5.7 1.142e+04 6.522e-09
 16.08920     -5.1 1.121e+04 6.130e-09
 16.10894     -4.5 1.117e+04 6.152e-09
 16.12867     -3.8 1.101e+04 7.134e-09
 16.14840     -2.9 1.117e+04 7.491e-09
 16.16813     -2.0 1.121e+04 7.703e-09
 16.17888     -0.9 1.122e+04 7.203e-09
 16.18875     -1.1 1.102e+04 3.692e-09
 16.20759     -0.5 1.120e+04 3.226e-09
 16.22732     -0.1 1.106e+04 3.107e-09
 16.24706      0.6 1.113e+04 2.751e-09
 16.26679      1.0 1.108e+04 2.670e-09
 16.29648      1.9 1.118e+04 2.708e-09
 16.31695      3.1 1.113e+04 2.265e-09
 16.33668      3.0 1.069e+04 1.738e-09
 16.37551      4.2 1.089e+04 1.655e-09
 16.41497      5.5 1.090e+04 1.683e-09
 16.45443      7.2 1.086e+04 1.525e-09
 16.49390      8.6 1.088e+04 1.281e-09
 16.53336      9.9 1.081e+04 1.364e-09
 16.57282     11.6 1.071e+04 1.631e-09
 16.61229     13.6 1.076e+04 1.987e-09
 16.65175     15.9 1.073e+04 1.576e-09
 16.69121     17.9 1.075e+04 1.087e-09
 16.73067     19.6 1.075e+04 8.615e-10
 16.77014     21.5 1.074e+04 8.256e-10
 16.80960     23.2 1.080e+04 8.990e-10
 16.84873     24.5 1.090e+04 1.270e-09
 16.86846     24.9 1.095e+04 1.110e-09
 16.88853     26.0 1.111e+04 2.043e-09
 16.92799     26.9 1.144e+04 4.195e-09
 16.96745     27.7 1.156e+04 6.618e-09
 17.00692     28.5 1.145e+04 6.820e-09
 17.04638     29.4 1.114e+04 5.608e-09
 17.08584     30.5 1.078e+04 3.741e-09
 17.12448     31.6 1.054e+04 2.270e-09
 17.14421     31.9 1.067e+04 2.868e-09
 17.16477     33.2 1.047e+04 1.963e-09
 17.20423     34.6 1.038e+04 1.547e-09
 17.24370     36.2 1.028e+04 1.531e-09
 17.28316     37.9 1.016e+04 1.726e-09
 17.32262     39.8 1.003e+04 2.192e-09
 17.36208     41.7 9.955e+03 2.580e-09
 17.40024     43.3 9.923e+03 2.585e-09
 17.41997     43.4 1.016e+04 3.365e-09
 17.44101     45.0 1.004e+04 3.095e-09
 17.48047     46.3 9.821e+03 2.509e-09
 17.51994     47.4 9.745e+03 2.404e-09
 17.55940     48.2 9.768e+03 2.711e-09
 17.59886     48.8 9.927e+03 3.988e-09
 17.63833     49.4 1.021e+04 6.143e-09
 17.67599     50.1 1.045e+04 8.237e-09
 17.69572     50.2 1.064e+04 8.649e-09
 17.71725     50.7 1.048e+04 8.193e-09
 17.75672     51.2 1.020e+04 7.225e-09
 17.79618     51.7 9.864e+03 5.922e-09
 17.83564     52.3 9.478e+03 4.462e-09
 17.87510     53.0 9.100e+03 3.236e-09
 17.91457     53.6 8.772e+03 2.394e-09
 17.95174     54.5 8.522e+03 1.919e-09
 17.97148     54.8 8.784e+03 2.931e-09
 17.99349     56.0 8.557e+03 2.354e-09
 18.03296     57.3 8.372e+03 1.919e-09
 18.07242     58.6 8.275e+03 1.726e-09
 18.11188     60.0 8.279e+03 1.681e-09
 18.15135     61.3 8.284e+03 1.662e-09
 18.19081     62.6 8.279e+03 1.631e-09
 18.22750     63.7 8.249e+03 1.539e-09
 18.24723     64.2 8.283e+03 1.620e-09
 18.26974     65.5 8.258e+03 1.562e-09
 18.30920     66.8 8.188e+03 1.394e-09
 18.34866     68.0 8.097e+03 1.204e-09
 18.38813     69.4 8.024e+03 1.086e-09
 18.42759     70.9 7.998e+03 1.023e-09
 18.46705     72.3 8.006e+03 9.823e-10
 18.50325     73.8 8.025e+03 9.394e-10
 18.52298     74.8 8.257e+03 1.426e-09
 18.54598     76.3 8.268e+03 1.328e-09
 18.58544     77.9 8.250e+03 1.152e-09
 18.62490     79.6 8.261e+03 1.014e-09
 18.66437     81.4 8.288e+03 1.003e-09
 18.70383     83.3 8.366e+03 1.041e-09
 18.74329     85.0 8.553e+03 1.195e-09
 18.77901     86.5 8.816e+03 1.522e-09
 18.79874     87.0 8.723e+03 1.474e-09
 18.82222     88.2 8.978e+03 1.881e-09
 18.86168     89.2 9.280e+03 2.442e-09
 18.90115     89.6 9.598e+03 3.096e-09
 18.94061     89.8 9.880e+03 3.736e-09
 18.98007     89.9 1.006e+04 4.277e-09
 19.01954     90.1 1.038e+04 4.455e-09
 19.05476     90.4 1.045e+04 4.418e-09
 19.07449     91.3 1.046e+04 4.428e-09
 19.09846     91.5 1.064e+04 4.608e-09
 19.13792     91.8 1.084e+04 4.573e-09
 19.17739     91.8 1.092e+04 4.409e-09
 19.21685     91.8 1.106e+04 4.003e-09
 19.25631     91.4 1.116e+04 3.483e-09
 19.29578     90.9 1.120e+04 2.979e-09
 19.33051     90.5 1.119e+04 2.697e-09
 19.35025     90.7 1.159e+04 5.501e-09
 19.37470     90.4 1.159e+04 4.840e-09
 19.41417     90.4 1.162e+04 4.597e-09
 19.45363     90.5 1.165e+04 4.711e-09
 19.49309     90.4 1.182e+04 5.264e-09
 19.53256     90.2 1.199e+04 6.181e-09
 19.57202     89.6 1.203e+04 6.673e-09
 19.60627     88.8 1.202e+04 6.568e-09
 19.62600     88.2 1.269e+04 1.148e-08
 19.65094     87.2 1.253e+04 1.009e-08
 19.69041     86.7 1.223e+04 6.236e-09
 19.72987     86.1 1.197e+04 3.077e-09
 19.76933     85.5 1.184e+04 2.337e-09
 19.80880     85.0 1.181e+04 2.475e-09
 19.82922     84.2 1.172e+04 3.433e-09
 19.84895     84.0 1.174e+04 2.934e-09
 19.88202     82.9 1.174e+04 5.340e-09
 19.90175     82.4 1.146e+04 5.715e-09
 19.92719     81.2 1.155e+04 8.477e-09
 19.96665     79.5 1.147e+04 8.466e-09
 20.00611     78.8 1.101e+04 7.156e-09
 20.04558     78.9 1.038e+04 4.824e-09
 20.08504     79.2 9.797e+03 2.852e-09
 20.12450     79.8 9.351e+03 1.636e-09
 20.15778     80.7 9.169e+03 9.907e-10
 20.17751     80.5 9.089e+03 7.442e-10
 20.20343     81.7 8.977e+03 5.818e-10
 20.24289     83.3 8.558e+03 5.663e-10
 20.28235     85.2 8.450e+03 5.707e-10
 20.32182     87.2 8.433e+03 5.763e-10
 20.36128     89.4 8.383e+03 5.971e-10
 20.40074     91.6 8.327e+03 6.260e-10
 20.43353     93.7 8.265e+03 6.564e-10
 20.45326     93.5 8.184e+03 5.326e-10
 20.47967     95.7 8.089e+03 5.955e-10
 20.51913     97.8 8.016e+03 6.608e-10
 20.55860     99.9 7.958e+03 7.268e-10
 20.59806    101.9 7.897e+03 8.045e-10
 20.63752    103.8 7.856e+03 8.943e-10
 20.67699    105.6 7.820e+03 1.015e-09
 20.70928    107.5 7.874e+03 1.332e-09
 20.72902    107.4 7.649e+03 1.223e-09
 20.75591    109.6 7.971e+03 1.856e-09
 20.79538    111.8 8.549e+03 3.022e-09
 20.83484    112.8 8.972e+03 4.116e-09
 20.85693    113.5 9.312e+03 5.523e-09
 20.86670    113.7 9.169e+03 5.136e-09
 20.88397    114.2 9.487e+03 6.429e-09
 20.90370    114.6 9.797e+03 7.858e-09
 20.92343    114.9 1.005e+04 9.102e-09
 20.94317    115.0 1.020e+04 9.585e-09
 20.96290    115.0 1.021e+04 9.544e-09
 20.98263    115.1 1.016e+04 9.253e-09
 20.99471    115.1 1.005e+04 8.579e-09
 21.00457    115.2 1.003e+04 8.586e-09
 21.02209    115.2 1.002e+04 8.567e-09
 21.04182    115.1 1.004e+04 8.618e-09
 21.06156    114.7 1.013e+04 8.859e-09
 21.08129    114.2 1.032e+04 9.436e-09
 21.10102    113.5 1.066e+04 1.068e-08
 21.12075    112.6 1.113e+04 1.297e-08
 21.13259    111.8 1.160e+04 1.625e-08
 21.14245    112.1 1.249e+04 2.133e-08
 21.16021    111.1 1.310e+04 2.519e-08
 21.17995    110.1 1.347e+04 2.838e-08
 21.19968    109.1 1.362e+04 3.111e-08
 21.21941    108.3 1.367e+04 3.452e-08
 21.23914    107.4 1.377e+04 3.989e-08
 21.25887    106.5 1.407e+04 4.817e-08
 21.27046    105.9 1.453e+04 5.875e-08
 21.28033    104.5 1.507e+04 5.872e-08
 21.29833    103.1 1.547e+04 6.637e-08
 21.31807    101.6 1.619e+04 7.066e-08
 21.33780     99.4 1.764e+04 6.856e-08
 21.35753     95.8 1.991e+04 5.976e-08
 21.37726     90.9 2.091e+04 5.010e-08
 21.39699     85.8 1.890e+04 4.619e-08
 21.40834     82.7 1.603e+04 5.049e-08
 21.41821     83.1 1.497e+04 4.463e-08
 21.43646     84.2 1.512e+04 7.135e-08
 21.45121     85.2 1.522e+04 8.431e-08
 21.46102     86.2 1.526e+04 9.404e-08
 21.47089     87.2 1.583e+04 1.106e-07
 21.47718     87.7 1.641e+04 1.280e-07
 21.48211     89.3 1.606e+04 1.239e-07
 21.49062     89.5 1.662e+04 1.410e-07
 21.50049     89.4 1.696e+04 1.530e-07
 21.51035     88.7 1.793e+04 1.681e-07
 21.52022     84.0 2.230e+04 2.494e-07
 21.53008     75.4 2.322e+04 8.224e-07
 21.53995     66.5 1.999e+04 3.185e-06
 21.54612     58.1 1.857e+04 4.703e-06
 21.54856     54.4 1.578e+04 2.889e-05
 21.55223     52.4 1.594e+04 2.213e-05
 21.55966     50.6 1.658e+04 9.757e-06
 21.56955     48.5 1.833e+04 2.022e-06
 21.57941     42.7 2.480e+04 2.532e-07
 21.58928     38.8 2.371e+04 1.222e-07
 21.59914     34.1 2.283e+04 6.751e-08
 21.61399     29.2 1.736e+04 5.785e-08
 21.63377     29.9 1.525e+04 5.151e-08
 21.65350     31.9 1.441e+04 4.590e-08
 21.67323     33.9 1.390e+04 3.929e-08
 21.68409     34.5 1.373e+04 3.138e-08
 21.69396     35.7 1.486e+04 5.074e-08
 21.71270     36.0 1.469e+04 4.718e-08
 21.73243     35.0 1.616e+04 3.563e-08
 21.75216     30.6 1.916e+04 3.052e-08
 21.77189     25.9 1.757e+04 3.153e-08
 21.79162     22.3 1.456e+04 2.902e-08
 21.81135     19.2 1.355e+04 2.330e-08
 21.82197     16.9 1.333e+04 1.974e-08
 21.83184     13.5 1.531e+04 2.844e-08
 21.85082     11.2 1.452e+04 2.384e-08
 21.87055      9.8 1.433e+04 2.514e-08
 21.89028      8.1 1.403e+04 3.005e-08
 21.91001      7.2 1.380e+04 3.812e-08
 21.92974      6.8 1.393e+04 4.169e-08
 21.94948      6.0 1.401e+04 3.870e-08
 21.95985      4.7 1.395e+04 3.184e-08
 21.96971      3.8 1.397e+04 3.660e-08
 21.98894      3.2 1.331e+04 2.995e-08
 22.00867      3.0 1.283e+04 2.168e-08
 22.02840      2.5 1.239e+04 1.583e-08
 22.04813      1.9 1.194e+04 1.210e-08
 22.06787      1.9 1.142e+04 1.053e-08
 22.08760      2.5 1.115e+04 8.561e-09
 22.09772      3.3 1.100e+04 7.371e-09
 22.10759      3.7 1.119e+04 9.918e-09
 22.12706      4.7 1.108e+04 8.008e-09
 22.14679      5.3 1.102e+04 6.931e-09
 22.16652      6.1 1.087e+04 5.765e-09
 22.18625      6.7 1.090e+04 5.375e-09
 22.20599      7.4 1.087e+04 5.439e-09
 22.22572      7.9 1.093e+04 5.882e-09
 22.24545      9.3 1.093e+04 6.703e-09
 22.26518      9.4 1.108e+04 7.463e-09
 22.28491      9.4 1.139e+04 8.729e-09
 22.30141      9.2 1.168e+04 1.058e-08
 22.31128      9.0 1.138e+04 1.029e-08
 22.32438      8.9 1.168e+04 1.236e-08
 22.34411      9.0 1.194e+04 1.404e-08
 22.36361      8.7 1.230e+04 1.551e-08
 22.37348      9.4 1.215e+04 1.438e-08
 22.38357      8.1 1.288e+04 1.563e-08
 22.40330      6.1 1.349e+04 1.956e-08
 22.42303      5.0 1.336e+04 2.408e-08
 22.44276      5.0 1.335e+04 2.659e-08
 22.46250      4.9 1.403e+04 2.902e-08
 22.48223      4.8 1.522e+04 3.314e-08
 22.50149      4.4 1.588e+04 3.647e-08
 22.51136      7.4 1.358e+04 1.634e-08
 22.52169      6.8 1.462e+04 1.859e-08
 22.54142      6.4 1.489e+04 2.531e-08
 22.56115      6.4 1.459e+04 3.696e-08
 22.57531      7.0 1.409e+04 5.030e-08
 22.58020      7.1 1.388e+04 4.814e-08
 22.58572      7.3 1.404e+04 5.048e-08
 22.60057      8.9 1.453e+04 7.839e-08
 22.61537     10.7 1.494e+04 7.181e-08
 22.62518     10.8 1.504e+04 7.144e-08
 22.63505     11.5 1.604e+04 6.373e-08
 22.64420     11.3 1.666e+04 6.231e-08
 22.64914     12.2 1.485e+04 9.336e-08
 22.65478     13.0 1.600e+04 8.924e-08
 22.66465     12.9 1.624e+04 8.963e-08
 22.67949     10.8 1.834e+04 1.002e-07
 22.69927      7.4 1.854e+04 1.381e-07
 22.71319      6.2 1.764e+04 2.044e-07
 22.71807      7.5 1.806e+04 2.252e-07
 22.72384      7.1 1.779e+04 2.362e-07
 22.73869      6.0 1.728e+04 1.804e-07
 22.75847      3.7 1.683e+04 1.490e-07
 22.77724      0.6 1.682e+04 1.240e-07
 22.78711      1.1 1.658e+04 7.823e-08
 22.79793     -2.8 1.660e+04 1.181e-07
 22.81766     -3.4 1.724e+04 1.692e-07
 22.83740     -4.2 1.674e+04 1.480e-07
 22.85713     -3.4 1.560e+04 5.962e-08
 22.87686     -6.0 1.415e+04 1.810e-08
 22.89659     -9.4 1.267e+04 9.183e-09
 22.91512    -10.3 1.214e+04 7.434e-09
 22.92499    -10.0 1.199e+04 6.563e-09
 22.93605    -10.0 1.199e+04 6.721e-09
 22.95579    -10.1 1.205e+04 7.632e-09
 22.97552    -10.2 1.229e+04 8.972e-09
 22.99525    -10.8 1.274e+04 1.142e-08
 23.01498    -12.0 1.325e+04 1.596e-08
 23.03471    -13.0 1.366e+04 2.393e-08
 23.05300    -13.1 1.402e+04 3.292e-08
 23.06286    -13.1 1.425e+04 3.433e-08
 23.07417    -13.6 1.458e+04 4.309e-08
 23.09391    -14.1 1.455e+04 4.340e-08
 23.11364    -14.5 1.408e+04 3.394e-08
 23.13337    -14.8 1.349e+04 2.290e-08
 23.15310    -15.1 1.301e+04 1.573e-08
 23.17283    -15.1 1.270e+04 1.193e-08
 23.19087    -14.6 1.243e+04 9.400e-09
 23.20074    -14.8 1.274e+04 1.335e-08
 23.21230    -14.2 1.245e+04 1.005e-08
 23.23203    -13.4 1.220e+04 7.714e-09
 23.25176    -12.3 1.206e+04 6.159e-09
 23.27149    -11.2 1.195e+04 5.047e-09
 23.29122    -10.1 1.179e+04 4.056e-09
 23.31095     -9.1 1.162e+04 3.459e-09
 23.32875     -8.3 1.153e+04 3.153e-09
 23.33862     -8.8 1.137e+04 2.998e-09
 23.36038     -6.4 1.132e+04 2.620e-09
 23.39994     -4.2 1.113e+04 2.381e-09
 23.43940     -2.0 1.114e+04 2.391e-09
 23.46682      0.0 1.109e+04 2.826e-09
 23.48656     -0.1 1.109e+04 1.877e-09
 23.51833      2.1 1.101e+04 2.459e-09
 23.55779      4.0 1.109e+04 3.102e-09
 23.58729      5.3 1.109e+04 3.826e-09
 23.60451      5.7 1.117e+04 3.923e-09
 23.61437      5.6 1.114e+04 3.581e-09
 23.62666      6.4 1.108e+04 3.967e-09
 23.64639      6.6 1.113e+04 4.031e-09
 23.67608      7.4 1.105e+04 4.788e-09
 23.71565      8.3 1.088e+04 5.735e-09
 23.74258      9.2 1.066e+04 5.503e-09
 23.76231      9.5 1.034e+04 3.852e-09
 23.79457     10.9 1.003e+04 3.031e-09
 23.83403     12.4 9.625e+03 1.957e-09
 23.87350     13.6 9.457e+03 1.198e-09
 23.91296     14.3 9.242e+03 9.291e-10
 23.95242     15.1 9.316e+03 9.897e-10
 23.99189     15.5 9.337e+03 1.515e-09
 24.01833     16.7 9.417e+03 2.227e-09
 24.03806     17.3 9.314e+03 1.997e-09
 24.07081     18.3 9.621e+03 2.695e-09
 24.11028     18.9 9.736e+03 2.987e-09
 24.14974     18.9 9.744e+03 3.432e-09
 24.17924     19.0 9.667e+03 4.270e-09
 24.19887     19.1 9.646e+03 4.408e-09
 24.22857     19.7 9.490e+03 3.838e-09
 24.26813     20.6 9.186e+03 2.943e-09
 24.29409     21.2 9.067e+03 1.879e-09
 24.31382     21.3 9.204e+03 2.279e-09
 24.34706     21.6 9.022e+03 1.811e-09
 24.38652     22.1 8.940e+03 1.955e-09
 24.42598     23.2 8.917e+03 2.448e-09
 24.46544     24.5 8.910e+03 2.679e-09
 24.50491     25.7 8.910e+03 2.585e-09
 24.54437     26.6 8.947e+03 2.392e-09
 24.56984     26.9 8.998e+03 2.435e-09
 24.58957     27.7 9.239e+03 2.836e-09
 24.62330     28.1 9.252e+03 2.895e-09
 24.66276     28.7 9.173e+03 2.874e-09
 24.70222     29.3 9.054e+03 2.632e-09
 24.74169     29.7 9.092e+03 2.460e-09
 24.77400     29.9 9.176e+03 2.527e-09
 24.79373     29.7 8.865e+03 1.970e-09
 24.82061     29.9 8.900e+03 1.950e-09
 24.84559     30.5 8.897e+03 1.836e-09
 24.86533     30.7 9.170e+03 2.101e-09
 24.89954     30.9 9.229e+03 2.037e-09
 24.92904     31.1 9.163e+03 1.894e-09
 24.94867     31.1 9.172e+03 1.908e-09
 24.96840     31.1 9.208e+03 1.995e-09
 24.98328     31.2 9.227e+03 2.070e-09
 24.99314     31.0 9.620e+03 3.055e-09
 25.00787     31.1 9.726e+03 3.350e-09
 25.02760     31.1 9.887e+03 3.710e-09
 25.04733     31.1 1.012e+04 4.196e-09
 25.06706     31.2 1.036e+04 4.734e-09
 25.08679     31.1 1.061e+04 5.413e-09
 25.10652     31.1 1.087e+04 6.292e-09
 25.12115     31.0 1.118e+04 7.566e-09
 25.13102     29.9 1.254e+04 1.879e-08
 25.14599     30.0 1.292e+04 2.177e-08
 25.16572     30.0 1.328e+04 2.507e-08
 25.18545     30.0 1.361e+04 2.909e-08
 25.20518     29.3 1.433e+04 3.679e-08
 25.22491     27.5 1.594e+04 6.545e-08
 25.24465     26.2 1.710e+04 1.280e-07
 25.25898     25.6 1.808e+04 2.454e-07
 25.26387     24.8 1.834e+04 2.487e-07
 25.26921     24.6 1.847e+04 2.753e-07
 25.27908     24.5 1.848e+04 2.706e-07
 25.28894     24.2 1.849e+04 2.676e-07
 25.30379     23.5 1.821e+04 2.202e-07
 25.32357     22.6 1.793e+04 2.082e-07
 25.34330     22.6 1.764e+04 1.946e-07
 25.36303     23.2 1.733e+04 1.679e-07
 25.38277     24.3 1.676e+04 1.248e-07
 25.39691     25.7 1.594e+04 7.506e-08
 25.40677     24.3 1.665e+04 1.654e-07
 25.42223     25.7 1.585e+04 1.055e-07
 25.44196     26.9 1.485e+04 5.543e-08
 25.46169     27.3 1.396e+04 2.877e-08
 25.48142     27.2 1.310e+04 1.647e-08
 25.50116     27.1 1.234e+04 1.251e-08
 25.52089     27.6 1.230e+04 1.269e-08
 25.53478     28.3 1.240e+04 1.408e-08
 25.54465     28.7 1.297e+04 2.658e-08
 25.56035     29.2 1.343e+04 3.365e-08
 25.58008     30.3 1.393e+04 4.164e-08
 25.59981     31.3 1.406e+04 4.019e-08
 25.61955     32.8 1.389e+04 3.317e-08
 25.63928     33.9 1.345e+04 2.344e-08
 25.65901     34.3 1.296e+04 1.610e-08
 25.67266     34.5 1.238e+04 1.189e-08
 25.68253     35.5 1.323e+04 2.494e-08
 25.69847     36.0 1.263e+04 1.766e-08
 25.71820     36.6 1.228e+04 1.449e-08
 25.73793     37.4 1.220e+04 1.443e-08
 25.75767     38.2 1.224e+04 1.481e-08
 25.77740     39.1 1.241e+04 1.615e-08
 25.79713     39.6 1.275e+04 2.026e-08
 25.81054     39.9 1.328e+04 2.881e-08
 25.82040     40.5 1.298e+04 1.991e-08
 25.83659     40.6 1.349e+04 2.603e-08
 25.85632     40.3 1.402e+04 3.526e-08
 25.87606     39.2 1.457e+04 4.932e-08
 25.89579     38.0 1.504e+04 6.456e-08
 25.91552     36.9 1.504e+04 6.385e-08
 25.93525     36.8 1.462e+04 5.094e-08
 25.94841     36.3 1.394e+04 3.042e-08
 25.95828     35.3 1.360e+04 3.161e-08
 25.97471     34.2 1.340e+04 2.230e-08
 25.99444     31.8 1.317e+04 1.565e-08
 26.01418     27.0 1.480e+04 1.696e-08
 26.03391     12.2 1.926e+04 5.603e-08
 26.05364      6.6 1.696e+04 1.575e-07
 26.07337      4.0 1.640e+04 8.357e-08
 26.08629     -2.8 1.562e+04 1.515e-08
 26.09118     -2.4 1.666e+04 1.883e-08
 26.09794     -5.1 1.522e+04 1.496e-08
 26.11279    -13.8 1.116e+04 6.640e-09
 26.13257    -14.5 1.059e+04 5.503e-09
 26.15230    -14.4 1.042e+04 5.092e-09
 26.17203    -14.2 1.024e+04 4.479e-09
 26.19176    -13.9 1.008e+04 3.976e-09
 26.21149    -13.4 1.001e+04 3.630e-09
 26.22417    -12.8 9.996e+03 3.523e-09
 26.23403    -12.8 9.983e+03 4.068e-09
 26.25095    -12.3 9.974e+03 3.870e-09
 26.27069    -11.7 9.958e+03 3.789e-09
 26.29042    -11.1 1.006e+04 4.088e-09
 26.31015    -10.5 1.017e+04 4.671e-09
 26.32988     -9.9 1.024e+04 5.291e-09
 26.34961     -9.1 1.037e+04 6.053e-09
 26.36205     -8.1 1.057e+04 6.512e-09
 26.37191     -8.4 1.052e+04 4.790e-09
 26.38908     -7.6 1.050e+04 4.755e-09
 26.40881     -6.6 1.025e+04 4.307e-09
 26.42854     -5.4 1.002e+04 3.732e-09
 26.44827     -4.3 9.965e+03 2.947e-09
 26.46800     -3.6 9.796e+03 2.376e-09
 26.48773     -3.2 9.610e+03 2.001e-09
 26.50002     -1.7 9.779e+03 1.852e-09
 26.51985     -1.6 9.873e+03 2.227e-09
 26.55699      0.7 9.965e+03 2.436e-09
 26.58649      2.3 9.547e+03 3.157e-09
 26.60612      4.0 9.737e+03 3.498e-09
 26.62585      5.3 1.037e+04 3.249e-09
 26.63780      6.5 1.005e+04 4.096e-09
 26.64767      6.8 1.025e+04 4.436e-09
 26.66532      7.9 1.051e+04 4.448e-09
 26.68505      8.4 1.075e+04 4.707e-09
 26.70478      8.9 1.092e+04 5.330e-09
 26.72451      9.3 1.109e+04 6.024e-09
 26.74424      9.8 1.093e+04 6.777e-09
 26.76398      9.9 1.110e+04 6.153e-09
 26.77568      8.2 1.214e+04 6.153e-09
 26.78554      8.7 1.431e+04 1.576e-08
 26.80344      4.0 1.497e+04 2.119e-08
 26.82317      0.0 1.452e+04 3.375e-08
 26.84290     -0.8 1.436e+04 5.000e-08
 26.86263     -1.8 1.462e+04 4.337e-08
 26.88236     -7.7 1.625e+04 1.618e-08
 26.90210    -19.0 1.436e+04 1.269e-08
 26.91355    -22.4 1.356e+04 2.323e-08
 26.92342    -23.7 1.425e+04 3.323e-08
 26.94156    -23.7 1.424e+04 3.661e-08
 26.96129    -24.1 1.391e+04 2.752e-08
 26.98102    -25.5 1.365e+04 1.726e-08
 27.00075    -28.1 1.379e+04 1.460e-08
 27.02049    -32.1 1.502e+04 2.370e-08
 27.04022    -33.8 1.581e+04 6.559e-08
 27.05143    -33.8 1.668e+04 1.215e-07
 27.06130    -34.2 1.708e+04 1.435e-07
 27.07968    -35.3 1.723e+04 1.492e-07
 27.09941    -36.7 1.630e+04 7.663e-08
 27.11914    -39.8 1.457e+04 3.036e-08
 27.13887    -43.0 1.322e+04 2.051e-08
 27.15861    -44.2 1.264e+04 1.811e-08
 27.17834    -44.6 1.234e+04 1.650e-08
 27.18931    -44.8 1.196e+04 1.352e-08
 27.19917    -45.2 1.166e+04 1.104e-08
 27.21780    -45.3 1.120e+04 8.341e-09
 27.23753    -45.3 1.069e+04 6.094e-09
 27.25606    -45.0 1.026e+04 4.396e-09
 27.26592    -44.6 1.040e+04 5.051e-09
 27.27700    -44.1 1.003e+04 3.458e-09
 27.30669    -43.8 9.770e+03 2.251e-09
 27.32738    -43.1 9.468e+03 1.552e-09
 27.34711    -42.8 9.400e+03 1.421e-09
 27.38571    -41.2 9.062e+03 9.728e-10
 27.42518    -39.9 8.926e+03 8.684e-10
 27.46464    -38.7 8.893e+03 8.579e-10
 27.50410    -38.0 8.846e+03 9.706e-10
 27.54357    -37.7 8.799e+03 1.225e-09
 27.58303    -37.5 8.741e+03 1.496e-09
 27.60313    -37.5 8.711e+03 1.626e-09
 27.62287    -36.9 8.872e+03 2.072e-09
 27.66196    -37.2 8.842e+03 2.117e-09
 27.70142    -37.6 8.565e+03 1.763e-09
 27.74088    -37.9 8.291e+03 1.314e-09
 27.78035    -38.1 8.184e+03 1.137e-09
 27.81981    -38.1 8.178e+03 1.115e-09
 27.85916    -38.2 8.365e+03 1.302e-09
 27.89862    -37.8 8.723e+03 2.368e-09
 27.93820    -37.4 9.052e+03 3.447e-09
 27.96770    -37.0 9.250e+03 4.251e-09
 27.98733    -36.9 9.310e+03 4.584e-09
 28.00670    -36.4 9.371e+03 4.868e-09
 28.01657    -36.1 9.480e+03 5.259e-09
 28.02679    -35.8 9.482e+03 5.276e-09
 28.04653    -35.5 9.405e+03 5.142e-09
 28.06626    -35.1 9.364e+03 4.864e-09
 28.08599    -34.6 9.352e+03 4.560e-09
 28.10572    -34.0 9.400e+03 4.348e-09
 28.12545    -33.5 9.442e+03 4.265e-09
 28.14458    -33.4 9.399e+03 4.164e-09
 28.15445    -32.9 9.432e+03 4.562e-09
 28.17488    -32.0 9.587e+03 4.860e-09
 28.21444    -31.2 9.757e+03 5.425e-09
 28.25390    -30.5 9.883e+03 5.926e-09
 28.29337    -29.6 9.953e+03 6.072e-09
 28.33283    -28.6 9.978e+03 6.066e-09
 28.37229    -27.2 9.920e+03 5.724e-09
 28.41066    -25.5 9.844e+03 5.453e-09
 28.43040    -25.6 1.011e+04 6.472e-09
 28.45122    -23.6 1.015e+04 6.471e-09
 28.49068    -21.5 1.010e+04 6.081e-09
 28.53014    -19.1 9.929e+03 5.299e-09
 28.56961    -16.5 9.669e+03 4.037e-09
 28.60907    -13.8 9.426e+03 2.866e-09
 28.64853    -11.3 9.275e+03 2.105e-09
 28.68642     -9.0 9.156e+03 1.762e-09
 28.70615     -8.9 9.072e+03 1.582e-09
 28.72746     -6.2 9.140e+03 1.579e-09
 28.76692     -3.9 9.219e+03 1.878e-09
 28.80639     -1.4 9.356e+03 2.303e-09
 28.84585      0.8 9.575e+03 2.729e-09
 28.88531      2.4 9.899e+03 3.113e-09
 28.92478      3.5 1.008e+04 3.791e-09
 28.96217      4.7 1.031e+04 5.034e-09
 28.98190      5.0 9.790e+03 2.835e-09
 29.00370      6.5 9.997e+03 3.267e-09
 29.04317      7.8 1.026e+04 3.593e-09
 29.08263      8.2 1.055e+04 3.844e-09
 29.12209      8.2 1.084e+04 4.998e-09
 29.16155      8.4 1.106e+04 7.813e-09
 29.20102      9.3 1.122e+04 9.213e-09
 29.23793     10.6 1.122e+04 7.365e-09
 29.25766     11.3 1.109e+04 6.756e-09
 29.27994     11.6 1.117e+04 4.351e-09
 29.31941     11.9 1.107e+04 4.105e-09
 29.35887     12.7 1.106e+04 4.446e-09
 29.39833     13.9 1.115e+04 4.939e-09
 29.43780     14.9 1.128e+04 5.355e-09
 29.47726     15.7 1.128e+04 4.918e-09
 29.51368     16.9 1.132e+04 3.524e-09
 29.53341     17.3 1.088e+04 2.837e-09
 29.55619     17.7 1.089e+04 2.150e-09
 29.59565     17.6 1.088e+04 1.983e-09
 29.63511     16.9 1.102e+04 2.358e-09
 29.67458     16.5 1.104e+04 2.709e-09
 29.71404     17.1 1.071e+04 2.048e-09
 29.73850     16.7 1.057e+04 1.244e-09
 29.75824     16.7 1.056e+04 1.248e-09
 29.78943     16.2 1.045e+04 1.125e-09
 29.80917     17.0 1.036e+04 1.128e-09
 29.83243     15.1 1.049e+04 1.617e-09
 29.86193     13.5 1.053e+04 3.241e-09
 29.88156     11.9 1.088e+04 5.161e-09
 29.90129     11.3 1.069e+04 8.714e-09
 29.92102     11.1 1.075e+04 9.070e-09
 29.95072      9.7 1.032e+04 8.075e-09
 29.99028      8.5 9.920e+03 2.449e-09
 30.02974      5.2 8.902e+03 1.304e-09
 30.06519      4.7 8.667e+03 1.219e-09
 30.08492      4.5 8.689e+03 1.343e-09
 30.10867      5.0 8.517e+03 1.349e-09
 30.14813      5.9 8.418e+03 1.342e-09
 30.18760      7.2 8.290e+03 1.320e-09
 30.22706      8.7 8.293e+03 1.284e-09
 30.26652      9.9 8.408e+03 1.437e-09
 30.30598     10.3 8.778e+03 2.112e-09
 30.34094      9.7 9.705e+03 4.248e-09
 30.36067      9.9 9.357e+03 3.583e-09
 30.37495     10.1 1.002e+04 8.330e-09
 30.39458     10.2 1.043e+04 9.594e-09
 30.41431     10.3 1.077e+04 1.218e-08
 30.43404     10.6 1.064e+04 1.201e-08
 30.45378     11.5 1.041e+04 8.916e-09
 30.47351     11.8 9.854e+03 6.365e-09
 30.48849     11.9 9.671e+03 3.478e-09
 30.49836     12.0 9.833e+03 4.463e-09
 30.51297     11.1 9.702e+03 3.393e-09
 30.53270     10.8 9.615e+03 2.936e-09
 30.55243     10.1 9.786e+03 3.137e-09
 30.57217      9.3 9.993e+03 4.154e-09
 30.59190      7.8 1.076e+04 5.835e-09
 30.61163      7.2 1.095e+04 1.075e-08
 30.62637      7.0 1.164e+04 1.478e-08
 30.63623      6.9 1.187e+04 1.705e-08
 30.65109      6.0 1.234e+04 2.038e-08
 30.67082      3.5 1.325e+04 2.535e-08
 30.69055     -0.1 1.437e+04 3.780e-08
 30.71029     -2.2 1.479e+04 5.843e-08
 30.73002     -2.4 1.501e+04 7.108e-08
 30.74975     -3.7 1.463e+04 4.819e-08
 30.76424     -7.2 1.342e+04 2.465e-08
 30.77411     -7.9 1.219e+04 1.937e-08
 30.78921     -9.8 1.191e+04 1.752e-08
 30.80894    -10.9 1.188e+04 1.694e-08
 30.82868    -11.9 1.192e+04 1.676e-08
 30.84841    -12.9 1.197e+04 1.722e-08
 30.86814    -13.9 1.194e+04 1.779e-08
 30.88787    -14.7 1.187e+04 1.796e-08
 30.90212    -15.1 1.161e+04 1.712e-08
 30.91199    -13.9 1.116e+04 1.332e-08
 30.92733    -14.2 1.086e+04 1.124e-08
 30.94707    -14.6 1.055e+04 8.475e-09
 30.96680    -15.6 1.009e+04 6.230e-09
 30.98653    -16.7 9.747e+03 5.013e-09
 31.00626    -17.4 9.609e+03 4.624e-09
 31.02599    -17.9 9.517e+03 4.532e-09
 31.04000    -18.3 9.414e+03 4.535e-09
 31.04986    -17.4 9.439e+03 4.501e-09
 31.06545    -17.6 9.440e+03 4.705e-09
 31.08519    -17.9 9.455e+03 4.686e-09
 31.10492    -18.5 9.534e+03 4.669e-09
 31.12465    -20.4 1.003e+04 5.003e-09
 31.14438    -23.1 1.057e+04 7.283e-09
 31.16411    -24.7 1.103e+04 1.205e-08
 31.17787    -25.1 1.166e+04 1.682e-08
 31.18774    -25.1 1.249e+04 2.364e-08
 31.20358    -26.2 1.287e+04 2.508e-08
 31.22331    -29.2 1.330e+04 2.266e-08
 31.24304    -34.4 1.384e+04 2.161e-08
 31.26277    -40.7 1.525e+04 3.593e-08
 31.28250    -43.9 1.605e+04 7.252e-08
 31.30223    -46.0 1.638e+04 9.112e-08
 31.31575    -48.2 1.591e+04 8.083e-08
 31.32562    -48.5 1.547e+04 7.060e-08
 31.34170    -49.9 1.380e+04 3.192e-08
 31.36143    -51.8 1.194e+04 1.209e-08
 31.38116    -53.7 1.093e+04 6.303e-09
 31.40089    -54.6 1.051e+04 4.550e-09
 31.42062    -54.9 1.027e+04 4.032e-09
 31.44035    -54.8 1.025e+04 3.907e-09
 31.45363    -54.8 1.038e+04 3.873e-09
 31.46349    -54.9 1.032e+04 3.768e-09
 31.47982    -55.1 1.061e+04 4.062e-09
 31.49955    -55.3 1.090e+04 4.606e-09
 31.51928    -55.5 1.120e+04 5.224e-09
 31.53901    -55.8 1.149e+04 5.972e-09
 31.55874    -56.0 1.172e+04 7.091e-09
 31.57847    -56.3 1.190e+04 8.830e-09
 31.59151    -56.4 1.207e+04 1.121e-08
 31.60137    -57.1 1.206e+04 1.199e-08
 31.61794    -57.2 1.223e+04 1.357e-08
 31.63767    -57.3 1.233e+04 1.451e-08
 31.65740    -57.7 1.236e+04 1.465e-08
 31.67713    -58.2 1.231e+04 1.355e-08
 31.69686    -58.8 1.222e+04 1.197e-08
 31.71660    -59.6 1.216e+04 1.095e-08
 31.72938    -60.2 1.213e+04 1.049e-08
 31.73925    -61.5 1.212e+04 1.082e-08
 31.75606    -61.8 1.212e+04 1.081e-08
 31.77579    -62.0 1.211e+04 1.035e-08
 31.79552    -62.1 1.204e+04 9.489e-09
 31.81525    -62.4 1.191e+04 8.746e-09
 31.83499    -62.5 1.177e+04 8.372e-09
 31.85472    -62.7 1.172e+04 8.297e-09
 31.86726    -62.7 1.171e+04 8.362e-09
 31.87713    -63.7 1.164e+04 8.158e-09
 31.89418    -63.7 1.168e+04 8.448e-09
 31.91391    -63.6 1.172e+04 8.878e-09
 31.93364    -63.4 1.174e+04 9.305e-09
 31.95337    -63.2 1.180e+04 9.469e-09
 31.97311    -63.0 1.185e+04 9.452e-09
 31.99284    -63.0 1.188e+04 9.277e-09
 32.00514    -63.0 1.190e+04 8.918e-09
 32.01500    -63.9 1.178e+04 8.269e-09
 32.03230    -63.8 1.181e+04 8.104e-09
 32.05203    -63.5 1.185e+04 7.613e-09
 32.07176    -63.4 1.186e+04 6.964e-09
 32.09150    -63.3 1.184e+04 6.334e-09
 32.11123    -63.3 1.180e+04 5.811e-09
 32.13096    -63.1 1.176e+04 5.321e-09
 32.14301    -63.0 1.173e+04 4.740e-09
 32.15288    -63.1 1.187e+04 5.503e-09
 32.17042    -62.9 1.184e+04 4.569e-09
 32.19015    -62.8 1.182e+04 3.623e-09
 32.20988    -62.7 1.179e+04 2.859e-09
 32.22056    -62.7 1.176e+04 2.395e-09
 32.23043    -63.3 1.166e+04 2.282e-09
 32.24935    -63.1 1.162e+04 2.205e-09
 32.26908    -62.8 1.164e+04 2.215e-09
 32.28089    -62.5 1.175e+04 2.324e-09
 32.29076    -62.4 1.180e+04 3.142e-09
 32.30854    -62.0 1.192e+04 3.376e-09
 32.32827    -61.6 1.207e+04 3.456e-09
 32.34801    -61.3 1.214e+04 3.453e-09
 32.36774    -61.1 1.228e+04 3.231e-09
 32.38747    -60.8 1.229e+04 3.028e-09
 32.40720    -60.4 1.229e+04 2.967e-09
 32.41877    -60.1 1.232e+04 2.999e-09
 32.42863    -59.9 1.262e+04 3.435e-09
 32.44666    -59.6 1.271e+04 3.502e-09
 32.46639    -59.5 1.278e+04 4.040e-09
 32.48613    -59.7 1.282e+04 5.307e-09
 32.50586    -60.1 1.300e+04 7.768e-09
 32.52559    -60.8 1.324e+04 1.102e-08
 32.54532    -61.5 1.334e+04 1.356e-08
 32.55664    -62.4 1.329e+04 1.405e-08
 32.56651    -62.2 1.350e+04 1.686e-08
 32.58478    -62.4 1.290e+04 1.458e-08
 32.60452    -62.4 1.246e+04 9.670e-09
 32.62425    -62.4 1.220e+04 6.209e-09
 32.64398    -62.4 1.200e+04 4.291e-09
 32.66371    -62.4 1.174e+04 3.281e-09
 32.68344    -62.2 1.172e+04 2.722e-09
 32.69452    -62.3 1.194e+04 2.485e-09
 32.69941    -62.9 1.315e+04 2.936e-09
 32.70801    -66.6 1.939e+04 3.289e-09
 32.71787    -72.3 2.600e+04 5.809e-09
 32.72774    -77.3 2.565e+04 1.675e-08
 32.73761    -80.2 2.175e+04 5.186e-08
 32.74747    -81.1 1.870e+04 1.302e-07
 32.75734    -80.7 1.739e+04 2.412e-07
 32.76336    -79.2 1.714e+04 3.262e-07
 32.76830    -78.6 1.731e+04 4.986e-07
 32.77707    -78.1 1.793e+04 3.638e-07
 32.78693    -78.9 1.873e+04 2.142e-07
 32.79680    -81.1 1.937e+04 1.122e-07
 32.80667    -83.1 1.934e+04 6.675e-08
 32.82151    -85.6 1.920e+04 3.845e-08
 32.83240    -92.0 1.540e+04 1.211e-08
 32.84226    -96.6 1.181e+04 5.980e-09
 32.86103    -97.3 1.143e+04 5.290e-09
 32.88076    -97.5 1.133e+04 4.657e-09
 32.90049    -97.8 1.120e+04 3.921e-09
 32.92022    -98.0 1.100e+04 3.291e-09
 32.93995    -98.1 1.085e+04 2.770e-09
 32.95968    -98.1 1.077e+04 2.367e-09
 32.97028    -98.0 1.076e+04 2.083e-09
 32.98014    -97.7 1.076e+04 1.991e-09
 32.99915    -97.6 1.076e+04 1.900e-09
 33.02884    -97.2 1.076e+04 1.769e-09
 33.06840    -96.2 1.077e+04 1.720e-09
 33.09848    -95.0 1.093e+04 1.838e-09
 33.11821    -93.9 1.067e+04 1.507e-09
 33.14733    -92.5 1.082e+04 1.696e-09
 33.18679    -91.3 1.094e+04 1.985e-09
 33.22626    -90.1 1.102e+04 2.174e-09
 33.26572    -89.0 1.108e+04 2.262e-09
 33.30518    -87.9 1.107e+04 2.055e-09
 33.34464    -86.5 1.100e+04 1.619e-09
 33.37424    -84.8 1.094e+04 1.276e-09
 33.39397    -83.9 1.079e+04 1.205e-09
 33.42357    -82.1 1.080e+04 1.055e-09
 33.46303    -80.1 1.080e+04 9.910e-10
 33.50250    -78.0 1.083e+04 9.837e-10
 33.54196    -76.0 1.091e+04 1.054e-09
 33.58142    -73.9 1.092e+04 1.208e-09
 33.62089    -71.7 1.098e+04 1.426e-09
 33.64999    -69.4 1.115e+04 1.712e-09
 33.66972    -69.6 1.101e+04 2.006e-09
 33.69981    -67.3 1.111e+04 2.320e-09
 33.73928    -64.9 1.115e+04 2.550e-09
 33.76878    -63.2 1.120e+04 2.913e-09
 33.78767    -62.3 1.118e+04 3.082e-09
 33.79754    -62.7 1.118e+04 3.086e-09
 33.80814    -61.4 1.121e+04 3.356e-09
 33.82787    -60.6 1.118e+04 3.466e-09
 33.84760    -59.5 1.126e+04 3.709e-09
 33.86734    -58.7 1.124e+04 3.922e-09
 33.88707    -57.8 1.132e+04 4.435e-09
 33.90680    -57.3 1.132e+04 5.021e-09
 33.92555    -56.6 1.146e+04 6.131e-09
 33.94538    -57.4 1.133e+04 6.675e-09
 33.96609    -56.9 1.154e+04 8.240e-09
 33.98572    -57.0 1.155e+04 8.593e-09
 34.00546    -57.4 1.164e+04 8.882e-09
 34.02519    -60.3 1.294e+04 1.087e-08
 34.04492    -64.3 1.515e+04 2.269e-08
 34.06343    -66.7 1.641e+04 5.015e-08
 34.07329    -63.2 1.364e+04 1.798e-08
 34.08438    -64.9 1.472e+04 3.264e-08
 34.10411    -65.7 1.531e+04 4.560e-08
 34.12385    -66.4 1.532e+04 4.835e-08
 34.14358    -66.5 1.460e+04 4.234e-08
 34.16331    -66.3 1.374e+04 3.077e-08
 34.18304    -66.1 1.308e+04 2.198e-08
 34.20130    -65.3 1.269e+04 1.605e-08
 34.21117    -64.2 1.273e+04 1.418e-08
 34.22250    -63.4 1.233e+04 1.091e-08
 34.24223    -62.5 1.218e+04 8.752e-09
 34.26197    -61.8 1.216e+04 7.770e-09
 34.28170    -61.1 1.211e+04 7.642e-09
 34.30143    -60.3 1.197e+04 8.121e-09
 34.32116    -59.3 1.182e+04 9.175e-09
 34.33918    -58.2 1.169e+04 9.993e-09
 34.34905    -57.7 1.167e+04 6.705e-09
 34.36062    -56.7 1.145e+04 7.484e-09
 34.38036    -55.5 1.130e+04 7.726e-09
 34.40009    -54.3 1.111e+04 7.589e-09
 34.41982    -53.0 1.101e+04 7.163e-09
 34.43955    -51.8 1.098e+04 6.930e-09
 34.45928    -50.6 1.100e+04 6.861e-09
 34.47706    -49.6 1.101e+04 6.840e-09
 34.48692    -49.4 1.095e+04 7.587e-09
 34.49875    -48.6 1.104e+04 8.480e-09
 34.51848    -47.9 1.127e+04 1.041e-08
 34.53821    -47.4 1.159e+04 1.368e-08
 34.55794    -46.7 1.192e+04 1.806e-08
 34.57767    -45.9 1.228e+04 2.267e-08
 34.59740    -45.3 1.255e+04 2.575e-08
 34.61493    -44.8 1.262e+04 2.644e-08
 34.62480    -44.4 1.223e+04 2.176e-08
 34.63687    -44.3 1.224e+04 2.126e-08
 34.65660    -44.2 1.205e+04 1.898e-08
 34.67633    -44.1 1.185e+04 1.711e-08
 34.69295    -43.5 1.168e+04 1.574e-08
 34.70282    -43.8 1.175e+04 1.651e-08
 34.71579    -43.2 1.162e+04 1.525e-08
 34.73552    -42.5 1.144e+04 1.360e-08
 34.75281    -41.9 1.125e+04 1.192e-08
 34.77264    -41.4 1.054e+04 7.953e-09
 34.80478    -40.1 1.040e+04 7.168e-09
 34.84424    -38.9 1.010e+04 5.802e-09
 34.88371    -38.0 9.920e+03 5.119e-09
 34.92317    -37.2 9.889e+03 5.058e-09
 34.96263    -36.4 1.003e+04 5.965e-09
 35.00210    -35.5 1.017e+04 6.874e-09
 35.02876    -34.7 1.026e+04 7.151e-09
 35.04849    -33.9 1.074e+04 9.661e-09
 35.08102    -33.7 1.073e+04 9.644e-09
 35.11052    -33.2 1.053e+04 8.334e-09
 35.13015    -33.1 1.051e+04 7.993e-09
 35.14989    -32.8 1.046e+04 7.293e-09
 35.16644    -32.7 1.044e+04 7.019e-09
 35.17631    -32.6 1.053e+04 7.226e-09
 35.18935    -32.6 1.043e+04 6.386e-09
 35.20908    -32.4 1.034e+04 5.796e-09
 35.22881    -32.2 1.018e+04 5.041e-09
 35.24854    -31.9 1.009e+04 4.476e-09
 35.26828    -31.6 9.977e+03 3.892e-09
 35.28801    -31.3 9.901e+03 3.411e-09
 35.30442    -31.1 9.782e+03 2.733e-09
 35.31428    -31.1 9.946e+03 3.507e-09
 35.32747    -30.8 9.925e+03 3.365e-09
 35.34720    -30.4 9.912e+03 3.196e-09
 35.36693    -30.0 9.898e+03 3.085e-09
 35.38667    -29.4 9.881e+03 2.965e-09
 35.40640    -29.0 9.908e+03 2.913e-09
 35.42613    -28.4 9.951e+03 2.799e-09
 35.44220    -27.9 9.983e+03 2.723e-09
 35.45206    -28.3 1.015e+04 3.338e-09
 35.46559    -27.4 1.017e+04 3.121e-09
 35.48532    -26.8 1.017e+04 3.033e-09
 35.50505    -25.7 1.025e+04 2.862e-09
 35.52479    -25.2 1.025e+04 2.785e-09
 35.54452    -23.8 1.029e+04 2.719e-09
 35.56425    -23.4 1.031e+04 2.719e-09
 35.58007    -22.1 1.055e+04 2.967e-09
 35.58994    -23.0 1.068e+04 3.774e-09
 35.60371    -22.4 1.088e+04 4.341e-09
 35.62344    -21.6 1.104e+04 5.165e-09
 35.64318    -20.7 1.126e+04 6.092e-09
 35.67287    -20.4 1.139e+04 7.258e-09
 35.71243    -18.7 1.161e+04 8.540e-09
 35.75189    -17.3 1.163e+04 8.560e-09
 35.79136    -15.9 1.173e+04 8.566e-09
 35.83082    -14.8 1.180e+04 1.001e-08
 35.85602    -13.4 1.175e+04 1.125e-08
 35.87575    -13.5 1.162e+04 1.096e-08
 35.90975    -11.4 1.149e+04 9.289e-09
 35.94921     -9.3 1.125e+04 6.075e-09
 35.98867     -7.6 1.108e+04 4.078e-09
 36.02814     -5.7 1.100e+04 3.664e-09
 36.06760     -3.5 1.105e+04 3.889e-09
 36.10706     -1.2 1.117e+04 4.801e-09
 36.13178      0.9 1.141e+04 6.052e-09
 36.15151      0.8 1.108e+04 3.545e-09
 36.18599      3.0 1.151e+04 5.124e-09
 36.22545      4.7 1.192e+04 7.190e-09
 36.26491      5.6 1.252e+04 8.588e-09
 36.30438      6.2 1.276e+04 1.096e-08
 36.34384      7.3 1.247e+04 1.314e-08
 36.38330      8.8 1.223e+04 1.162e-08
 36.40753     11.2 1.176e+04 7.198e-09
 36.42726     12.2 1.185e+04 7.021e-09
 36.46223     14.2 1.159e+04 4.415e-09
 36.50169     16.4 1.123e+04 3.384e-09
 36.54116     18.9 1.105e+04 2.928e-09
 36.58062     21.8 1.089e+04 2.624e-09
 36.62008     24.7 1.082e+04 2.319e-09
 36.65955     27.5 1.078e+04 2.041e-09
 36.68328     30.4 1.066e+04 1.968e-09
 36.70302     30.5 1.093e+04 2.172e-09
 36.73847     33.2 1.081e+04 2.112e-09
 36.77794     36.0 1.079e+04 2.190e-09
 36.81740     38.8 1.080e+04 2.563e-09
 36.85686     41.5 1.086e+04 3.282e-09
 36.89632     44.2 1.096e+04 4.252e-09
 36.93579     46.8 1.106e+04 5.199e-09
 36.95904     49.2 1.114e+04 5.563e-09
 36.97877     48.6 1.096e+04 3.961e-09
 37.01471     50.9 1.087e+04 3.762e-09
 37.05418     53.2 1.068e+04 3.232e-09
 37.09364     55.6 1.051e+04 2.569e-09
 37.13310     58.0 1.039e+04 1.949e-09
 37.17257     60.4 1.030e+04 1.480e-09
 37.21203     62.9 1.024e+04 1.177e-09
 37.23479     65.4 1.017e+04 1.008e-09
 37.25452     64.8 1.001e+04 7.526e-10
 37.29096     67.5 9.931e+03 7.562e-10
 37.33042     70.1 9.852e+03 7.516e-10
 37.36988     72.8 9.775e+03 7.313e-10
 37.40934     75.4 9.693e+03 7.007e-10
 37.44881     78.1 9.595e+03 6.720e-10
 37.48827     80.7 9.508e+03 6.600e-10
 37.51055     83.5 9.497e+03 6.606e-10
 37.53028     83.3 9.545e+03 5.030e-10
 37.56720     86.1 9.544e+03 5.088e-10
 37.60666     88.9 9.527e+03 5.363e-10
 37.64612     91.7 9.488e+03 5.915e-10
 37.68559     94.5 9.454e+03 6.712e-10
 37.72505     97.4 9.452e+03 7.592e-10
 37.76451    100.1 9.470e+03 8.471e-10
 37.78630    102.7 9.510e+03 9.259e-10
 37.80603    102.6 9.627e+03 6.070e-10
 37.84344    105.0 9.669e+03 6.405e-10
 37.88290    107.3 9.697e+03 7.014e-10
 37.92237    109.4 9.687e+03 8.353e-10
 37.96183    111.6 9.648e+03 1.125e-09
 38.00129    114.0 9.663e+03 1.662e-09
 38.04075    116.4 9.808e+03 2.451e-09
 38.06205    118.7 1.006e+04 3.152e-09
 38.08179    119.1 1.019e+04 4.039e-09
 38.11968    121.2 1.053e+04 4.573e-09
 38.15914    122.9 1.057e+04 4.417e-09
 38.19861    124.4 1.055e+04 3.622e-09
 38.23807    126.1 1.039e+04 2.449e-09
 38.27753    127.7 1.013e+04 1.570e-09
 38.31700    129.5 9.794e+03 1.199e-09
 38.33781    131.6 9.654e+03 1.173e-09
 38.35754    132.3 1.003e+04 2.177e-09
 38.39592    134.5 9.918e+03 1.848e-09
 38.43539    136.7 9.854e+03 1.662e-09
 38.47485    138.9 9.828e+03 1.512e-09
 38.51431    141.2 9.839e+03 1.349e-09
 38.55378    143.5 9.916e+03 1.161e-09
 38.59324    145.9 1.001e+04 9.946e-10
 38.61356    148.3 9.955e+03 9.201e-10
 38.63329    148.5 9.930e+03 8.445e-10
 38.67216    151.0 9.877e+03 8.464e-10
 38.71163    153.6 9.854e+03 8.548e-10
 38.75109    156.2 9.767e+03 9.055e-10
 38.79055    158.7 9.689e+03 1.023e-09
 38.83002    161.1 9.658e+03 1.197e-09
 38.86948    163.4 9.653e+03 1.414e-09
 38.90894    165.9 9.882e+03 2.041e-09
 38.94841    167.5 9.937e+03 2.297e-09
 38.98787    168.9 9.905e+03 2.461e-09
 39.02733    170.4 9.847e+03 2.507e-09
 39.06680    172.2 9.780e+03 2.499e-09
 39.10626    174.3 9.607e+03 2.527e-09
 39.14534    176.6 9.509e+03 2.585e-09
 39.16497    176.9 9.406e+03 2.744e-09
 39.17512    178.0 9.346e+03 2.829e-09
 39.19486    179.1 9.300e+03 3.021e-09
 39.21459    180.1 9.290e+03 3.337e-09
 39.23432    181.2 9.320e+03 3.749e-09
 39.25405    182.3 9.374e+03 4.225e-09
 39.27378    183.4 9.436e+03 4.757e-09
 39.29289    184.4 9.508e+03 5.360e-09
 39.30275    184.0 9.687e+03 6.346e-09
 39.31324    185.0 9.786e+03 7.274e-09
 39.33298    186.0 9.914e+03 8.337e-09
 39.35271    187.0 1.007e+04 9.511e-09
 39.37244    188.0 1.027e+04 1.083e-08
 39.39217    189.1 1.054e+04 1.243e-08
 39.41190    190.1 1.091e+04 1.454e-08
 39.43076    191.2 1.141e+04 1.752e-08
 39.44063    189.9 1.111e+04 1.582e-08
 39.45137    190.8 1.158e+04 1.827e-08
 39.47110    191.6 1.205e+04 2.037e-08
 39.49083    192.2 1.251e+04 2.121e-08
 39.51056    192.6 1.277e+04 2.095e-08
 39.53029    193.1 1.293e+04 1.972e-08
 39.55002    193.5 1.303e+04 1.700e-08
 39.56864    193.9 1.305e+04 1.485e-08
 39.57851    189.1 1.114e+04 1.224e-08
 39.58949    188.8 1.141e+04 1.315e-08
 39.60922    188.1 1.243e+04 1.696e-08
 39.62895    187.0 1.398e+04 2.457e-08
 39.64759    186.3 1.444e+04 3.027e-08
 39.65741    183.8 1.518e+04 3.891e-08
 39.66338    182.7 1.542e+04 4.471e-08
 39.67325    181.5 1.573e+04 5.072e-08
 39.68311    179.5 1.680e+04 6.367e-08
 39.69298    172.6 2.026e+04 1.316e-07
 39.70285    154.9 2.344e+04 5.268e-07
 39.71135    133.3 2.408e+04 9.520e-07
 39.71629    124.4 2.353e+04 7.959e-07
 39.72258    107.2 2.312e+04 6.602e-07
 39.73244     94.7 2.241e+04 3.035e-07
 39.74231     87.9 2.198e+04 8.796e-08
 39.75217     78.1 2.127e+04 3.023e-08
 39.76702     59.3 1.466e+04 1.119e-08
 39.78680     47.0 1.121e+04 8.430e-09
 39.80653     44.3 1.108e+04 8.558e-09
 39.82627     41.3 1.082e+04 8.327e-09
 39.85596     42.4 1.081e+04 8.441e-09
 39.89552     43.2 1.059e+04 7.832e-09
 39.92502     44.7 1.014e+04 6.728e-09
 39.94465     46.0 1.015e+04 6.780e-09
 39.96439     46.9 1.024e+04 7.070e-09
 39.98227     47.6 1.037e+04 7.635e-09
 39.99214     49.4 1.044e+04 7.518e-09
 40.00385     49.9 1.051e+04 7.878e-09
 40.02358     50.6 1.066e+04 8.668e-09
 40.04331     51.5 1.081e+04 9.565e-09
 40.06304     52.4 1.092e+04 1.031e-08
 40.08278     53.3 1.101e+04 1.074e-08
 40.10251     54.0 1.103e+04 1.083e-08
 40.12015     54.8 1.106e+04 1.078e-08
 40.13001     55.9 1.050e+04 7.700e-09
 40.14197     56.6 1.046e+04 7.534e-09
 40.16170     57.3 1.042e+04 7.328e-09
 40.18143     58.0 1.040e+04 7.097e-09
 40.20116     58.7 1.040e+04 6.857e-09
 40.22090     59.4 1.045e+04 6.629e-09
 40.24063     60.2 1.051e+04 6.361e-09
 40.25803     60.9 1.052e+04 6.156e-09
 40.26789     62.4 1.005e+04 4.568e-09
 40.28009     63.1 1.005e+04 4.282e-09
 40.29982     63.7 1.002e+04 4.133e-09
 40.31955     64.4 1.003e+04 4.204e-09
 40.33929     65.0 1.014e+04 4.547e-09
 40.35902     65.3 1.039e+04 5.504e-09
 40.37875     65.4 1.061e+04 7.817e-09
 40.39590     65.5 1.103e+04 1.234e-08
 40.40577     66.8 1.059e+04 7.091e-09
 40.41821     66.9 1.116e+04 1.199e-08
 40.43794     67.3 1.185e+04 2.012e-08
 40.45767     67.9 1.253e+04 3.044e-08
 40.47741     68.2 1.299e+04 3.664e-08
 40.49714     68.2 1.304e+04 3.663e-08
 40.51687     68.1 1.296e+04 3.428e-08
 40.53378     67.7 1.266e+04 2.869e-08
 40.54365     68.0 1.175e+04 2.001e-08
 40.55633     67.1 1.128e+04 1.642e-08
 40.57606     65.6 1.081e+04 1.358e-08
 40.59580     63.8 1.044e+04 1.201e-08
 40.61553     62.0 1.018e+04 1.186e-08
 40.63526     60.4 1.016e+04 1.194e-08
 40.65499     58.9 1.013e+04 1.229e-08
 40.67166     57.3 1.012e+04 1.267e-08
 40.68152     58.0 9.383e+03 8.832e-09
 40.69445     56.4 9.380e+03 9.102e-09
 40.71419     54.9 9.299e+03 8.974e-09
 40.73392     53.8 9.217e+03 8.627e-09
 40.75365     51.6 9.633e+03 9.465e-09
 40.77338     42.6 1.274e+04 1.911e-08
 40.79311     34.1 1.617e+04 8.756e-08
 40.80953     30.1 1.687e+04 1.421e-07
 40.81940     31.2 1.678e+04 1.423e-07
 40.83257     27.8 1.671e+04 1.159e-07
 40.85231     21.5 1.580e+04 4.847e-08
 40.87204     10.6 1.255e+04 2.005e-08
 40.89177      3.9 1.161e+04 1.799e-08
 40.91150      0.4 1.194e+04 2.133e-08
 40.93123      0.2 1.184e+04 2.557e-08
 40.94741      0.9 1.146e+04 2.100e-08
 40.95728      2.0 1.217e+04 2.952e-08
 40.97070      0.7 1.169e+04 1.875e-08
 40.99043     -2.4 1.059e+04 1.185e-08
 41.01016     -4.5 9.967e+03 9.854e-09
 41.02989     -5.2 1.012e+04 1.025e-08
 41.04962     -6.0 1.038e+04 1.146e-08
 41.06935     -6.4 1.055e+04 1.312e-08
 41.08529     -6.2 1.066e+04 1.415e-08
 41.09515     -6.0 1.082e+04 1.634e-08
 41.10882     -5.5 1.067e+04 1.337e-08
 41.12855     -6.0 1.041e+04 1.058e-08
 41.14828     -7.2 9.898e+03 8.133e-09
 41.16801     -7.7 9.472e+03 7.088e-09
 41.18774     -7.6 9.292e+03 6.300e-09
 41.20747     -7.5 9.397e+03 5.666e-09
 41.22316     -7.8 9.495e+03 5.445e-09
 41.23303     -7.8 9.287e+03 5.337e-09
 41.24694     -8.6 9.999e+03 6.329e-09
 41.26667    -10.1 1.081e+04 8.988e-09
 41.28640    -11.0 1.120e+04 1.319e-08
 41.30613    -10.2 1.177e+04 1.684e-08
 41.32586     -9.5 1.238e+04 1.536e-08
 41.34559     -9.4 1.197e+04 9.477e-09
 41.36104    -10.1 1.132e+04 5.349e-09
 41.37091    -10.1 1.295e+04 8.226e-09
 41.38506    -12.5 1.072e+04 4.183e-09
 41.40479    -12.0 1.015e+04 3.331e-09
 41.42452    -11.6 9.874e+03 2.750e-09
 41.44425    -10.6 9.862e+03 2.585e-09
 41.46398     -9.8 9.989e+03 2.448e-09
 41.48372     -9.4 9.968e+03 2.568e-09
 41.49892     -8.4 1.009e+04 3.019e-09
 41.50878     -8.5 9.996e+03 2.939e-09
 41.52318     -8.1 1.008e+04 3.176e-09
 41.54291     -6.7 1.022e+04 3.922e-09
 41.56264     -6.0 1.041e+04 4.072e-09
 41.59234     -4.8 1.058e+04 4.017e-09
 41.62712     -3.7 1.062e+04 3.706e-09
 41.64676     -4.6 1.062e+04 4.490e-09
 41.66130     -3.7 1.083e+04 3.014e-09
 41.68103     -3.1 1.050e+04 2.757e-09
 41.71073     -2.0 1.086e+04 1.742e-09
 41.75029     -0.2 1.046e+04 1.257e-09
 41.78975      2.2 1.028e+04 9.569e-10
 41.82921      4.6 1.022e+04 8.396e-10
 41.86868      7.0 1.024e+04 9.016e-10
 41.90288      9.3 1.031e+04 1.171e-09
 41.92261      8.5 1.056e+04 1.392e-09
 41.94760     10.7 1.067e+04 2.427e-09
 41.98707     13.1 1.078e+04 4.049e-09
 42.02653     15.3 1.107e+04 5.709e-09
 42.06599     17.4 1.126e+04 6.642e-09
 42.10546     19.1 1.138e+04 6.601e-09
 42.14492     20.7 1.143e+04 6.518e-09
 42.17863     22.2 1.155e+04 6.447e-09
 42.19836     21.5 1.175e+04 4.785e-09
 42.22384     22.9 1.169e+04 4.745e-09
 42.26331     23.7 1.165e+04 5.584e-09
 42.30277     24.3 1.156e+04 6.961e-09
 42.34223     24.9 1.142e+04 6.650e-09
 42.38170     25.6 1.100e+04 4.863e-09
 42.42116     26.4 1.067e+04 2.726e-09
 42.45439     27.0 1.051e+04 1.484e-09
 42.47412     26.0 1.053e+04 1.998e-09
 42.50009     27.0 1.023e+04 1.510e-09
 42.53955     28.6 1.004e+04 1.262e-09
 42.57901     30.4 9.911e+03 1.147e-09
 42.61848     32.3 9.893e+03 1.152e-09
 42.65794     34.0 9.906e+03 1.255e-09
 42.69740     35.4 9.955e+03 1.686e-09
 42.73014     36.7 1.012e+04 2.521e-09
 42.74987     35.8 1.004e+04 2.245e-09
 42.77633     37.1 1.017e+04 2.485e-09
 42.81579     38.2 1.015e+04 2.344e-09
 42.85525     39.4 1.003e+04 1.904e-09
 42.89472     40.5 9.920e+03 1.467e-09
 42.93418     41.5 9.803e+03 1.230e-09
 42.97364     42.8 9.634e+03 1.192e-09
 43.00589     44.4 9.607e+03 1.236e-09
 43.02563     43.8 9.585e+03 1.236e-09
 43.05257     45.3 9.586e+03 1.567e-09
 43.09203     47.2 9.919e+03 2.446e-09
 43.12153     48.0 1.003e+04 3.135e-09
 43.14117     48.4 1.021e+04 3.888e-09
 43.15344     48.6 1.057e+04 5.665e-09
 43.16331     48.0 1.052e+04 5.670e-09
 43.18063     48.4 1.071e+04 7.174e-09
 43.21032     49.0 1.165e+04 1.249e-08
 43.23992     49.1 1.169e+04 1.197e-08
 43.25956     48.8 1.169e+04 1.113e-08
 43.27929     48.7 1.157e+04 9.732e-09
 43.29132     48.8 1.138e+04 7.911e-09
 43.30119     48.5 1.108e+04 5.662e-09
 43.31875     48.7 1.101e+04 4.689e-09
 43.33848     48.8 1.098e+04 3.813e-09
 43.35821     48.9 1.100e+04 3.197e-09
 43.37795     48.8 1.103e+04 2.903e-09
 43.39768     48.9 1.106e+04 2.950e-09
 43.41741     49.1 1.116e+04 3.162e-09
 43.42920     49.1 1.128e+04 3.701e-09
 43.43906     48.5 1.129e+04 5.065e-09
 43.45687     48.4 1.140e+04 6.306e-09
 43.47660     48.3 1.160e+04 7.776e-09
 43.49633     48.0 1.182e+04 9.272e-09
 43.51607     47.3 1.216e+04 1.103e-08
 43.53580     46.4 1.254e+04 1.136e-08
 43.55553     45.0 1.259e+04 1.095e-08
 43.56707     43.4 1.260e+04 9.668e-09
 43.57694     42.5 1.225e+04 7.076e-09
 43.60496     40.9 1.205e+04 6.180e-09
 43.64452     39.2 1.159e+04 5.397e-09
 43.68398     37.5 1.121e+04 4.926e-09
 43.72344     35.5 1.110e+04 5.275e-09
 43.76291     33.4 1.097e+04 6.398e-09
 43.80237     31.6 1.086e+04 6.569e-09
 43.83316     30.4 1.052e+04 5.694e-09
 43.85289     30.3 1.087e+04 6.711e-09
 43.88130     28.7 1.056e+04 5.867e-09
 43.92076     26.9 1.064e+04 6.287e-09
 43.96022     25.3 1.089e+04 7.622e-09
 43.99968     24.1 1.086e+04 7.934e-09
 44.03915     23.1 1.077e+04 6.812e-09
 44.07861     21.9 1.052e+04 5.737e-09
 44.10891     20.9 1.011e+04 4.541e-09
 44.12864     20.6 9.945e+03 3.562e-09
 44.15754     20.6 9.596e+03 2.747e-09
 44.19700     20.1 9.574e+03 1.660e-09
 44.23646     18.6 9.547e+03 1.352e-09
 44.27593     17.4 9.276e+03 1.443e-09
 44.31539     16.7 9.076e+03 1.489e-09
 44.35485     15.9 9.052e+03 1.467e-09
 44.38466     14.5 9.173e+03 1.705e-09
 44.40440     12.6 9.910e+03 4.120e-09
 44.43378     11.3 1.032e+04 6.054e-09
 44.47324      9.4 1.097e+04 8.935e-09
 44.50274      8.0 1.130e+04 1.039e-08
 44.52235      5.8 1.188e+04 1.404e-08
 44.54208      2.6 1.281e+04 2.599e-08
 44.56184      1.5 1.267e+04 2.544e-08
 44.58157      0.8 1.210e+04 1.959e-08
 44.60130     -0.5 1.134e+04 1.177e-08
 44.61210     -2.5 1.066e+04 6.020e-09
 44.62197     -2.9 1.054e+04 5.597e-09
 44.64076     -4.4 9.693e+03 3.917e-09
 44.66032     -4.0 9.605e+03 3.029e-09
 44.68015     -6.0 9.087e+03 1.711e-09
 44.71002     -6.1 8.735e+03 1.293e-09
 44.74948     -5.6 8.898e+03 1.210e-09
 44.78895    -10.9 1.145e+04 2.692e-09
 44.81845    -19.3 1.266e+04 2.029e-08
 44.83808    -18.2 1.369e+04 4.998e-08
 44.85781    -17.1 1.432e+04 5.835e-08
 44.87754    -17.8 1.457e+04 2.503e-08
 44.89727    -26.8 1.511e+04 8.489e-09
 44.91701    -38.9 2.506e+04 7.159e-09
 44.93598    -49.6 2.435e+04 3.198e-08
 44.94584    -48.9 2.401e+04 3.359e-08
 44.95149    -53.7 1.925e+04 2.330e-07
 44.96130    -54.7 1.789e+04 5.065e-07
 44.97117    -54.7 1.729e+04 8.521e-07
 44.98104    -53.7 1.719e+04 1.028e-06
 44.99090    -52.8 1.722e+04 1.060e-06
 45.00077    -51.9 1.730e+04 8.503e-07
 45.00975    -51.0 1.745e+04 5.434e-07
 45.01468    -50.6 1.735e+04 7.203e-07
 45.02050    -49.7 1.798e+04 3.939e-07
 45.03037    -50.2 1.900e+04 1.787e-07
 45.04023    -52.0 1.910e+04 8.787e-08
 45.05508    -53.2 1.749e+04 5.476e-08
 45.07385    -55.4 1.520e+04 1.580e-08
 45.08372    -55.1 1.615e+04 1.660e-08
 45.09459    -57.6 1.311e+04 6.859e-09
 45.11432    -59.0 1.103e+04 4.390e-09
 45.13405    -59.1 1.053e+04 4.022e-09
 45.15379    -58.7 1.050e+04 4.100e-09
 45.17352    -58.4 1.060e+04 4.546e-09
 45.19325    -58.0 1.075e+04 5.104e-09
 45.21173    -57.8 1.088e+04 5.602e-09
 45.22160    -58.0 1.100e+04 6.244e-09
 45.23271    -57.9 1.106e+04 6.440e-09
 45.25244    -57.8 1.105e+04 6.430e-09
 45.27217    -57.8 1.097e+04 6.219e-09
 45.29191    -57.6 1.088e+04 5.929e-09
 45.31164    -57.4 1.085e+04 5.759e-09
 45.34133    -57.2 1.086e+04 5.238e-09
 45.38089    -57.0 1.068e+04 3.810e-09
 45.41039    -57.2 1.040e+04 2.576e-09
 45.43003    -57.1 1.037e+04 2.416e-09
 45.45972    -56.8 1.041e+04 2.193e-09
 45.48768    -56.4 1.042e+04 2.040e-09
 45.50741    -56.5 1.042e+04 2.021e-09
 45.53875    -56.2 1.071e+04 2.097e-09
 45.57821    -56.3 1.108e+04 2.855e-09
 45.60771    -56.5 1.124e+04 4.213e-09
 45.62536    -56.4 1.133e+04 4.633e-09
 45.63523    -56.4 1.137e+04 4.730e-09
 45.64707    -56.3 1.154e+04 5.149e-09
 45.66681    -56.3 1.156e+04 5.194e-09
 45.68654    -56.3 1.151e+04 4.873e-09
 45.70627    -56.3 1.142e+04 4.300e-09
 45.72600    -56.3 1.132e+04 3.785e-09
 45.74573    -56.3 1.122e+04 3.405e-09
 45.76324    -56.1 1.117e+04 3.217e-09
 45.77311    -56.0 1.123e+04 3.359e-09
 45.78519    -55.9 1.121e+04 3.306e-09
 45.80493    -55.7 1.127e+04 3.310e-09
 45.82466    -55.7 1.138e+04 3.402e-09
 45.84439    -55.8 1.137e+04 3.915e-09
 45.86412    -55.8 1.123e+04 4.549e-09
 45.88385    -55.8 1.121e+04 4.969e-09
 45.90112    -55.8 1.115e+04 5.057e-09
 45.91098    -55.7 1.119e+04 4.977e-09
 45.92332    -55.6 1.094e+04 4.716e-09
 45.94305    -55.4 1.076e+04 4.139e-09
 45.96278    -55.1 1.058e+04 3.499e-09
 45.98251    -54.9 1.040e+04 2.938e-09
 46.01221    -54.9 1.029e+04 2.430e-09
 46.03919    -54.0 1.008e+04 1.902e-09
 46.05892    -53.8 1.036e+04 2.349e-09
 46.09123    -52.5 1.018e+04 1.999e-09
 46.13069    -51.0 1.011e+04 1.852e-09
 46.17016    -49.5 1.014e+04 1.873e-09
 46.20962    -48.6 1.040e+04 3.016e-09
 46.24908    -47.2 1.088e+04 5.730e-09
 46.28854    -45.8 1.159e+04 9.651e-09
 46.31485    -44.7 1.191e+04 1.074e-08
 46.32461    -45.1 1.200e+04 1.056e-08
 46.33768    -45.4 1.252e+04 1.262e-08
 46.35741    -46.7 1.359e+04 1.973e-08
 46.37714    -48.8 1.476e+04 4.305e-08
 46.39687    -49.2 1.612e+04 9.818e-08
 46.41660    -48.9 1.722e+04 1.667e-07
 46.43634    -50.0 1.743e+04 1.802e-07
 46.45262    -50.9 1.650e+04 1.091e-07
 46.46249    -51.2 1.643e+04 1.083e-07
 46.47580    -52.1 1.530e+04 5.842e-08
 46.49553    -53.1 1.412e+04 3.167e-08
 46.51526    -53.7 1.357e+04 2.208e-08
 46.53499    -53.9 1.331e+04 1.738e-08
 46.55473    -54.1 1.331e+04 1.565e-08
 46.57446    -54.3 1.342e+04 1.535e-08
 46.59050    -54.9 1.365e+04 1.674e-08
 46.60037    -54.1 1.374e+04 1.573e-08
 46.61392    -55.0 1.400e+04 1.851e-08
 46.63365    -56.0 1.428e+04 2.254e-08
 46.65338    -57.1 1.468e+04 2.622e-08
 46.67311    -58.4 1.479e+04 2.837e-08
 46.69285    -59.9 1.459e+04 2.748e-08
 46.71258    -61.4 1.426e+04 2.418e-08
 46.72838    -63.6 1.421e+04 2.149e-08
 46.73824    -62.4 1.420e+04 1.814e-08
 46.75204    -65.7 1.444e+04 1.721e-08
 46.77177    -71.6 1.642e+04 2.896e-08
 46.79150    -77.4 1.761e+04 7.783e-08
 46.81124    -82.1 1.796e+04 1.323e-07
 46.82599    -85.7 1.791e+04 1.482e-07
 46.83580    -87.2 1.775e+04 1.303e-07
 46.84567    -89.7 1.646e+04 8.701e-08
 46.85553    -90.5 1.610e+04 6.056e-08
 46.86621    -94.0 1.407e+04 2.448e-08
 46.87612    -92.8 1.446e+04 2.875e-08
 46.89016    -96.6 1.234e+04 8.391e-09
 46.90989    -98.7 1.139e+04 5.012e-09
 46.92963    -99.2 1.111e+04 4.335e-09
 46.94936    -99.4 1.103e+04 4.217e-09
 46.96909    -99.6 1.101e+04 4.214e-09
 46.98882    -99.8 1.086e+04 4.695e-09
 47.00413   -100.1 1.094e+04 5.690e-09
 47.01400    -99.9 1.100e+04 5.509e-09
 47.03825   -100.3 1.117e+04 7.454e-09
 47.07781   -100.7 1.158e+04 1.161e-08
 47.11727   -101.7 1.178e+04 1.454e-08
 47.14220   -102.7 1.173e+04 1.485e-08
 47.16194   -102.4 1.177e+04 1.430e-08
 47.19620   -102.6 1.131e+04 1.145e-08
 47.23566   -102.5 1.081e+04 7.894e-09
 47.27512   -102.4 1.046e+04 5.800e-09
 47.31459   -101.9 1.029e+04 4.911e-09
 47.35405   -101.3 1.020e+04 4.502e-09
 47.39351   -100.8 1.005e+04 4.071e-09
 47.41796   -100.1 9.853e+03 3.501e-09
 47.43769    -99.1 9.936e+03 3.515e-09
 47.47244    -98.3 9.746e+03 3.051e-09
 47.51190    -97.4 9.538e+03 2.522e-09
 47.55136    -96.5 9.395e+03 2.012e-09
 47.59083    -95.7 9.343e+03 1.638e-09
 47.63029    -95.0 9.360e+03 1.412e-09
 47.66975    -94.3 9.391e+03 1.273e-09
 47.69371    -93.7 9.431e+03 1.187e-09
 47.71344    -92.8 9.442e+03 1.112e-09
 47.74868    -92.1 9.491e+03 1.029e-09
 47.78814    -91.4 9.542e+03 9.727e-10
 47.82761    -90.6 9.570e+03 9.527e-10
 47.86707    -89.8 9.613e+03 9.556e-10
 47.90653    -88.9 9.668e+03 1.039e-09
 47.94600    -88.1 9.697e+03 1.151e-09
 47.96947    -87.3 9.747e+03 1.206e-09
 47.98920    -86.2 9.830e+03 1.113e-09
 48.02492    -85.5 9.863e+03 1.218e-09
 48.06438    -85.0 9.933e+03 1.275e-09
 48.10385    -84.9 1.011e+04 1.329e-09
 48.14331    -85.2 1.033e+04 1.666e-09
 48.18277    -85.6 1.028e+04 2.818e-09
 48.22224    -85.7 1.033e+04 4.495e-09
 48.24522    -85.8 1.042e+04 5.512e-09
 48.26495    -84.5 1.045e+04 5.724e-09
 48.30116    -84.5 1.047e+04 6.043e-09
 48.34063    -84.4 1.029e+04 5.595e-09
 48.38009    -83.9 9.998e+03 3.843e-09
 48.41955    -83.2 9.766e+03 2.556e-09
 48.45902    -82.2 9.608e+03 2.040e-09
 48.49848    -80.8 9.563e+03 1.923e-09
 48.52097    -79.2 9.566e+03 1.909e-09
 48.54071    -77.9 9.621e+03 2.173e-09
 48.57741    -76.3 9.711e+03 2.174e-09
 48.61687    -74.9 9.835e+03 2.345e-09
 48.65633    -73.6 9.895e+03 2.669e-09
 48.69579    -72.4 9.933e+03 3.131e-09
 48.73526    -71.4 1.004e+04 3.792e-09
 48.77472    -70.8 1.030e+04 5.020e-09
 48.79673    -70.5 1.072e+04 7.602e-09
 48.81646    -68.9 1.068e+04 5.765e-09
 48.85365    -68.7 1.111e+04 7.242e-09
 48.89311    -68.6 1.160e+04 9.772e-09
 48.93257    -68.8 1.210e+04 1.335e-08
 48.96207    -68.6 1.260e+04 1.757e-08
 48.98171    -69.1 1.298e+04 2.253e-08
 49.00144    -69.8 1.340e+04 3.141e-08
 49.02117    -70.8 1.384e+04 4.179e-08
 49.04090    -71.7 1.414e+04 4.695e-08
 49.06063    -72.9 1.417e+04 4.691e-08
 49.07229    -74.0 1.392e+04 3.466e-08
 49.08215    -74.0 1.458e+04 6.059e-08
 49.10010    -74.9 1.397e+04 4.266e-08
 49.11983    -75.8 1.321e+04 2.345e-08
 49.13956    -76.8 1.268e+04 1.315e-08
 49.15929    -77.8 1.262e+04 9.988e-09
 49.17902    -78.7 1.265e+04 9.545e-09
 49.19875    -80.5 1.353e+04 1.078e-08
 49.21016    -82.5 1.425e+04 1.945e-08
 49.22003    -81.1 1.390e+04 1.187e-08
 49.23822    -82.7 1.439e+04 2.324e-08
 49.25795    -83.5 1.468e+04 3.802e-08
 49.27768    -84.2 1.486e+04 4.401e-08
 49.29741    -85.5 1.483e+04 4.213e-08
 49.31714    -87.4 1.446e+04 2.808e-08
 49.33687    -90.1 1.389e+04 1.853e-08
 49.34804    -92.5 1.351e+04 1.638e-08
 49.35791    -91.3 1.401e+04 2.186e-08
 49.37634    -93.2 1.380e+04 2.120e-08
 49.39607    -94.5 1.370e+04 2.159e-08
 49.41580    -95.4 1.360e+04 2.171e-08
 49.43553    -96.0 1.327e+04 1.818e-08
 49.45526    -96.4 1.290e+04 1.246e-08
 49.47500    -96.8 1.245e+04 8.049e-09
 49.48592    -96.9 1.205e+04 5.231e-09
 49.49578    -96.5 1.221e+04 5.589e-09
 49.51446    -96.7 1.197e+04 3.626e-09
 49.53419    -96.9 1.185e+04 2.580e-09
 49.55697    -97.2 1.168e+04 1.990e-09
 49.57670    -96.1 1.171e+04 2.149e-09
 49.60335    -95.7 1.162e+04 1.857e-09
 49.62399    -94.8 1.133e+04 1.350e-09
 49.64372    -94.9 1.172e+04 1.737e-09
 49.68237    -93.7 1.149e+04 1.393e-09
 49.72184    -92.2 1.144e+04 1.265e-09
 49.76130    -90.9 1.144e+04 1.244e-09
 49.80076    -89.8 1.167e+04 1.368e-09
 49.84022    -88.9 1.184e+04 1.915e-09
 49.87969    -88.0 1.197e+04 2.722e-09
 49.89974    -86.9 1.212e+04 3.509e-09
 49.90951    -87.6 1.214e+04 4.101e-09
 49.92882    -87.0 1.220e+04 4.386e-09
 49.94855    -86.3 1.227e+04 4.589e-09
 49.96828    -85.8 1.230e+04 4.658e-09
 49.98802    -85.0 1.231e+04 4.637e-09
 50.00775    -84.1 1.234e+04 4.196e-09
 50.03744    -83.1 1.241e+04 3.615e-09
 50.07700    -81.8 1.235e+04 3.140e-09
 50.11647    -79.9 1.214e+04 2.696e-09
 50.15577    -77.8 1.198e+04 2.406e-09
 50.19523    -75.4 1.242e+04 1.329e-09
 50.23486    -73.4 1.244e+04 1.308e-09
 50.27432    -71.6 1.252e+04 1.396e-09
 50.31378    -69.9 1.252e+04 1.667e-09
 50.35325    -68.1 1.250e+04 1.942e-09
 50.39271    -66.4 1.248e+04 2.048e-09
 50.43152    -64.6 1.241e+04 2.047e-09
 50.45125    -64.1 1.284e+04 1.277e-09
 50.47163    -62.0 1.262e+04 1.259e-09
 50.51110    -59.8 1.257e+04 1.147e-09
 50.55056    -57.5 1.258e+04 1.041e-09
 50.59002    -55.2 1.259e+04 9.950e-10
 50.62949    -52.8 1.260e+04 9.885e-10
 50.66895    -50.7 1.285e+04 1.035e-09
 50.70728    -49.0 1.287e+04 1.552e-09
 50.72701    -48.4 1.269e+04 1.615e-09
 50.74788    -46.6 1.273e+04 2.439e-09
 50.78734    -45.0 1.286e+04 4.016e-09
 50.82680    -43.7 1.305e+04 6.584e-09
 50.86627    -42.8 1.327e+04 1.035e-08
 50.90573    -42.3 1.351e+04 1.361e-08
 50.94519    -42.1 1.355e+04 1.418e-08
 50.98303    -42.3 1.332e+04 1.088e-08
 51.00276    -41.6 1.328e+04 1.247e-08
 51.02412    -41.9 1.317e+04 1.049e-08
 51.05362    -42.3 1.268e+04 7.156e-09
 51.07325    -42.2 1.257e+04 6.343e-09
 51.10295    -42.3 1.230e+04 4.329e-09
 51.14251    -42.2 1.197e+04 2.580e-09
 51.18197    -41.8 1.174e+04 1.911e-09
 51.22143    -41.1 1.148e+04 1.649e-09
 51.25878    -40.2 1.131e+04 1.615e-09
 51.27851    -40.2 1.142e+04 1.685e-09
 51.30036    -39.3 1.124e+04 1.829e-09
 51.33982    -38.5 1.110e+04 2.019e-09
 51.37929    -37.4 1.095e+04 2.040e-09
 51.41875    -36.2 1.074e+04 1.743e-09
 51.45821    -34.9 1.067e+04 1.395e-09
 51.49768    -33.7 1.057e+04 1.261e-09
 51.53454    -32.3 1.052e+04 1.249e-09
 51.55427    -32.1 1.073e+04 1.915e-09
 51.57660    -30.7 1.072e+04 1.914e-09
 51.61606    -29.2 1.071e+04 1.990e-09
 51.65553    -27.8 1.081e+04 2.210e-09
 51.69499    -26.4 1.094e+04 2.821e-09
 51.73445    -24.9 1.116e+04 4.079e-09
 51.77392    -23.2 1.145e+04 5.881e-09
 51.81029    -21.6 1.171e+04 7.216e-09
 51.83002    -21.8 1.170e+04 5.942e-09
 51.85284    -20.2 1.177e+04 6.126e-09
 51.89231    -18.5 1.181e+04 5.338e-09
 51.93177    -17.1 1.190e+04 4.001e-09
 51.97123    -15.9 1.198e+04 3.666e-09
 52.01070    -15.1 1.215e+04 4.246e-09
 52.05016    -14.0 1.245e+04 7.642e-09
 52.07966    -12.6 1.314e+04 1.261e-08
 52.09572    -12.5 1.355e+04 1.386e-08
 52.10558    -12.2 1.410e+04 2.763e-08
 52.11902    -11.9 1.508e+04 4.864e-08
 52.13876    -12.2 1.606e+04 8.129e-08
 52.15849    -12.1 1.678e+04 1.272e-07
 52.17822    -11.9 1.723e+04 1.452e-07
 52.19795    -14.3 1.743e+04 1.185e-07
 52.21768    -17.7 1.726e+04 8.208e-08
 52.23243    -21.0 1.747e+04 8.249e-08
 52.23843    -22.1 1.750e+04 7.438e-08
 52.24336    -23.3 1.782e+04 2.874e-07
 52.25211    -24.5 1.756e+04 2.492e-07
 52.26198    -25.1 1.746e+04 1.898e-07
 52.27185    -26.2 1.711e+04 1.277e-07
 52.28171    -27.1 1.675e+04 8.973e-08
 52.29158    -27.9 1.649e+04 6.898e-08
 52.30144    -28.5 1.643e+04 6.019e-08
 52.30737    -29.3 1.637e+04 5.786e-08
 52.31230    -29.3 1.638e+04 8.148e-08
 52.32117    -29.7 1.645e+04 8.227e-08
 52.33602    -30.8 1.630e+04 7.723e-08
 52.35580    -32.3 1.629e+04 8.155e-08
 52.37147    -33.6 1.622e+04 9.711e-08
 52.38134    -33.0 1.672e+04 1.305e-07
 52.39527    -34.3 1.632e+04 9.080e-08
 52.41500    -36.5 1.546e+04 4.053e-08
 52.43473    -40.0 1.410e+04 1.281e-08
 52.45446    -43.4 1.284e+04 5.824e-09
 52.47419    -44.9 1.213e+04 3.936e-09
 52.49392    -45.2 1.187e+04 3.330e-09
 52.50935    -45.2 1.175e+04 2.996e-09
 52.51921    -44.9 1.184e+04 3.150e-09
 52.53339    -44.8 1.168e+04 2.786e-09
 52.56308    -44.8 1.146e+04 2.363e-09
 52.60264    -43.5 1.117e+04 1.763e-09
 52.63755    -41.8 1.104e+04 1.298e-09
 52.65728    -41.4 1.114e+04 1.429e-09
 52.68157    -39.6 1.110e+04 1.061e-09
 52.72103    -37.7 1.114e+04 8.201e-10
 52.76050    -35.8 1.115e+04 7.396e-10
 52.79996    -33.8 1.118e+04 7.354e-10
 52.83942    -32.1 1.133e+04 9.140e-10
 52.87888    -30.5 1.128e+04 1.401e-09
 52.91331    -28.6 1.129e+04 2.087e-09
 52.93304    -28.6 1.137e+04 2.193e-09
 52.95781    -26.7 1.149e+04 2.826e-09
 52.99727    -24.9 1.166e+04 3.024e-09
 53.03674    -23.4 1.180e+04 2.850e-09
 53.07620    -22.1 1.193e+04 2.727e-09
 53.11566    -21.0 1.210e+04 3.324e-09
 53.15513    -19.5 1.219e+04 4.842e-09
 53.18906    -17.8 1.228e+04 5.767e-09
 53.20879    -17.7 1.257e+04 6.599e-09
 53.23405    -16.3 1.243e+04 6.180e-09
 53.27352    -14.5 1.223e+04 4.382e-09
 53.31298    -13.2 1.213e+04 3.154e-09
 53.35244    -11.8 1.217e+04 2.949e-09
 53.39190    -10.8 1.226e+04 3.804e-09
 53.43137     -9.4 1.221e+04 5.880e-09
 53.46482     -7.9 1.237e+04 7.067e-09
 53.48455     -8.2 1.210e+04 5.061e-09
 53.51029     -7.1 1.199e+04 4.711e-09
 53.54976     -5.7 1.192e+04 3.633e-09
 53.58922     -4.6 1.184e+04 2.616e-09
 53.62868     -3.6 1.171e+04 2.092e-09
 53.66815     -2.4 1.155e+04 1.925e-09
 53.70761     -1.3 1.143e+04 1.872e-09
 53.74057     -0.8 1.147e+04 2.002e-09
 53.76030      0.5 1.167e+04 2.394e-09
 53.78654      0.4 1.154e+04 3.279e-09
 53.82600      0.7 1.143e+04 4.767e-09
 53.85550      0.6 1.124e+04 5.474e-09
 53.87513      0.7 1.118e+04 5.265e-09
 53.88812      1.0 1.116e+04 4.375e-09
 53.89798      1.2 1.134e+04 4.786e-09
 53.91460      1.1 1.120e+04 4.574e-09
 53.93433      1.1 1.115e+04 4.198e-09
 53.95406      1.3 1.101e+04 4.228e-09
 53.97379      1.8 1.091e+04 4.287e-09
 53.99352      2.7 1.095e+04 3.978e-09
 54.01325      3.6 1.075e+04 3.794e-09
 54.02599      4.7 1.070e+04 3.256e-09
 54.03586      5.1 1.075e+04 4.144e-09
 54.05272      5.8 1.095e+04 3.067e-09
 54.07245      6.2 1.071e+04 2.885e-09
 54.10214      7.5 1.082e+04 2.429e-09
 54.14170      9.7 1.083e+04 2.301e-09
 54.18117     11.8 1.094e+04 2.738e-09
 54.22063     14.3 1.112e+04 3.057e-09
 54.25013     15.8 1.110e+04 2.737e-09
 54.26976     16.8 1.117e+04 2.728e-09
 54.28950     17.8 1.128e+04 2.766e-09
 54.30175     18.3 1.153e+04 3.019e-09
 54.31161     18.0 1.119e+04 2.818e-09
 54.32896     18.6 1.141e+04 3.626e-09
 54.34869     19.2 1.164e+04 4.738e-09
 54.36842     19.9 1.188e+04 6.369e-09
 54.38815     20.0 1.218e+04 8.186e-09
 54.40788     18.4 1.372e+04 1.276e-08
 54.42263     14.6 1.537e+04 2.047e-08
 54.43245     12.6 1.648e+04 2.459e-08
 54.43953     10.2 1.581e+04 4.166e-08
 54.44944      7.9 1.567e+04 4.302e-08
 54.46708      5.6 1.524e+04 6.581e-08
 54.48183      4.8 1.493e+04 4.570e-08
 54.49165      4.3 1.464e+04 4.320e-08
 54.50649      2.8 1.420e+04 3.015e-08
 54.52138      0.5 1.320e+04 1.767e-08
 54.53125     -0.5 1.257e+04 1.351e-08
 54.54601     -0.8 1.226e+04 1.126e-08
 54.56574     -0.7 1.221e+04 9.642e-09
 54.57750     -0.3 1.207e+04 8.592e-09
 54.58737     -1.2 1.261e+04 1.715e-08
 54.60520     -0.7 1.260e+04 1.581e-08
 54.62493     -0.2 1.253e+04 1.488e-08
 54.64466      0.7 1.240e+04 1.558e-08
 54.66439      1.4 1.251e+04 1.299e-08
 54.68413      2.5 1.201e+04 1.316e-08
 54.70386      4.2 1.166e+04 1.231e-08
 54.71538      5.2 1.202e+04 8.197e-09
 54.72524      4.8 1.261e+04 1.903e-08
 54.74332      5.8 1.216e+04 1.866e-08
 54.76305      7.2 1.194e+04 1.761e-08
 54.78278      8.4 1.183e+04 1.484e-08
 54.80252      9.3 1.169e+04 1.356e-08
 54.82225     10.4 1.166e+04 1.386e-08
 54.84198     11.9 1.153e+04 1.281e-08
 54.85326     13.2 1.148e+04 1.128e-08
 54.86312     13.2 1.163e+04 1.716e-08
 54.88144     14.5 1.158e+04 1.593e-08
 54.90117     15.6 1.141e+04 1.399e-08
 54.92091     16.5 1.119e+04 1.196e-08
 54.94064     17.6 1.128e+04 1.195e-08
 54.96037     18.5 1.138e+04 1.301e-08
 54.98010     19.5 1.143e+04 1.437e-08
 54.99113     20.7 1.163e+04 1.664e-08
 55.00100     21.1 1.098e+04 1.040e-08
 55.01956     22.1 1.122e+04 1.128e-08
 55.03929     23.2 1.139e+04 1.216e-08
 55.05903     24.1 1.163e+04 1.282e-08
 55.07876     24.9 1.184e+04 1.335e-08
 55.09849     25.5 1.205e+04 1.410e-08
 55.11822     25.5 1.246e+04 1.621e-08
 55.12901     25.0 1.299e+04 2.173e-08
 55.13888     26.6 1.181e+04 1.016e-08
 55.15768     26.3 1.257e+04 1.411e-08
 55.17742     26.0 1.299e+04 2.166e-08
 55.19715     26.0 1.303e+04 2.965e-08
 55.21688     26.3 1.315e+04 3.476e-08
 55.23661     26.5 1.336e+04 3.592e-08
 55.25634     26.9 1.328e+04 3.465e-08
 55.26689     27.5 1.312e+04 2.829e-08
 55.27675     28.4 1.295e+04 3.005e-08
 55.29580     29.0 1.280e+04 2.369e-08
 55.31554     28.9 1.258e+04 1.553e-08
 55.33527     27.9 1.216e+04 1.055e-08
 55.35500     27.0 1.151e+04 8.162e-09
 55.37473     26.7 1.102e+04 6.929e-09
 55.39446     26.9 1.081e+04 5.902e-09
 55.40476     26.9 1.075e+04 4.968e-09
 55.41463     26.9 1.073e+04 4.585e-09
 55.43393     26.7 1.061e+04 4.327e-09
 55.45366     26.5 1.059e+04 4.441e-09
 55.47339     26.5 1.055e+04 4.827e-09
 55.49312     26.8 1.057e+04 5.450e-09
 55.51285     27.2 1.063e+04 6.137e-09
 55.53258     27.7 1.068e+04 6.716e-09
 55.54264     28.0 1.073e+04 7.091e-09
 55.55251     27.9 1.054e+04 6.352e-09
 55.57205     28.2 1.060e+04 6.544e-09
 55.59178     28.2 1.073e+04 6.991e-09
 55.61151     28.1 1.091e+04 7.851e-09
 55.63124     27.9 1.120e+04 9.353e-09
 55.65097     27.5 1.158e+04 1.211e-08
 55.67065     27.1 1.193e+04 1.660e-08
 55.69038     27.4 1.265e+04 2.821e-08
 55.71017     27.8 1.277e+04 3.048e-08
 55.72990     28.4 1.249e+04 2.712e-08
 55.74963     28.8 1.192e+04 1.941e-08
 55.76936     28.5 1.147e+04 1.267e-08
 55.78909     27.1 1.102e+04 8.830e-09
 55.80853     26.0 1.083e+04 8.491e-09
 55.81839     26.4 1.087e+04 8.102e-09
 55.82856     24.8 1.100e+04 8.861e-09
 55.84829     23.6 1.128e+04 1.243e-08
 55.86802     23.6 1.152e+04 1.618e-08
 55.88775     24.3 1.131e+04 1.509e-08
 55.90748     24.8 1.099e+04 1.122e-08
 55.92721     24.2 1.080e+04 7.357e-09
 55.94641     22.4 1.037e+04 5.113e-09
 55.95627     22.4 1.053e+04 5.411e-09
 55.96668     21.3 1.036e+04 5.325e-09
 55.98641     19.9 1.081e+04 6.370e-09
 56.00614     16.4 1.216e+04 1.206e-08
 56.02587     14.3 1.333e+04 3.342e-08
 56.04560     15.9 1.456e+04 7.509e-08
 56.06534     16.6 1.487e+04 7.747e-08
 56.08428     17.6 1.435e+04 4.933e-08
 56.09415     17.2 1.431e+04 4.469e-08
 56.10480     14.8 1.379e+04 2.402e-08
 56.12453     11.2 1.248e+04 1.501e-08
 56.14426     10.3 1.206e+04 1.477e-08
 56.16399      9.4 1.216e+04 1.655e-08
 56.18372      8.7 1.225e+04 2.006e-08
 56.20346      8.0 1.245e+04 2.223e-08
 56.22216      6.2 1.287e+04 2.006e-08
 56.23203      5.2 1.275e+04 1.667e-08
 56.24292      3.0 1.252e+04 1.940e-08
 56.26265      2.0 1.216e+04 1.956e-08
 56.28238      1.9 1.200e+04 1.676e-08
 56.30211      1.3 1.162e+04 1.236e-08
 56.32185      1.1 1.122e+04 9.652e-09
 56.34158      0.6 1.078e+04 5.968e-09
 56.36004      0.3 1.015e+04 4.657e-09
 56.36990      0.2 1.010e+04 4.763e-09
 56.38104      0.1 9.927e+03 3.677e-09
 56.40077      0.0 9.814e+03 3.500e-09
 56.42050      0.6 9.746e+03 3.521e-09
 56.44023      1.4 9.968e+03 3.666e-09
 56.45997      2.3 1.012e+04 4.002e-09
 56.47970      3.1 1.033e+04 4.034e-09
 56.49791      4.0 1.043e+04 4.286e-09
 56.50778      3.5 1.051e+04 4.660e-09
 56.51916      4.3 1.060e+04 4.505e-09
 56.53889      5.1 1.053e+04 4.495e-09
 56.55862      6.1 1.050e+04 4.343e-09
 56.57836      6.9 1.069e+04 3.829e-09
 56.59809      7.6 1.062e+04 3.828e-09
 56.61782      8.4 1.073e+04 3.875e-09
 56.63579      8.8 1.079e+04 4.131e-09
 56.64566      8.4 1.090e+04 4.001e-09
 56.65728      8.9 1.111e+04 4.211e-09
 56.67701      9.5 1.124e+04 4.717e-09
 56.69675     10.1 1.137e+04 5.307e-09
 56.71648     10.7 1.143e+04 6.202e-09
 56.73621     11.4 1.170e+04 6.519e-09
 56.75594     11.8 1.205e+04 6.869e-09
 56.77367     11.8 1.230e+04 7.480e-09
 56.78353     10.7 1.234e+04 8.533e-09
 56.79540     10.8 1.242e+04 1.100e-08
 56.81513     11.2 1.239e+04 1.300e-08
 56.83487     11.6 1.223e+04 1.359e-08
 56.85460     12.3 1.233e+04 1.147e-08
 56.87433     12.2 1.263e+04 8.169e-09
 56.89406     11.7 1.281e+04 5.588e-09
 56.91154     11.2 1.223e+04 4.449e-09
 56.92141     10.9 1.126e+04 3.831e-09
 56.93352     11.5 1.121e+04 3.146e-09
 56.95326     12.2 1.110e+04 2.781e-09
 56.97299     13.2 1.111e+04 2.167e-09
 56.99272     13.7 1.121e+04 1.921e-09
 57.00364     15.0 1.108e+04 1.895e-09
 57.01350     14.5 1.110e+04 1.923e-09
 57.03218     14.9 1.120e+04 1.962e-09
 57.04952     16.9 1.110e+04 2.295e-09
 57.06935     17.2 1.080e+04 1.667e-09
 57.10144     19.3 1.079e+04 1.463e-09
 57.14090     21.8 1.066e+04 1.428e-09
 57.18036     24.2 1.069e+04 1.521e-09
 57.21983     26.7 1.088e+04 1.810e-09
 57.25929     28.7 1.111e+04 2.270e-09
 57.28879     29.7 1.119e+04 3.113e-09
 57.30842     30.8 1.131e+04 4.090e-09
 57.32518     31.9 1.153e+04 5.231e-09
 57.33504     31.6 1.177e+04 6.591e-09
 57.34789     32.5 1.212e+04 8.682e-09
 57.36762     33.1 1.250e+04 1.165e-08
 57.38735     33.6 1.296e+04 1.636e-08
 57.40708     33.7 1.351e+04 2.404e-08
 57.42681     33.7 1.411e+04 3.860e-08
 57.44654     34.0 1.474e+04 6.127e-08
 57.46305     34.2 1.530e+04 7.846e-08
 57.47292     34.3 1.452e+04 5.067e-08
 57.48601     34.3 1.446e+04 4.949e-08
 57.50574     34.5 1.408e+04 4.134e-08
 57.52547     34.9 1.361e+04 3.014e-08
 57.54520     35.3 1.331e+04 2.151e-08
 57.56493     35.8 1.310e+04 1.598e-08
 57.58467     36.5 1.294e+04 1.294e-08
 57.60093     37.5 1.289e+04 1.164e-08
 57.61080     37.4 1.294e+04 5.896e-09
 57.62413     38.4 1.300e+04 5.133e-09
 57.64386     39.6 1.310e+04 4.436e-09
 57.66359     40.6 1.330e+04 3.870e-09
 57.68332     41.4 1.347e+04 3.401e-09
 57.70305     42.1 1.349e+04 3.118e-09
 57.72279     42.8 1.342e+04 3.066e-09
 57.73881     43.5 1.335e+04 3.079e-09
 57.74867     43.3 1.266e+04 1.611e-09
 57.76225     43.9 1.263e+04 1.647e-09
 57.78198     44.7 1.267e+04 1.775e-09
 57.80171     45.4 1.266e+04 2.001e-09
 57.82144     46.1 1.255e+04 2.338e-09
 57.84118     46.8 1.252e+04 2.691e-09
 57.86091     47.5 1.257e+04 3.127e-09
 57.87668     47.7 1.272e+04 3.889e-09
 57.88655     48.1 1.237e+04 2.979e-09
 57.90037     48.2 1.260e+04 3.590e-09
 57.92010     48.0 1.280e+04 4.765e-09
 57.93983     47.7 1.293e+04 6.973e-09
 57.95956     47.5 1.311e+04 1.007e-08
 57.97930     47.2 1.320e+04 1.166e-08
 57.99903     46.8 1.308e+04 1.076e-08
 58.01456     46.1 1.276e+04 8.474e-09
 58.02443     45.9 1.273e+04 7.891e-09
 58.03849     45.7 1.229e+04 5.631e-09
 58.05822     45.3 1.204e+04 4.477e-09
 58.07795     45.4 1.187e+04 3.122e-09
 58.09769     45.1 1.189e+04 2.332e-09
 58.12738     45.0 1.167e+04 1.729e-09
 58.15263     45.1 1.151e+04 1.747e-09
 58.17236     44.2 1.151e+04 2.427e-09
 58.20640     44.1 1.138e+04 2.995e-09
 58.23590     44.4 1.126e+04 3.235e-09
 58.25554     44.5 1.117e+04 3.597e-09
 58.27527     44.4 1.114e+04 3.903e-09
 58.29031     44.1 1.113e+04 4.130e-09
 58.30018     43.8 1.107e+04 3.736e-09
 58.31473     43.4 1.100e+04 3.857e-09
 58.33446     43.0 1.090e+04 4.165e-09
 58.35420     42.7 1.083e+04 4.620e-09
 58.37393     42.4 1.072e+04 4.862e-09
 58.39366     42.5 1.065e+04 4.764e-09
 58.41339     42.5 1.045e+04 4.344e-09
 58.42829     42.4 1.033e+04 3.027e-09
 58.43816     43.2 1.027e+04 3.858e-09
 58.45285     43.1 1.022e+04 3.488e-09
 58.48255     43.5 1.001e+04 3.131e-09
 58.52211     43.7 9.725e+03 3.036e-09
 58.56157     43.8 9.754e+03 3.263e-09
 58.60104     44.0 9.862e+03 4.059e-09
 58.64050     44.0 1.002e+04 5.121e-09
 58.67996     43.9 1.023e+04 6.235e-09
 58.70414     43.7 1.050e+04 7.480e-09
 58.72387     44.1 1.012e+04 5.964e-09
 58.75889     43.9 1.020e+04 6.221e-09
 58.79835     43.9 1.017e+04 6.039e-09
 58.83781     44.3 9.978e+03 4.978e-09
 58.87728     45.1 9.690e+03 3.495e-09
 58.91674     45.9 9.386e+03 2.256e-09
 58.95620     46.5 9.303e+03 1.555e-09
 58.97989     47.5 9.315e+03 1.466e-09
 58.99963     47.9 9.383e+03 1.796e-09
 59.03513     48.8 9.466e+03 1.912e-09
 59.07459     49.8 9.637e+03 2.218e-09
 59.11406     50.7 9.845e+03 2.559e-09
 59.15352     51.4 1.017e+04 3.012e-09
 59.19298     51.4 1.050e+04 3.872e-09
 59.23245     51.4 1.087e+04 5.355e-09
 59.25565     51.3 1.127e+04 5.882e-09
 59.27538     51.2 1.131e+04 5.367e-09
 59.30141     51.2 1.132e+04 5.146e-09
 59.32104     51.0 1.139e+04 4.909e-09
 59.34077     50.9 1.148e+04 4.356e-09
 59.36051     50.9 1.155e+04 3.680e-09
 59.38024     50.9 1.159e+04 3.107e-09
 59.39333     50.9 1.152e+04 2.804e-09
 59.40320     51.3 1.144e+04 2.590e-09
 59.41970     51.6 1.138e+04 2.570e-09
 59.43943     52.2 1.146e+04 2.633e-09
 59.45916     52.2 1.166e+04 2.907e-09
 59.47602     51.4 1.240e+04 4.432e-09
 59.48589     51.1 1.225e+04 4.268e-09
 59.49863     46.7 1.412e+04 1.314e-08
 59.51338     43.8 1.527e+04 3.053e-08
 59.52319     39.2 1.779e+04 7.937e-08
 59.53111     33.3 1.999e+04 2.971e-07
 59.53604     32.5 1.989e+04 3.833e-07
 59.54292     27.7 1.902e+04 7.358e-07
 59.55279     28.1 1.829e+04 5.050e-07
 59.56266     26.3 1.855e+04 2.406e-07
 59.57750     19.7 1.848e+04 5.198e-08
 59.59728      9.9 1.405e+04 1.795e-08
 59.61702      9.2 1.328e+04 1.617e-08
 59.63675      9.7 1.318e+04 1.417e-08
 59.65648      9.8 1.338e+04 1.113e-08
 59.66908      9.2 1.352e+04 8.799e-09
 59.67895      9.9 1.360e+04 1.095e-08
 59.69594      9.4 1.335e+04 9.129e-09
 59.71567      9.0 1.306e+04 8.182e-09
 59.73540      8.4 1.300e+04 7.283e-09
 59.75514      8.0 1.268e+04 6.938e-09
 59.77487      7.4 1.242e+04 6.887e-09
 59.79460      6.5 1.256e+04 7.068e-09
 59.80696      5.4 1.284e+04 7.590e-09
 59.81683      5.1 1.281e+04 9.133e-09
 59.83406      3.9 1.280e+04 1.000e-08
 59.85379      2.9 1.265e+04 1.051e-08
 59.87353      2.2 1.240e+04 1.085e-08
 59.90322      1.7 1.205e+04 9.663e-09
 59.94278      0.8 1.162e+04 6.949e-09
 59.98224     -0.2 1.139e+04 5.717e-09
 60.02171     -0.6 1.149e+04 6.080e-09
 60.06117     -0.9 1.175e+04 7.798e-09
 60.08291     -0.9 1.195e+04 8.481e-09
 60.10264     -0.9 1.191e+04 8.217e-09
 60.14010     -0.4 1.182e+04 5.863e-09
 60.17956     -0.0 1.183e+04 3.515e-09
 60.21902      0.3 1.172e+04 2.486e-09
 60.25849      1.4 1.169e+04 2.442e-09
 60.29795      2.2 1.173e+04 2.603e-09
 60.33741      3.0 1.177e+04 3.102e-09
 60.35866      3.8 1.172e+04 3.916e-09
 60.37840      4.1 1.178e+04 4.462e-09
 60.41634      5.0 1.153e+04 4.547e-09
 60.45580      5.9 1.115e+04 3.833e-09
 60.49526      6.7 1.094e+04 2.860e-09
 60.53473      7.5 1.089e+04 2.501e-09
 60.57419      8.5 1.077e+04 2.766e-09
 60.61365      9.2 1.091e+04 3.215e-09
 60.63442      9.5 1.105e+04 5.093e-09
 60.65415      8.8 1.077e+04 4.464e-09
 60.69258     10.0 1.069e+04 5.909e-09
 60.73204     11.3 1.054e+04 5.124e-09
 60.77151     12.4 1.027e+04 3.616e-09
 60.81097     12.9 1.020e+04 2.805e-09
 60.85043     13.6 9.969e+03 2.803e-09
 60.88990     14.6 9.694e+03 2.875e-09
 60.91017     15.8 9.474e+03 2.594e-09
 60.92990     15.2 9.474e+03 2.639e-09
 60.96882     16.0 9.318e+03 2.014e-09
 61.00829     16.4 9.185e+03 1.721e-09
 61.04775     16.5 9.217e+03 1.883e-09
 61.08721     16.9 9.177e+03 2.510e-09
 61.12667     17.4 9.415e+03 2.707e-09
 61.16614     17.3 9.556e+03 2.976e-09
 61.20560     16.5 9.300e+03 2.486e-09
 61.24506     16.1 9.563e+03 2.206e-09
 61.28453     15.2 9.741e+03 2.378e-09
 61.31384     14.3 9.894e+03 2.993e-09
 61.32361     14.1 9.847e+03 2.894e-09
 61.33366     13.5 1.003e+04 3.452e-09
 61.35339     12.8 1.029e+04 4.788e-09
 61.37312     12.5 1.036e+04 6.122e-09
 61.39286     12.1 1.045e+04 7.577e-09
 61.41259     11.9 1.048e+04 8.789e-09
 61.43232     11.7 1.049e+04 9.547e-09
 61.45162     10.7 1.084e+04 1.049e-08
 61.46149      9.4 1.077e+04 9.753e-09
 61.47178      4.8 1.200e+04 1.331e-08
 61.49151      0.8 1.220e+04 2.207e-08
 61.51124     -0.5 1.230e+04 2.872e-08
 61.53098     -2.9 1.220e+04 2.057e-08
 61.55071     -7.3 1.080e+04 1.238e-08
 61.57044    -10.4 9.735e+03 8.502e-09
 61.58950    -11.8 9.242e+03 6.711e-09
 61.59936    -12.1 9.182e+03 6.565e-09
 61.60990    -12.9 8.871e+03 5.633e-09
 61.63960    -13.3 8.601e+03 5.073e-09
 61.67916    -13.1 8.508e+03 5.018e-09
 61.71770    -12.8 8.860e+03 6.405e-09
 61.73743    -13.5 9.223e+03 7.557e-09
 61.75808    -13.0 1.008e+04 1.211e-08
 61.79755    -13.0 1.075e+04 1.616e-08
 61.83701    -13.2 1.114e+04 1.868e-08
 61.87647    -13.3 1.116e+04 1.877e-08
 61.91594    -13.1 1.024e+04 1.140e-08
 61.95540    -13.3 9.050e+03 5.396e-09
 61.99346    -14.1 8.334e+03 3.007e-09
 62.01319    -15.3 7.939e+03 2.286e-09
 62.03433    -14.6 8.030e+03 2.273e-09
 62.07379    -14.6 8.345e+03 2.862e-09
 62.11325    -14.4 8.604e+03 3.670e-09
 62.15272    -14.4 8.925e+03 4.064e-09
 62.19218    -14.7 9.177e+03 4.101e-09
 62.23164    -15.1 9.345e+03 3.586e-09
 62.26921    -15.2 9.227e+03 2.371e-09
 62.28894    -15.5 9.127e+03 2.374e-09
 62.31057    -15.1 9.061e+03 1.178e-09
 62.35003    -14.8 9.091e+03 7.507e-10
 62.38949    -13.9 9.169e+03 7.060e-10
 62.42896    -14.3 9.607e+03 1.028e-09
 62.46842    -14.5 9.896e+03 2.817e-09
 62.50788    -14.2 1.064e+04 6.623e-09
 62.54497    -14.5 1.139e+04 9.026e-09
 62.56470    -14.7 1.191e+04 1.246e-08
 62.58681    -16.6 1.184e+04 1.019e-08
 62.62627    -17.2 1.117e+04 4.478e-09
 62.66574    -17.3 1.084e+04 2.554e-09
 62.70520    -16.4 1.061e+04 1.723e-09
 62.74466    -15.3 1.047e+04 1.457e-09
 62.78413    -13.8 1.039e+04 1.429e-09
 62.82072    -12.3 1.029e+04 1.596e-09
 62.84045    -12.1 1.028e+04 1.777e-09
 62.86305    -10.3 1.028e+04 1.874e-09
 62.90251     -8.6 1.034e+04 1.804e-09
 62.94198     -7.1 1.057e+04 1.483e-09
 62.98144     -6.3 1.076e+04 1.249e-09
 63.02090     -5.6 1.084e+04 1.334e-09
 63.06037     -4.7 1.080e+04 1.824e-09
 63.09647     -3.2 1.075e+04 2.413e-09
 63.11620     -3.8 1.069e+04 2.353e-09
 63.13929     -2.4 1.066e+04 2.223e-09
 63.17876     -2.0 1.085e+04 1.765e-09
 63.21822     -2.7 1.085e+04 2.341e-09
 63.25768     -3.3 1.092e+04 4.951e-09
 63.28718     -1.8 1.067e+04 9.701e-09
 63.30682     -0.8 1.091e+04 8.967e-09
 63.32655     -0.3 1.116e+04 5.987e-09
 63.34628     -0.9 1.071e+04 4.666e-09
 63.37213     -1.7 1.045e+04 3.086e-09
 63.39196     -2.1 1.048e+04 3.655e-09
 63.41554     -1.8 1.017e+04 3.743e-09
 63.45500     -0.9 1.003e+04 3.649e-09
 63.49446      0.8 9.865e+03 2.822e-09
 63.53392      2.1 9.821e+03 1.741e-09
 63.57339      2.5 9.882e+03 1.202e-09
 63.61285      3.5 9.677e+03 1.215e-09
 63.64798      4.6 9.642e+03 1.260e-09
 63.66771      3.7 9.709e+03 7.684e-10
 63.69178      4.3 9.522e+03 8.718e-10
 63.73124      5.0 9.425e+03 8.865e-10
 63.77070      5.6 9.435e+03 8.181e-10
 63.81017      5.5 9.563e+03 8.484e-10
 63.84963      5.3 9.472e+03 1.180e-09
 63.88909      4.1 9.510e+03 1.721e-09
 63.92374      2.4 1.051e+04 3.336e-09
 63.94347      2.2 1.047e+04 2.887e-09
 63.96802      1.6 1.053e+04 4.550e-09
 64.00748      1.0 1.075e+04 4.789e-09
 64.03698      0.7 1.067e+04 5.201e-09
 64.05662      0.3 1.076e+04 5.405e-09
 64.07128     -0.1 1.088e+04 5.907e-09
 64.08115     -0.3 1.088e+04 6.077e-09
 64.09608     -0.8 1.122e+04 6.438e-09
 64.11581     -1.6 1.122e+04 7.564e-09
 64.13554     -2.0 1.137e+04 8.336e-09
 64.15527     -2.6 1.160e+04 8.493e-09
 64.17500     -3.1 1.148e+04 8.065e-09
 64.19474     -3.7 1.139e+04 6.593e-09
 64.20916     -4.1 1.113e+04 5.605e-09
 64.21903     -4.3 1.104e+04 4.948e-09
 64.24416     -5.4 1.089e+04 3.192e-09
 64.28372     -5.6 1.068e+04 2.439e-09
 64.32319     -5.4 1.055e+04 2.091e-09
 64.36265     -5.2 1.070e+04 2.101e-09
 64.40211     -5.4 1.095e+04 2.360e-09
 64.43076     -5.3 1.110e+04 2.751e-09
 64.44053     -4.2 1.117e+04 3.031e-09
 64.45125     -4.8 1.133e+04 3.414e-09
 64.47098     -5.7 1.162e+04 4.118e-09
 64.48491     -7.3 1.175e+04 5.377e-09
 64.49478     -6.8 1.188e+04 5.697e-09
 64.51044     -7.8 1.183e+04 8.218e-09
 64.53017     -8.5 1.209e+04 9.954e-09
 64.54990     -9.1 1.202e+04 1.041e-08
 64.56964     -9.4 1.200e+04 7.920e-09
 64.58937    -10.4 1.220e+04 4.791e-09
 64.60910    -12.0 1.208e+04 3.391e-09
 64.62279    -13.1 1.198e+04 2.850e-09
 64.63266    -13.0 1.204e+04 3.886e-09
 64.64856    -13.5 1.200e+04 3.668e-09
 64.66829    -13.8 1.202e+04 3.606e-09
 64.68803    -14.7 1.251e+04 3.768e-09
 64.70776    -18.8 1.401e+04 6.416e-09
 64.72749    -22.3 1.379e+04 2.017e-08
 64.74722    -22.0 1.456e+04 5.077e-08
 64.76067    -20.8 1.511e+04 6.657e-08
 64.77053    -21.0 1.463e+04 4.813e-08
 64.78668    -22.0 1.429e+04 2.342e-08
 64.80641    -24.9 1.389e+04 8.114e-09
 64.82615    -27.5 1.288e+04 4.648e-09
 64.84588    -28.0 1.249e+04 3.759e-09
 64.86561    -28.0 1.238e+04 3.250e-09
 64.88534    -27.6 1.230e+04 2.817e-09
 64.89854    -27.2 1.228e+04 2.457e-09
 64.90841    -27.3 1.223e+04 2.235e-09
 64.92480    -27.0 1.228e+04 2.056e-09
 64.94454    -26.9 1.233e+04 1.990e-09
 64.96427    -27.0 1.251e+04 2.266e-09
 64.98400    -27.1 1.254e+04 2.955e-09
 65.00373    -26.8 1.251e+04 4.254e-09
 65.02346    -26.1 1.255e+04 6.027e-09
 65.03642    -25.2 1.268e+04 7.623e-09
 65.04629    -25.7 1.289e+04 9.336e-09
 65.06292    -25.1 1.310e+04 1.016e-08
 65.08266    -24.8 1.320e+04 1.037e-08
 65.11235    -25.1 1.334e+04 1.034e-08
 65.15191    -24.6 1.336e+04 1.015e-08
 65.19138    -24.3 1.358e+04 1.209e-08
 65.23084    -24.2 1.375e+04 1.415e-08
 65.27030    -24.8 1.376e+04 1.355e-08
 65.30251    -25.6 1.357e+04 1.060e-08
 65.32224    -25.7 1.379e+04 1.071e-08
 65.34923    -26.2 1.348e+04 6.984e-09
 65.38869    -26.4 1.344e+04 4.757e-09
 65.42815    -26.7 1.353e+04 4.000e-09
 65.45015    -26.3 1.376e+04 3.472e-09
 65.45992    -26.6 1.391e+04 3.849e-09
 65.47729    -27.4 1.411e+04 4.619e-09
 65.49702    -28.7 1.416e+04 8.315e-09
 65.51675    -29.1 1.399e+04 1.390e-08
 65.53648    -28.6 1.424e+04 2.026e-08
 65.55621    -28.2 1.441e+04 2.219e-08
 65.57595    -28.0 1.446e+04 2.004e-08
 65.58793    -28.0 1.435e+04 1.340e-08
 65.59780    -29.2 1.421e+04 7.824e-09
 65.61541    -29.6 1.413e+04 4.805e-09
 65.63514    -29.6 1.392e+04 3.761e-09
 65.65487    -29.0 1.380e+04 3.487e-09
 65.67460    -28.5 1.392e+04 3.505e-09
 65.69433    -30.5 1.555e+04 4.457e-09
 65.71407    -35.7 1.564e+04 2.172e-08
 65.72581    -36.2 1.636e+04 1.033e-07
 65.73567    -36.2 1.630e+04 1.053e-07
 65.75353    -35.6 1.752e+04 1.828e-07
 65.77326    -39.7 1.739e+04 1.447e-07
 65.79299    -44.3 1.577e+04 2.321e-08
 65.81272    -50.0 1.394e+04 5.211e-09
 65.83246    -51.1 1.348e+04 3.664e-09
 65.85392    -51.1 1.330e+04 3.198e-09
 65.87374    -51.9 1.328e+04 3.291e-09
 65.90171    -50.8 1.305e+04 2.613e-09
 65.94117    -49.8 1.297e+04 2.377e-09
 65.98064    -49.1 1.291e+04 2.652e-09
 66.02010    -48.3 1.282e+04 3.178e-09
 66.05956    -47.4 1.277e+04 3.329e-09
 66.09903    -46.1 1.267e+04 2.899e-09
 66.12977    -44.6 1.277e+04 1.923e-09
 66.14950    -45.2 1.269e+04 2.288e-09
 66.17795    -43.9 1.287e+04 1.489e-09
 66.21742    -42.5 1.293e+04 1.098e-09
 66.25688    -40.9 1.290e+04 9.458e-10
 66.29634    -39.4 1.287e+04 8.913e-10
 66.33581    -37.8 1.272e+04 9.733e-10
 66.37527    -36.2 1.259e+04 1.189e-09
 66.40552    -34.4 1.254e+04 1.437e-09
 66.42525    -35.3 1.253e+04 1.159e-09
 66.45419    -33.8 1.263e+04 1.345e-09
 66.49366    -32.6 1.272e+04 1.631e-09
 66.53312    -31.5 1.270e+04 2.173e-09
 66.57258    -30.4 1.271e+04 2.900e-09
 66.61205    -29.5 1.267e+04 3.243e-09
 66.65151    -28.7 1.231e+04 2.919e-09
 66.68128    -27.7 1.239e+04 1.736e-09
 66.70101    -28.2 1.246e+04 1.530e-09
 66.73044    -27.5 1.245e+04 1.119e-09
 66.76990    -26.5 1.239e+04 1.049e-09
 66.80936    -25.1 1.221e+04 1.054e-09
 66.84883    -23.5 1.215e+04 1.092e-09
 66.88829    -22.0 1.209e+04 1.226e-09
 66.92775    -20.7 1.201e+04 1.624e-09
 66.95703    -19.1 1.199e+04 2.351e-09
 66.97676    -19.9 1.202e+04 2.504e-09
 67.00668    -18.3 1.214e+04 3.314e-09
 67.04614    -17.3 1.226e+04 4.270e-09
 67.08560    -16.4 1.238e+04 6.010e-09
 67.12507    -15.2 1.247e+04 7.605e-09
 67.16453    -14.5 1.269e+04 6.074e-09
 67.20399    -14.0 1.275e+04 3.936e-09
 67.23278    -13.6 1.259e+04 2.850e-09
 67.25251    -13.5 1.270e+04 2.666e-09
 67.28292    -12.5 1.249e+04 2.330e-09
 67.32238    -10.7 1.238e+04 2.018e-09
 67.36185     -8.9 1.245e+04 1.479e-09
 67.40131     -7.7 1.264e+04 1.161e-09
 67.44077     -6.5 1.264e+04 1.404e-09
 67.48024     -5.3 1.260e+04 2.170e-09
 67.50854     -4.1 1.272e+04 3.308e-09
 67.52827     -3.8 1.279e+04 3.325e-09
 67.55916     -2.6 1.280e+04 4.179e-09
 67.59862     -1.8 1.273e+04 3.886e-09
 67.63809     -0.5 1.265e+04 2.459e-09
 67.67755     -0.0 1.279e+04 1.253e-09
 67.71701     -0.3 1.308e+04 8.144e-10
 67.75648      0.2 1.301e+04 9.038e-10
 67.78429      0.3 1.290e+04 1.442e-09
 67.80402     -0.9 1.292e+04 3.270e-09
 67.83540     -0.6 1.306e+04 4.090e-09
 67.86490      0.2 1.308e+04 4.394e-09
 67.88454      0.5 1.319e+04 4.095e-09
 67.90427      0.5 1.339e+04 3.407e-09
 67.92197      0.2 1.348e+04 3.032e-09
 67.93184     -0.8 1.346e+04 2.539e-09
 67.94373     -0.6 1.348e+04 2.598e-09
 67.96346     -0.7 1.359e+04 2.757e-09
 67.98319     -0.7 1.355e+04 3.254e-09
 68.00293     -0.5 1.335e+04 3.727e-09
 68.02266     -0.3 1.330e+04 4.050e-09
 68.04239     -0.1 1.324e+04 4.028e-09
 68.05985      0.3 1.309e+04 3.507e-09
 68.07968      0.4 1.295e+04 3.078e-09
 68.11165      1.3 1.270e+04 2.260e-09
 68.15111      2.0 1.272e+04 1.488e-09
 68.19057      2.5 1.269e+04 1.148e-09
 68.23003      3.2 1.263e+04 1.066e-09
 68.26950      4.3 1.251e+04 9.738e-10
 68.30896      5.5 1.243e+04 9.433e-10
 68.33580      6.4 1.237e+04 1.019e-09
 68.35553      5.9 1.250e+04 1.430e-09
 68.38789      5.4 1.296e+04 1.655e-09
 68.42735      4.7 1.279e+04 3.609e-09
 68.46681      4.7 1.278e+04 6.018e-09
 68.50628      4.9 1.281e+04 5.251e-09
 68.54574      5.2 1.275e+04 3.088e-09
 68.58520      5.4 1.268e+04 1.707e-09
 68.61155      5.9 1.255e+04 1.255e-09
 68.63128      4.3 1.250e+04 1.244e-09
 68.66413      5.8 1.245e+04 1.182e-09
 68.70359      6.9 1.254e+04 1.453e-09
 68.74306      7.8 1.256e+04 2.178e-09
 68.78252      8.9 1.255e+04 2.653e-09
 68.82198     10.4 1.254e+04 2.404e-09
 68.86144     11.8 1.261e+04 1.960e-09
 68.88731     13.5 1.261e+04 1.934e-09
 68.90704     11.7 1.262e+04 1.927e-09
 68.94037     13.2 1.274e+04 2.254e-09
 68.97983     14.9 1.286e+04 3.211e-09
 69.00933     16.1 1.298e+04 4.374e-09
 69.02499     16.6 1.313e+04 5.420e-09
 69.03485     15.7 1.308e+04 5.066e-09
 69.04870     16.0 1.312e+04 5.950e-09
 69.06843     16.3 1.308e+04 6.642e-09
 69.08816     16.6 1.295e+04 7.005e-09
 69.10789     16.8 1.290e+04 6.951e-09
 69.12763     17.1 1.280e+04 6.765e-09
 69.14736     17.3 1.272e+04 6.593e-09
 69.16287     17.8 1.263e+04 6.322e-09
 69.17273     17.5 1.244e+04 4.956e-09
 69.18682     17.7 1.244e+04 4.846e-09
 69.21651     18.4 1.217e+04 4.205e-09
 69.25608     19.4 1.199e+04 4.237e-09
 69.29554     20.5 1.186e+04 3.929e-09
 69.33500     21.6 1.180e+04 3.384e-09
 69.37446     22.5 1.171e+04 3.204e-09
 69.39537     23.3 1.169e+04 3.375e-09
 69.41510     23.0 1.204e+04 4.491e-09
 69.43882     23.3 1.201e+04 5.601e-09
 69.45855     23.2 1.209e+04 7.596e-09
 69.49285     22.7 1.202e+04 8.344e-09
 69.53232     22.2 1.177e+04 7.188e-09
 69.57178     22.2 1.140e+04 5.058e-09
 69.60128     22.2 1.109e+04 3.121e-09
 69.62091     22.0 1.103e+04 2.749e-09
 69.65061     22.8 1.087e+04 2.068e-09
 69.69017     23.6 1.065e+04 1.501e-09
 69.71457     25.1 1.061e+04 1.491e-09
 69.73430     24.9 1.048e+04 1.357e-09
 69.76910     26.6 1.066e+04 1.523e-09
 69.80856     27.8 1.097e+04 1.855e-09
 69.83806     28.3 1.107e+04 2.068e-09
 69.85225     28.0 1.117e+04 2.697e-09
 69.86212     27.4 1.117e+04 3.136e-09
 69.87742     27.0 1.135e+04 4.557e-09
 69.89716     25.7 1.190e+04 7.327e-09
 69.91689     22.9 1.293e+04 1.604e-08
 69.93662     20.2 1.406e+04 3.533e-08
 69.95635     17.9 1.423e+04 4.154e-08
 69.97608     16.5 1.383e+04 3.274e-08
 69.99013     13.7 1.350e+04 1.721e-08
 69.99999     13.0 1.317e+04 1.417e-08
 70.01555      8.3 1.259e+04 1.010e-08
 70.03528      5.3 1.218e+04 1.053e-08
 70.05501      3.8 1.192e+04 1.075e-08
 70.07474      3.6 1.162e+04 9.746e-09
 70.09447      3.2 1.143e+04 7.264e-09
 70.11420      1.7 1.143e+04 5.265e-09
 70.12800      0.2 1.126e+04 4.857e-09
 70.13787      0.6 1.111e+04 4.370e-09
 70.15367     -1.6 1.143e+04 5.036e-09
 70.17340     -3.9 1.204e+04 8.733e-09
 70.19313     -5.4 1.279e+04 1.787e-08
 70.21286     -6.7 1.363e+04 3.029e-08
 70.23259     -7.7 1.398e+04 4.105e-08
 70.25232     -8.4 1.373e+04 3.726e-08
 70.26588     -8.3 1.314e+04 2.232e-08
 70.27575     -7.8 1.319e+04 2.742e-08
 70.29179     -8.3 1.261e+04 1.445e-08
 70.31152     -9.9 1.214e+04 7.284e-09
 70.33125    -11.0 1.129e+04 5.550e-09
 70.35098    -10.7 1.108e+04 4.458e-09
 70.37071    -10.4 1.098e+04 4.204e-09
 70.39044     -9.9 1.089e+04 3.784e-09
 70.40376     -9.4 1.070e+04 3.730e-09
 70.41362     -8.8 1.070e+04 4.380e-09
 70.42991     -7.8 1.072e+04 4.099e-09
 70.44964     -7.5 1.074e+04 3.997e-09
 70.47933     -6.0 1.053e+04 2.558e-09
 70.51890     -4.6 1.056e+04 1.771e-09
 70.54183     -3.2 1.063e+04 1.487e-09
 70.56156     -2.6 1.086e+04 2.439e-09
 70.59782     -1.5 1.084e+04 2.564e-09
 70.63728     -0.0 1.115e+04 3.446e-09
 70.67675      1.4 1.165e+04 4.802e-09
 70.70625      0.8 1.273e+04 9.317e-09
 70.72588     -1.2 1.432e+04 2.046e-08
 70.74561     -3.6 1.552e+04 6.022e-08
 70.76534     -3.2 1.624e+04 1.202e-07
 70.78508     -2.9 1.609e+04 1.047e-07
 70.80481     -3.7 1.603e+04 5.387e-08
 70.81739     -9.4 1.644e+04 2.726e-08
 70.82726    -11.7 1.645e+04 4.334e-08
 70.84427    -17.2 1.679e+04 5.871e-08
 70.86400    -20.3 1.689e+04 1.113e-07
 70.88373    -21.6 1.689e+04 1.391e-07
 70.90347    -23.1 1.653e+04 1.151e-07
 70.92320    -25.4 1.563e+04 5.635e-08
 70.94293    -28.3 1.403e+04 2.920e-08
 70.95527    -29.6 1.320e+04 1.720e-08
 70.96513    -29.2 1.356e+04 2.491e-08
 70.98239    -29.6 1.315e+04 1.548e-08
 71.00212    -30.4 1.253e+04 8.889e-09
 71.02185    -30.9 1.206e+04 5.603e-09
 71.04159    -31.4 1.163e+04 4.053e-09
 71.07128    -31.8 1.103e+04 2.943e-09
 71.09334    -30.2 1.076e+04 2.760e-09
 71.11307    -29.4 1.117e+04 4.014e-09
 71.15030    -28.0 1.094e+04 2.954e-09
 71.18977    -26.7 1.061e+04 2.263e-09
 71.22923    -25.0 1.026e+04 1.814e-09
 71.26869    -23.3 1.013e+04 1.566e-09
 71.30816    -21.9 1.019e+04 1.538e-09
 71.34762    -20.9 1.021e+04 2.344e-09
 71.36900    -19.0 1.016e+04 3.281e-09
 71.37876    -18.8 1.017e+04 3.259e-09
 71.39675    -18.7 1.026e+04 3.421e-09
 71.42645    -17.4 1.017e+04 4.537e-09
 71.46601    -15.7 1.012e+04 4.120e-09
 71.50547    -14.1 9.993e+03 3.192e-09
 71.54494    -12.6 9.862e+03 2.253e-09
 71.58440    -10.7 9.583e+03 1.695e-09
 71.62386     -9.0 9.579e+03 1.246e-09
 71.64485     -7.3 9.532e+03 1.195e-09
 71.66458     -7.1 9.676e+03 1.612e-09
 71.70279     -5.4 9.811e+03 1.965e-09
 71.74225     -3.9 1.000e+04 2.626e-09
 71.78171     -2.6 1.019e+04 3.882e-09
 71.82118     -1.3 1.043e+04 5.441e-09
 71.86064     -0.3 1.050e+04 5.654e-09
 71.90010      0.9 1.033e+04 4.682e-09
 71.92060      1.8 1.016e+04 3.434e-09
 71.94033      1.6 1.018e+04 3.224e-09
 71.97903      2.5 1.010e+04 2.836e-09
 72.01849      3.7 1.014e+04 3.059e-09
 72.05796      5.1 1.028e+04 3.522e-09
 72.09742      6.5 1.046e+04 3.910e-09
 72.13688      7.8 1.060e+04 4.021e-09
 72.17635      8.9 1.064e+04 3.995e-09
 72.19636     10.0 1.062e+04 3.854e-09
 72.21609     10.1 1.065e+04 3.904e-09
 72.25527     11.3 1.055e+04 3.288e-09
 72.29474     12.2 1.056e+04 2.600e-09
 72.33420     12.7 1.071e+04 2.151e-09
 72.37366     12.8 1.085e+04 2.153e-09
 72.40316     12.9 1.097e+04 2.288e-09
 72.42279     12.4 1.106e+04 2.763e-09
 72.44253     11.9 1.100e+04 3.625e-09
 72.46205     11.6 1.106e+04 4.682e-09
 72.47191     12.0 1.118e+04 4.936e-09
 72.48199     12.0 1.121e+04 6.172e-09
 72.50172     11.6 1.124e+04 6.376e-09
 72.52145     11.4 1.107e+04 5.816e-09
 72.54118     10.8 1.093e+04 4.893e-09
 72.57088     10.9 1.068e+04 3.822e-09
 72.61044     10.6 1.024e+04 2.420e-09
 72.64990     10.9 9.884e+03 2.164e-09
 72.68937     11.5 9.867e+03 2.381e-09
 72.72813     11.8 9.921e+03 3.151e-09
 72.74786     12.7 1.011e+04 3.156e-09
 72.76829     13.0 1.014e+04 3.888e-09
 72.80776     13.1 1.006e+04 4.054e-09
 72.84722     13.2 9.902e+03 3.802e-09
 72.87578     12.8 9.781e+03 3.448e-09
 72.88554     13.2 9.811e+03 3.387e-09
 72.89635     13.1 9.812e+03 3.391e-09
 72.91608     12.8 9.810e+03 3.473e-09
 72.93582     12.6 9.778e+03 3.664e-09
 72.95555     12.5 9.793e+03 3.929e-09
 72.97528     12.4 9.785e+03 4.147e-09
 72.99501     12.4 9.733e+03 4.273e-09
 73.01356     12.4 9.726e+03 4.304e-09
 73.02342     12.9 9.748e+03 4.292e-09
 73.03447     12.9 9.758e+03 4.360e-09
 73.05420     12.8 9.773e+03 4.421e-09
 73.08390     12.3 1.002e+04 5.119e-09
 73.12346     10.6 1.054e+04 7.359e-09
 73.16292      8.5 1.110e+04 9.923e-09
 73.19242      6.5 1.197e+04 1.512e-08
 73.21206      5.0 1.228e+04 1.919e-08
 73.23179      3.7 1.220e+04 1.843e-08
 73.25152      2.5 1.204e+04 1.423e-08
 73.27125      0.3 1.195e+04 9.711e-09
 73.28931     -2.0 1.144e+04 7.562e-09
 73.29918     -1.1 1.126e+04 6.649e-09
 73.32068     -1.8 1.070e+04 5.217e-09
 73.36024     -1.9 1.034e+04 3.469e-09
 73.39970     -2.2 1.011e+04 2.277e-09
 73.43917     -2.0 9.925e+03 2.131e-09
 73.47863     -1.4 1.001e+04 2.261e-09
 73.51809     -0.7 1.019e+04 2.749e-09
 73.55539      0.0 1.033e+04 3.401e-09
 73.57513      1.4 1.048e+04 3.783e-09
 73.59702      2.0 1.067e+04 3.951e-09
 73.63648      2.4 1.063e+04 3.852e-09
 73.67594      2.3 1.065e+04 4.107e-09
 73.71541      2.0 1.051e+04 4.588e-09
 73.75487      1.9 1.034e+04 4.347e-09
 73.79433      1.9 1.003e+04 3.510e-09
 73.83115      1.8 9.781e+03 2.631e-09
 73.85088      3.1 1.009e+04 2.926e-09
 73.87326      2.7 9.998e+03 2.800e-09
 73.91272      2.4 1.009e+04 3.192e-09
 73.95219      1.7 1.039e+04 4.123e-09
 73.99165      0.6 1.090e+04 6.444e-09
 74.03111     -0.5 1.136e+04 1.058e-08
 74.06061     -1.0 1.161e+04 1.032e-08
 74.08025     -1.4 1.165e+04 1.033e-08
 74.09998     -1.8 1.176e+04 9.205e-09
 74.11657     -2.3 1.155e+04 7.750e-09
 74.12644     -2.5 1.145e+04 7.043e-09
 74.13944     -3.5 1.151e+04 6.227e-09
 74.15917     -5.0 1.192e+04 6.438e-09
 74.17890     -7.2 1.219e+04 8.119e-09
 74.19863     -8.2 1.228e+04 1.133e-08
 74.21837     -8.1 1.214e+04 2.104e-08
 74.23810     -7.8 1.204e+04 1.951e-08
 74.26779     -7.3 1.206e+04 7.482e-09
 74.30735     -8.8 1.091e+04 3.171e-09
 74.34014     -8.6 1.037e+04 1.938e-09
 74.35988     -8.7 1.039e+04 1.897e-09
 74.38266     -7.3 1.029e+04 1.388e-09
 74.40239     -6.7 1.042e+04 1.484e-09
 74.42574     -5.8 1.061e+04 1.142e-09
 74.46521     -6.2 1.095e+04 1.541e-09
 74.49471     -7.3 1.082e+04 2.742e-09
 74.51434     -8.8 1.194e+04 3.957e-09
 74.53020    -14.0 1.383e+04 1.680e-08
 74.54007    -15.0 1.427e+04 2.023e-08
 74.55380    -20.7 1.641e+04 8.138e-08
 74.56855    -21.7 1.675e+04 1.755e-07
 74.57837    -22.4 1.655e+04 2.110e-07
 74.58824    -21.2 1.650e+04 2.461e-07
 74.59810    -20.2 1.676e+04 1.960e-07
 74.60398    -21.3 1.700e+04 1.188e-07
 74.60891    -21.0 1.674e+04 1.067e-07
 74.61783    -24.7 1.612e+04 5.753e-08
 74.62770    -29.8 1.359e+04 3.049e-08
 74.63756    -30.2 1.337e+04 2.754e-08
 74.65241    -33.0 1.154e+04 1.589e-08
 74.66808    -33.3 1.069e+04 9.915e-09
 74.67795    -31.8 1.060e+04 9.745e-09
 74.70189    -31.6 9.791e+03 6.119e-09
 74.74145    -30.4 8.815e+03 3.406e-09
 74.78091    -28.6 8.364e+03 2.362e-09
 74.82037    -26.8 8.226e+03 2.173e-09
 74.85984    -24.6 8.167e+03 2.174e-09
 74.89930    -22.5 8.131e+03 2.210e-09
 74.93416    -20.4 8.130e+03 2.194e-09
 74.95390    -19.1 7.919e+03 1.648e-09
 74.97823    -17.1 7.988e+03 1.688e-09
 75.01769    -15.4 8.093e+03 1.991e-09
 75.05715    -13.3 8.260e+03 2.504e-09
 75.09662    -11.3 8.516e+03 2.746e-09
 75.13608    -10.1 8.832e+03 3.002e-09
 75.17554     -9.8 9.132e+03 3.972e-09
 75.20992     -8.7 9.386e+03 5.706e-09
 75.22965     -7.4 9.504e+03 6.079e-09
 75.25447     -6.0 9.745e+03 7.886e-09
 75.29393     -4.7 9.581e+03 5.604e-09
 75.33339     -3.3 9.166e+03 2.272e-09
 75.37286     -2.5 8.702e+03 1.041e-09
 75.41232     -1.1 8.480e+03 7.367e-10
 75.45178      0.7 8.467e+03 5.969e-10
 75.48567      2.9 8.612e+03 5.443e-10
 75.50540      3.9 8.703e+03 5.516e-10
 75.53071      5.7 8.689e+03 5.789e-10
 75.57017      7.6 8.708e+03 6.910e-10
 75.60964      9.4 8.852e+03 8.742e-10
 75.64910     10.9 9.069e+03 1.277e-09
 75.68856     12.5 9.330e+03 2.343e-09
 75.72803     14.1 9.735e+03 3.729e-09
 75.76143     15.1 1.026e+04 5.195e-09
 75.78116     16.4 1.001e+04 4.046e-09
 75.80695     17.8 1.062e+04 5.443e-09
 75.83645     16.6 1.160e+04 7.778e-09
 75.85609     12.8 1.319e+04 1.632e-08
 75.87582     10.2 1.426e+04 4.851e-08
 75.89555     10.5 1.484e+04 9.034e-08
 75.90897     11.4 1.450e+04 7.342e-08
 75.91884     11.6 1.529e+04 9.843e-08
 75.93501     10.7 1.541e+04 4.809e-08
 75.95474      5.7 1.495e+04 2.691e-08
 75.97447      2.8 1.360e+04 2.274e-08
 75.99421      2.1 1.340e+04 2.126e-08
 76.01394      1.3 1.369e+04 1.978e-08
 76.03367      0.5 1.333e+04 2.128e-08
 76.04685      1.1 1.308e+04 1.812e-08
 76.05672      1.0 1.399e+04 4.311e-08
 76.07313      1.5 1.380e+04 2.973e-08
 76.09286      1.5 1.333e+04 1.822e-08
 76.12256      2.0 1.313e+04 1.118e-08
 76.16212      3.2 1.266e+04 7.447e-09
 76.20158      5.2 1.244e+04 4.949e-09
 76.24105      7.4 1.251e+04 2.846e-09
 76.28051      9.0 1.279e+04 1.715e-09
 76.31293     10.5 1.282e+04 1.404e-09
 76.33267     10.1 1.285e+04 2.192e-09
 76.35944     12.1 1.282e+04 2.188e-09
 76.39890     14.3 1.288e+04 2.191e-09
 76.43836     16.7 1.289e+04 2.092e-09
 76.47782     19.1 1.294e+04 1.912e-09
 76.51729     21.4 1.293e+04 1.705e-09
 76.55675     23.7 1.290e+04 1.540e-09
 76.58869     25.9 1.278e+04 1.458e-09
 76.60842     25.8 1.284e+04 1.337e-09
 76.63568     27.8 1.274e+04 1.450e-09
 76.67514     29.4 1.263e+04 1.885e-09
 76.71460     31.1 1.253e+04 3.069e-09
 76.75407     32.8 1.261e+04 5.305e-09
 76.79353     34.0 1.273e+04 7.429e-09
 76.83299     34.5 1.272e+04 7.458e-09
 76.86444     34.8 1.260e+04 6.347e-09
 76.88417     35.0 1.280e+04 1.059e-08
 76.91192     35.1 1.265e+04 1.016e-08
 76.95138     35.2 1.238e+04 8.681e-09
 76.99085     35.5 1.208e+04 6.421e-09
 77.03031     36.2 1.186e+04 4.166e-09
 77.06977     37.0 1.163e+04 3.076e-09
 77.10923     38.3 1.156e+04 3.155e-09
 77.14020     39.3 1.163e+04 4.024e-09
 77.15993     39.0 1.176e+04 4.764e-09
 77.18816     40.1 1.195e+04 6.382e-09
 77.22762     41.1 1.210e+04 7.165e-09
 77.26709     41.7 1.206e+04 6.688e-09
 77.30655     42.2 1.191e+04 5.655e-09
 77.34601     42.6 1.168e+04 5.079e-09
 77.38548     43.2 1.141e+04 5.148e-09
 77.41595     44.0 1.113e+04 5.005e-09
 77.43568     44.9 1.118e+04 4.882e-09
 77.46440     46.0 1.090e+04 4.536e-09
 77.50387     47.6 1.047e+04 3.222e-09
 77.54333     49.4 1.020e+04 1.809e-09
 77.58279     51.0 1.008e+04 1.043e-09
 77.62225     52.7 9.806e+03 8.274e-10
 77.66172     54.8 9.552e+03 8.057e-10
 77.69170     57.2 9.462e+03 7.902e-10
 77.71144     57.6 9.515e+03 8.079e-10
 77.74064     59.9 9.441e+03 8.207e-10
 77.78011     62.2 9.354e+03 8.305e-10
 77.81957     64.4 9.246e+03 8.365e-10
 77.85903     66.6 9.209e+03 8.439e-10
 77.89850     68.7 9.143e+03 8.823e-10
 77.93796     70.6 9.061e+03 1.009e-09
 77.96746     72.4 9.033e+03 1.275e-09
 77.98719     73.0 9.144e+03 1.260e-09
 78.01689     74.6 9.224e+03 1.748e-09
 78.05635     76.1 9.372e+03 2.530e-09
 78.09581     77.2 9.492e+03 3.176e-09
 78.13528     77.8 9.500e+03 3.231e-09
 78.17474     78.3 9.379e+03 3.066e-09
 78.21420     79.1 9.099e+03 2.623e-09
 78.24321     80.0 8.788e+03 2.253e-09
 78.26294     80.3 9.125e+03 2.224e-09
 78.29313     81.1 8.881e+03 1.983e-09
 78.33259     82.0 8.861e+03 1.987e-09
 78.37205     82.7 8.835e+03 1.997e-09
 78.41152     83.2 8.807e+03 2.020e-09
 78.45098     83.4 8.848e+03 2.089e-09
 78.49044     83.2 9.035e+03 2.312e-09
 78.51887     82.8 9.114e+03 2.518e-09
 78.52864     82.3 9.147e+03 2.654e-09
 78.53958     81.9 9.303e+03 3.034e-09
 78.55931     81.2 9.597e+03 3.815e-09
 78.57904     79.9 1.014e+04 5.714e-09
 78.59877     78.1 1.102e+04 1.036e-08
 78.61850     76.3 1.200e+04 1.892e-08
 78.63823     74.7 1.275e+04 2.696e-08
 78.65665     72.7 1.295e+04 2.766e-08
 78.66651     72.5 1.274e+04 2.315e-08
 78.67770     70.5 1.260e+04 2.154e-08
 78.69743     68.7 1.213e+04 1.733e-08
 78.71716     67.0 1.154e+04 1.295e-08
 78.73689     65.5 1.100e+04 9.747e-09
 78.75662     64.1 1.065e+04 8.129e-09
 78.77636     62.8 1.086e+04 8.368e-09
 78.79452     60.8 1.172e+04 9.737e-09
 78.80439     57.2 1.443e+04 2.593e-08
 78.81582     55.1 1.422e+04 3.543e-08
 78.83555     54.0 1.370e+04 4.498e-08
 78.85528     53.0 1.378e+04 4.544e-08
 78.87501     51.0 1.413e+04 4.316e-08
 78.89475     47.0 1.452e+04 3.885e-08
 78.91448     42.2 1.435e+04 3.062e-08
 78.93240     38.2 1.338e+04 2.226e-08
 78.94227     37.6 1.227e+04 1.287e-08
 78.95394     36.0 1.194e+04 1.193e-08
 78.97367     35.1 1.172e+04 1.049e-08
 79.00337     33.2 1.129e+04 8.619e-09
 79.04293     32.2 1.051e+04 5.407e-09
 79.07047     31.6 1.004e+04 3.316e-09
 79.09021     32.3 1.025e+04 4.068e-09
 79.12185     32.1 1.014e+04 3.436e-09
 79.15135     32.1 1.016e+04 3.181e-09
 79.17099     32.0 1.027e+04 3.302e-09
 79.19072     32.0 1.045e+04 3.629e-09
 79.20816     31.7 1.069e+04 4.368e-09
 79.21802     32.1 1.060e+04 4.294e-09
 79.23018     31.8 1.080e+04 5.412e-09
 79.24991     31.4 1.115e+04 6.826e-09
 79.26964     29.9 1.192e+04 9.563e-09
 79.28938     27.2 1.299e+04 1.935e-08
 79.30446     25.6 1.392e+04 4.004e-08
 79.31432     25.1 1.406e+04 4.583e-08
 79.32884     25.1 1.391e+04 4.194e-08
 79.34603     25.0 1.340e+04 2.570e-08
 79.35590     25.4 1.357e+04 2.970e-08
 79.36830     23.4 1.326e+04 1.341e-08
 79.39800     19.3 1.207e+04 6.163e-09
 79.43756     17.5 1.087e+04 3.431e-09
 79.47702     18.3 1.036e+04 1.949e-09
 79.51648     19.0 1.033e+04 1.057e-09
 79.55595     19.8 1.018e+04 8.755e-10
 79.59541     21.2 1.016e+04 8.974e-10
 79.62198     22.8 1.013e+04 9.746e-10
 79.64171     22.5 1.030e+04 1.147e-09
 79.67434     24.0 1.033e+04 1.289e-09
 79.71380     25.2 1.039e+04 1.456e-09
 79.75326     26.0 1.052e+04 2.013e-09
 79.79273     26.6 1.089e+04 3.774e-09
 79.83219     27.0 1.146e+04 7.073e-09
 79.87165     27.0 1.191e+04 9.124e-09
 79.89774     26.4 1.186e+04 8.599e-09
 79.91747     25.9 1.192e+04 1.007e-08
 79.95058     25.4 1.149e+04 6.859e-09
 79.99004     24.2 1.111e+04 4.344e-09
 80.02950     23.1 1.076e+04 3.380e-09
 80.06897     22.7 1.039e+04 3.032e-09
 80.10843     22.9 1.012e+04 2.339e-09
 80.14789     23.2 1.000e+04 1.434e-09
 80.17349     22.7 1.003e+04 8.569e-10
 80.19322     21.9 9.966e+03 8.112e-10
 80.22682     21.6 9.810e+03 6.342e-10
 80.26628     21.7 9.637e+03 5.851e-10
 80.30575     22.0 9.678e+03 5.959e-10
 80.34521     22.0 9.778e+03 6.782e-10
 80.38467     22.2 9.650e+03 9.330e-10
 80.42414     22.8 9.625e+03 1.232e-09
 80.44924     22.5 9.700e+03 1.622e-09
 80.46898     22.1 9.682e+03 1.763e-09
 80.50306     21.2 9.849e+03 2.490e-09
 80.54253     20.1 9.863e+03 3.147e-09
 80.58199     19.8 9.658e+03 2.896e-09
 80.62145     19.6 9.418e+03 2.071e-09
 80.66091     18.9 9.300e+03 1.597e-09
 80.70038     18.9 9.311e+03 1.510e-09
 80.72500     19.3 9.287e+03 1.462e-09
 80.74473     19.7 9.105e+03 1.205e-09
 80.77930     20.3 9.222e+03 1.257e-09
 80.81877     20.2 9.488e+03 1.418e-09
 80.85823     20.0 9.628e+03 1.996e-09
 80.89769     20.2 9.839e+03 2.582e-09
 80.93716     20.4 9.861e+03 2.431e-09
 80.97662     20.8 9.826e+03 1.766e-09
 81.00075     20.2 9.997e+03 1.168e-09
 81.02048     21.2 1.008e+04 1.284e-09
 81.05555     20.2 1.011e+04 1.322e-09
 81.09501     19.3 1.007e+04 1.855e-09
 81.13447     19.6 1.013e+04 2.494e-09
 81.17393     20.0 1.022e+04 2.437e-09
 81.21340     20.2 1.039e+04 2.120e-09
 81.25286     20.1 1.050e+04 2.160e-09
 81.27651     19.6 1.092e+04 2.770e-09
 81.29624     20.5 1.075e+04 3.183e-09
 81.33179     20.3 1.115e+04 4.801e-09
 81.37125     20.1 1.127e+04 5.485e-09
 81.41071     20.6 1.111e+04 4.815e-09
 81.45018     20.8 1.121e+04 3.417e-09
 81.48964     20.8 1.111e+04 2.900e-09
 81.52910     21.2 1.102e+04 3.077e-09
 81.55226     21.0 1.103e+04 4.123e-09
 81.57199     22.2 1.095e+04 4.330e-09
 81.60803     21.8 1.141e+04 8.734e-09
 81.64749     21.6 1.212e+04 1.646e-08
 81.68696     20.6 1.222e+04 1.649e-08
 81.72642     20.1 1.191e+04 1.111e-08
 81.76588     18.2 1.148e+04 6.250e-09
 81.80534     16.9 1.101e+04 5.711e-09
 81.82801     15.3 1.126e+04 7.510e-09
 81.84775     15.2 1.138e+04 9.153e-09
 81.88427     14.7 1.198e+04 1.764e-08
 81.92373     15.1 1.202e+04 1.901e-08
 81.95323     17.0 1.148e+04 1.093e-08
 81.96570     16.6 1.126e+04 8.084e-09
 81.97556     16.8 1.140e+04 7.724e-09
 81.99260     17.2 1.100e+04 3.825e-09
 82.01233     16.0 1.091e+04 2.320e-09
 82.04203     16.9 1.038e+04 2.382e-09
 82.08159     17.7 9.986e+03 1.490e-09
 82.10377     18.8 9.821e+03 1.462e-09
 82.12350     19.3 9.856e+03 1.995e-09
 82.16051     20.6 9.895e+03 2.411e-09
 82.19998     22.0 9.936e+03 3.236e-09
 82.23944     23.6 9.985e+03 4.067e-09
 82.27890     25.2 1.000e+04 4.359e-09
 82.31837     27.0 9.891e+03 3.910e-09
 82.35783     28.7 9.901e+03 3.074e-09
 82.37952     30.1 1.004e+04 2.474e-09
 82.39925     30.5 1.015e+04 2.494e-09
 82.43675     31.7 1.030e+04 2.311e-09
 82.47622     32.6 1.035e+04 2.501e-09
 82.51568     33.7 1.018e+04 2.838e-09
 82.55514     35.0 9.997e+03 2.816e-09
 82.59461     36.5 9.850e+03 2.518e-09
 82.63407     38.1 9.713e+03 2.267e-09
 82.65528     39.7 9.608e+03 2.233e-09
 82.66504     39.1 9.854e+03 2.927e-09
 82.68320     39.9 9.830e+03 3.098e-09
 82.70294     40.6 9.916e+03 3.567e-09
 82.72267     41.1 1.009e+04 4.433e-09
 82.74240     41.9 1.035e+04 5.902e-09
 82.76213     42.4 1.088e+04 8.500e-09
 82.78186     41.9 1.174e+04 1.384e-08
 82.79296     40.5 1.324e+04 2.977e-08
 82.80282     40.0 1.424e+04 5.004e-08
 82.82132     39.7 1.551e+04 8.750e-08
 82.84106     39.2 1.567e+04 9.011e-08
 82.86079     39.3 1.516e+04 6.568e-08
 82.88052     38.4 1.419e+04 3.064e-08
 82.90025     35.3 1.291e+04 1.292e-08
 82.91998     32.0 1.158e+04 7.038e-09
 82.93083     31.1 1.092e+04 5.459e-09
 82.94070     29.8 1.075e+04 4.892e-09
 82.95945     29.5 1.081e+04 5.084e-09
 82.97918     28.5 1.125e+04 6.310e-09
 82.99891     26.1 1.224e+04 1.104e-08
 83.01864     24.0 1.327e+04 2.631e-08
 83.03837     24.2 1.408e+04 5.374e-08
 83.05810     24.7 1.401e+04 6.198e-08
 83.06871     24.8 1.365e+04 5.100e-08
 83.07858     25.0 1.303e+04 3.521e-08
 83.09757     23.5 1.308e+04 2.103e-08
 83.11730     20.0 1.275e+04 1.312e-08
 83.13703     16.9 1.202e+04 1.150e-08
 83.15676     15.2 1.181e+04 1.227e-08
 83.17649     14.5 1.179e+04 1.449e-08
 83.19622     14.4 1.187e+04 1.672e-08
 83.20659     14.3 1.186e+04 1.716e-08
 83.21645     14.7 1.150e+04 1.489e-08
 83.23569     14.7 1.139e+04 1.457e-08
 83.26538     15.3 1.107e+04 1.264e-08
 83.30494     16.0 1.042e+04 8.251e-09
 83.34441     16.1 9.935e+03 4.843e-09
 83.38387     16.4 9.825e+03 4.080e-09
 83.42333     16.9 9.981e+03 4.457e-09
 83.46280     17.7 1.021e+04 5.493e-09
 83.49230     20.2 1.005e+04 4.269e-09
 83.51193     20.3 1.007e+04 4.127e-09
 83.54162     21.4 1.002e+04 3.349e-09
 83.58118     22.6 1.012e+04 2.211e-09
 83.62065     23.5 1.020e+04 1.548e-09
 83.66011     24.9 9.975e+03 1.356e-09
 83.69957     26.9 9.904e+03 1.365e-09
 83.73856     28.9 9.891e+03 1.457e-09
 83.75829     29.5 9.897e+03 1.152e-09
 83.77850     31.2 9.944e+03 1.325e-09
 83.81796     32.8 1.005e+04 1.888e-09
 83.85743     34.0 1.029e+04 3.181e-09
 83.89689     35.0 1.065e+04 5.314e-09
 83.93635     36.0 1.102e+04 7.221e-09
 83.97582     36.7 1.115e+04 7.256e-09
 84.01431     37.7 1.122e+04 6.883e-09
 84.03405     38.1 1.087e+04 6.605e-09
 84.05474     38.8 1.103e+04 6.605e-09
 84.08424     39.7 1.108e+04 6.639e-09
 84.10388     40.1 1.121e+04 6.952e-09
 84.12361     39.9 1.144e+04 7.894e-09
 84.14334     38.9 1.201e+04 1.056e-08
 84.16186     37.8 1.247e+04 1.629e-08
 84.17173     37.5 1.180e+04 1.555e-08
 84.18280     36.5 1.216e+04 2.143e-08
 84.20253     35.2 1.256e+04 2.459e-08
 84.22226     33.3 1.283e+04 2.603e-08
 84.24200     26.1 1.475e+04 3.791e-08
 84.25675     15.0 1.879e+04 1.062e-07
 84.26393     11.0 1.765e+04 1.802e-07
 84.26887     12.7 1.757e+04 1.760e-07
 84.27643     11.9 1.723e+04 2.819e-07
 84.28629     12.0 1.765e+04 3.639e-07
 84.29616     11.3 1.808e+04 3.464e-07
 84.30457      9.2 1.893e+04 2.893e-07
 84.30951      9.4 1.792e+04 1.686e-07
 84.32087      4.2 1.709e+04 7.110e-08
 84.34065     -1.4 1.407e+04 4.055e-08
 84.36039     -3.5 1.278e+04 2.884e-08
 84.38012     -4.0 1.197e+04 2.301e-08
 84.39985     -4.2 1.134e+04 1.871e-08
 84.41958     -4.1 1.087e+04 1.561e-08
 84.43762     -4.6 1.090e+04 1.389e-08
 84.44748     -3.4 1.079e+04 1.131e-08
 84.45904     -6.5 1.212e+04 1.467e-08
 84.47878    -12.0 1.389e+04 3.363e-08
 84.49851    -13.7 1.483e+04 7.662e-08
 84.51824    -12.0 1.595e+04 1.210e-07
 84.53797    -12.1 1.587e+04 1.112e-07
 84.55770    -11.9 1.455e+04 3.346e-08
 84.57549    -17.9 1.210e+04 8.358e-09
 84.58536    -15.2 1.297e+04 1.386e-08
 84.59716    -19.1 1.089e+04 5.038e-09
 84.61690    -19.8 1.009e+04 3.276e-09
 84.63663    -19.6 1.005e+04 2.419e-09
 84.65636    -19.2 1.010e+04 1.790e-09
 84.68605    -18.8 1.011e+04 1.399e-09
 84.72561    -18.0 1.010e+04 9.813e-10
 84.76508    -17.1 1.007e+04 8.481e-10
 84.80454    -16.5 1.045e+04 9.051e-10
 84.84158    -16.1 1.069e+04 1.195e-09
 84.86131    -15.9 1.092e+04 1.349e-09
 84.88347    -16.2 1.133e+04 1.363e-09
 84.91297    -17.3 1.186e+04 1.612e-09
 84.93260    -18.1 1.204e+04 1.984e-09
 84.95233    -18.8 1.207e+04 2.471e-09
 84.97206    -18.9 1.209e+04 2.813e-09
 85.00176    -19.0 1.174e+04 2.970e-09
 85.04132    -18.8 1.141e+04 2.096e-09
 85.08078    -18.4 1.114e+04 1.339e-09
 85.11733    -17.9 1.104e+04 1.043e-09
 85.13706    -18.5 1.056e+04 9.982e-10
 85.15971    -17.0 1.050e+04 9.703e-10
 85.19917    -15.8 1.046e+04 1.024e-09
 85.23864    -14.5 1.059e+04 1.098e-09
 85.27810    -13.4 1.080e+04 1.135e-09
 85.31756    -12.8 1.105e+04 1.189e-09
 85.35702    -12.5 1.092e+04 1.497e-09
 85.39308    -12.0 1.072e+04 2.055e-09
 85.41282    -10.8 1.083e+04 2.065e-09
 85.43595    -10.6 1.087e+04 2.564e-09
 85.47541    -12.9 1.142e+04 4.838e-09
 85.50491    -17.0 1.222e+04 1.190e-08
 85.52455    -19.6 1.279e+04 2.017e-08
 85.54063    -21.5 1.334e+04 3.293e-08
 85.55050    -20.5 1.320e+04 2.985e-08
 85.56401    -22.9 1.347e+04 3.602e-08
 85.58374    -26.0 1.324e+04 3.183e-08
 85.60347    -30.4 1.191e+04 1.706e-08
 85.62321    -34.7 1.037e+04 1.035e-08
 85.64294    -36.5 9.577e+03 8.362e-09
 85.66267    -37.0 9.167e+03 7.006e-09
 85.67851    -37.3 8.703e+03 5.366e-09
 85.68837    -37.0 8.790e+03 5.745e-09
 85.70213    -37.3 8.263e+03 4.023e-09
 85.72186    -37.4 7.934e+03 3.159e-09
 85.75156    -37.3 7.622e+03 2.364e-09
 85.79112    -35.8 6.947e+03 1.282e-09
 85.83058    -34.2 6.630e+03 7.552e-10
 85.87005    -32.9 6.614e+03 5.579e-10
 85.90951    -31.4 6.623e+03 5.084e-10
 85.94459    -30.2 6.679e+03 5.047e-10
 85.96432    -29.8 6.740e+03 5.850e-10
 85.98843    -29.6 7.016e+03 6.571e-10
 86.02790    -29.8 7.335e+03 1.177e-09
 86.06736    -29.8 7.796e+03 2.168e-09
 86.10682    -29.7 8.271e+03 2.921e-09
 86.14629    -30.6 8.429e+03 3.038e-09
 86.18575    -31.7 8.545e+03 2.629e-09
 86.22035    -32.4 8.451e+03 2.349e-09
 86.23998    -33.2 8.687e+03 2.960e-09
 86.25462    -33.2 8.723e+03 3.035e-09
 86.27435    -33.1 8.907e+03 3.290e-09
 86.29408    -33.0 9.112e+03 3.733e-09
 86.31381    -33.0 9.285e+03 4.227e-09
 86.33354    -32.8 9.486e+03 5.226e-09
 86.35327    -32.4 9.743e+03 6.415e-09
 86.36789    -31.9 1.011e+04 7.854e-09
 86.37776    -32.3 1.030e+04 8.000e-09
 86.39274    -31.9 1.045e+04 8.938e-09
 86.42243    -31.4 1.074e+04 1.019e-08
 86.46199    -31.0 1.109e+04 1.187e-08
 86.49610    -31.1 1.141e+04 1.103e-08
 86.51583    -31.9 1.078e+04 5.681e-09
 86.54092    -32.6 1.082e+04 5.211e-09
 86.58038    -33.7 1.119e+04 6.301e-09
 86.61984    -34.6 1.174e+04 8.749e-09
 86.65931    -35.3 1.231e+04 1.028e-08
 86.69877    -36.4 1.247e+04 1.009e-08
 86.73823    -36.9 1.262e+04 7.878e-09
 86.77185    -37.1 1.264e+04 6.790e-09
 86.79159    -36.5 1.239e+04 6.299e-09
 86.81716    -36.1 1.248e+04 6.084e-09
 86.85662    -35.4 1.233e+04 5.593e-09
 86.89609    -34.1 1.206e+04 3.790e-09
 86.93555    -32.4 1.192e+04 1.923e-09
 86.97501    -30.7 1.198e+04 1.019e-09
 87.01448    -29.0 1.202e+04 7.250e-10
 87.04761    -27.2 1.201e+04 6.449e-10
 87.06734    -26.2 1.210e+04 5.841e-10
 87.09340    -24.3 1.215e+04 5.154e-10
 87.13286    -22.5 1.224e+04 5.071e-10
 87.17233    -21.5 1.277e+04 6.093e-10
 87.21179    -21.1 1.241e+04 1.397e-09
 87.25125    -19.9 1.235e+04 3.474e-09
 87.29072    -19.0 1.259e+04 6.972e-09
 87.32336    -18.4 1.301e+04 1.019e-08
 87.34309    -18.0 1.298e+04 9.633e-09
 87.36964    -18.0 1.288e+04 7.947e-09
 87.40911    -17.8 1.284e+04 4.173e-09
 87.44857    -18.4 1.300e+04 1.912e-09
 87.48803    -19.0 1.292e+04 1.430e-09
 87.52750    -19.2 1.307e+04 1.358e-09
 87.56696    -20.4 1.361e+04 2.059e-09
 87.59912    -20.3 1.326e+04 5.356e-09
 87.61885    -19.0 1.339e+04 2.944e-09
 87.64589    -19.0 1.330e+04 5.237e-09
 87.68535    -19.0 1.321e+04 7.625e-09
 87.72481    -19.2 1.329e+04 9.829e-09
 87.76427    -19.4 1.340e+04 1.235e-08
 87.80374    -19.7 1.336e+04 1.308e-08
 87.84320    -19.6 1.301e+04 1.024e-08
 87.87487    -19.6 1.270e+04 6.563e-09
 87.89460    -20.1 1.230e+04 4.508e-09
 87.92213    -19.6 1.201e+04 3.685e-09
 87.96159    -18.4 1.190e+04 3.578e-09
 88.00105    -17.2 1.178e+04 3.611e-09
 88.04052    -15.9 1.171e+04 3.489e-09
 88.07998    -14.5 1.156e+04 3.237e-09
 88.11944    -12.9 1.131e+04 2.971e-09
 88.15062    -11.1 1.119e+04 2.496e-09
 88.17036    -10.9 1.113e+04 2.489e-09
 88.19837     -9.1 1.106e+04 2.146e-09
 88.23783     -7.1 1.096e+04 2.045e-09
 88.27729     -4.9 1.081e+04 1.910e-09
 88.31676     -2.5 1.086e+04 1.544e-09
 88.35622     -0.8 1.090e+04 1.311e-09
 88.39568      1.2 1.078e+04 1.417e-09
 88.42638      3.7 1.057e+04 1.763e-09
 88.44611      3.9 1.045e+04 1.677e-09
 88.47461      6.5 1.050e+04 1.441e-09
 88.51407      8.6 1.058e+04 1.102e-09
 88.55354     11.0 1.045e+04 1.100e-09
 88.59300     12.9 1.050e+04 1.259e-09
 88.63246     15.0 1.050e+04 1.868e-09
 88.67193     17.4 1.057e+04 3.000e-09
 88.70213     19.8 1.068e+04 4.019e-09
 88.72186     19.8 1.098e+04 6.371e-09
 88.75085     21.4 1.098e+04 6.937e-09
 88.79032     23.0 1.066e+04 6.634e-09
 88.82978     24.6 1.015e+04 5.360e-09
 88.86924     26.3 9.615e+03 3.973e-09
 88.90870     28.4 9.089e+03 2.858e-09
 88.94817     30.6 8.737e+03 2.093e-09
 88.97789     32.8 8.412e+03 1.757e-09
 88.99762     32.7 8.450e+03 2.264e-09
 89.02709     35.3 8.194e+03 2.148e-09
 89.06656     37.9 8.211e+03 2.186e-09
 89.10602     40.2 8.386e+03 2.591e-09
 89.14548     42.1 8.873e+03 4.319e-09
 89.18495     44.3 9.864e+03 8.805e-09
 89.21393     46.7 1.068e+04 1.464e-08
 89.23367     45.7 1.045e+04 1.313e-08
 89.25364     47.6 1.024e+04 1.201e-08
 89.27337     47.5 1.021e+04 1.217e-08
 89.30334     49.5 9.486e+03 8.532e-09
 89.34280     51.2 8.513e+03 5.163e-09
 89.38226     52.6 7.633e+03 3.217e-09
 89.42173     54.0 7.143e+03 2.454e-09
 89.46119     55.7 6.956e+03 2.186e-09
 89.50065     57.5 6.871e+03 2.079e-09
 89.52939     59.4 6.876e+03 2.092e-09
 89.54913     60.5 6.918e+03 2.364e-09
 89.57958     62.4 7.040e+03 2.611e-09
 89.61904     64.2 7.199e+03 2.958e-09
 89.65850     65.7 7.434e+03 3.406e-09
 89.69797     67.0 7.948e+03 4.289e-09
 89.72747     67.2 8.210e+03 4.895e-09
 89.74710     67.3 8.370e+03 5.304e-09
 89.76683     67.3 8.509e+03 5.675e-09
 89.78656     67.2 8.654e+03 6.037e-09
 89.80495     67.0 8.822e+03 6.450e-09
 89.81482     67.6 8.535e+03 5.483e-09
 89.82603     67.2 8.646e+03 5.662e-09
 89.84576     66.7 8.726e+03 5.797e-09
 89.86549     66.1 8.838e+03 6.020e-09
 89.88522     64.7 9.332e+03 6.958e-09
 89.90495     60.6 1.113e+04 1.085e-08
 89.92468     54.0 1.454e+04 3.548e-08
 89.93943     51.9 1.551e+04 6.129e-08
 89.94766     51.2 1.600e+04 8.753e-08
 89.95260     52.4 1.567e+04 6.855e-08
 89.95912     51.8 1.644e+04 9.792e-08
 89.96898     51.1 1.715e+04 1.340e-07
 89.97885     50.0 1.781e+04 1.687e-07
 89.98871     44.9 1.992e+04 2.801e-07
 89.99858     35.0 1.998e+04 1.015e-06
 90.00845     28.5 1.876e+04 1.248e-06
 90.01660     27.5 1.836e+04 9.685e-07
 90.02154     27.7 1.813e+04 9.380e-07
 90.02818     25.6 1.916e+04 6.182e-07
 90.03804     18.5 2.371e+04 2.899e-07
 90.04791      4.6 2.844e+04 1.162e-07
 90.05777    -13.2 1.932e+04 5.913e-08
 90.06764    -18.1 1.441e+04 7.002e-08
 90.07751    -18.2 1.494e+04 9.994e-08
 90.08554    -17.3 1.538e+04 1.277e-07
 90.09047    -17.2 1.584e+04 1.377e-07
 90.10222    -15.6 1.646e+04 1.505e-07
 90.12200    -14.5 1.631e+04 1.103e-07
 90.14173    -15.6 1.725e+04 3.333e-08
 90.16146    -23.7 1.490e+04 1.358e-08
 90.18119    -32.4 1.247e+04 1.069e-08
 90.20093    -37.8 1.315e+04 1.892e-08
 90.21858    -39.6 1.485e+04 4.904e-08
 90.22845    -42.4 1.782e+04 1.076e-07
 90.24039    -43.2 1.843e+04 1.346e-07
 90.26012    -45.0 1.828e+04 1.237e-07
 90.27985    -47.3 1.682e+04 6.982e-08
 90.29958    -49.5 1.479e+04 3.660e-08
 90.31932    -51.1 1.319e+04 2.050e-08
 90.33905    -52.3 1.246e+04 1.347e-08
 90.35646    -53.2 1.172e+04 1.032e-08
 90.36633    -54.8 9.746e+03 6.282e-09
 90.37851    -54.9 9.607e+03 6.018e-09
 90.39824    -55.1 9.606e+03 6.138e-09
 90.41797    -56.8 1.035e+04 9.033e-09
 90.43770    -58.6 1.153e+04 1.590e-08
 90.45744    -59.8 1.245e+04 2.538e-08
 90.47717    -60.6 1.293e+04 3.196e-08
 90.49434    -61.6 1.301e+04 3.316e-08
 90.50420    -62.1 1.358e+04 4.664e-08
 90.51663    -63.1 1.321e+04 3.526e-08
 90.53636    -65.4 1.220e+04 1.986e-08
 90.55609    -68.8 1.118e+04 1.289e-08
 90.57583    -71.2 1.070e+04 1.114e-08
 90.59556    -72.6 1.052e+04 1.062e-08
 90.61529    -73.8 1.042e+04 1.038e-08
 90.63221    -74.8 1.032e+04 1.007e-08
 90.64208    -76.1 1.036e+04 1.016e-08
 90.65475    -77.0 1.026e+04 9.856e-09
 90.67448    -77.5 1.022e+04 9.760e-09
 90.69422    -77.8 1.019e+04 9.849e-09
 90.71395    -78.0 1.021e+04 1.030e-08
 90.73368    -78.2 1.022e+04 1.097e-08
 90.75341    -78.4 1.025e+04 1.185e-08
 90.77009    -78.4 1.032e+04 1.293e-08
 90.77996    -78.8 1.004e+04 1.161e-08
 90.79287    -78.9 1.011e+04 1.214e-08
 90.81260    -79.1 1.013e+04 1.229e-08
 90.83234    -79.3 1.008e+04 1.207e-08
 90.85207    -79.4 1.004e+04 1.177e-08
 90.88176    -79.5 1.005e+04 1.169e-08
 90.90816    -80.1 9.599e+03 9.170e-09
 90.92790    -80.6 8.331e+03 4.847e-09
 90.96079    -80.5 8.231e+03 4.296e-09
 91.00025    -80.4 8.188e+03 4.109e-09
 91.03971    -79.9 8.344e+03 4.524e-09
 91.07918    -79.2 8.952e+03 6.751e-09
 91.10868    -78.3 9.234e+03 8.444e-09
 91.12831    -77.8 9.735e+03 1.103e-08
 91.14804    -77.1 1.021e+04 1.385e-08
 91.16777    -76.7 1.060e+04 1.611e-08
 91.18372    -76.2 1.097e+04 1.869e-08
 91.20355    -75.8 1.046e+04 1.457e-08
 91.22706    -75.2 1.103e+04 1.812e-08
 91.24670    -74.6 1.106e+04 1.802e-08
 91.26643    -74.1 1.108e+04 1.714e-08
 91.28616    -73.5 1.109e+04 1.632e-08
 91.30589    -72.9 1.116e+04 1.594e-08
 91.32160    -72.3 1.126e+04 1.576e-08
 91.33147    -72.6 1.044e+04 1.179e-08
 91.34536    -72.0 1.046e+04 1.100e-08
 91.36509    -71.4 1.048e+04 1.076e-08
 91.38482    -70.6 1.051e+04 1.044e-08
 91.40455    -69.9 1.052e+04 1.037e-08
 91.42428    -69.1 1.064e+04 1.033e-08
 91.44401    -68.4 1.092e+04 1.109e-08
 91.45948    -67.8 1.114e+04 1.278e-08
 91.46934    -68.7 1.127e+04 1.287e-08
 91.48348    -68.1 1.172e+04 1.632e-08
 91.50321    -67.4 1.219e+04 2.033e-08
 91.52294    -66.8 1.264e+04 2.395e-08
 91.54267    -66.2 1.298e+04 2.702e-08
 91.56240    -65.7 1.321e+04 2.857e-08
 91.58214    -65.1 1.326e+04 2.852e-08
 91.59735    -64.5 1.307e+04 2.522e-08
 91.60722    -65.5 1.255e+04 1.761e-08
 91.62160    -64.9 1.208e+04 1.382e-08
 91.64133    -64.4 1.155e+04 1.048e-08
 91.66106    -63.8 1.111e+04 7.980e-09
 91.68079    -63.3 1.082e+04 6.309e-09
 91.69599    -62.8 1.065e+04 5.233e-09
 91.70586    -62.3 1.082e+04 6.328e-09
 91.72026    -61.7 1.067e+04 5.574e-09
 91.73523    -61.2 1.052e+04 5.071e-09
 91.74510    -61.7 1.044e+04 4.722e-09
 91.75972    -61.0 1.038e+04 4.600e-09
 91.77945    -60.4 1.034e+04 4.574e-09
 91.79918    -59.8 1.041e+04 4.932e-09
 91.81891    -59.2 1.053e+04 5.513e-09
 91.83865    -58.7 1.067e+04 6.136e-09
 91.85838    -58.1 1.082e+04 6.917e-09
 91.87311    -57.5 1.102e+04 7.872e-09
 91.88297    -57.5 1.096e+04 7.320e-09
 91.89784    -56.5 1.116e+04 8.294e-09
 91.91757    -56.0 1.132e+04 8.834e-09
 91.93730    -55.4 1.148e+04 9.449e-09
 91.95703    -54.9 1.161e+04 1.015e-08
 91.97677    -54.4 1.173e+04 1.103e-08
 91.99650    -53.9 1.179e+04 1.194e-08
 92.01098    -53.3 1.178e+04 1.257e-08
 92.02085    -52.7 1.159e+04 1.114e-08
 92.03596    -52.1 1.163e+04 1.165e-08
 92.05569    -51.5 1.163e+04 1.175e-08
 92.07542    -50.8 1.159e+04 1.149e-08
 92.09516    -50.2 1.153e+04 1.050e-08
 92.11489    -49.7 1.139e+04 9.003e-09
 92.13462    -49.1 1.115e+04 7.538e-09
 92.14886    -48.5 1.089e+04 6.561e-09
 92.15873    -47.8 1.088e+04 6.721e-09
 92.17408    -47.2 1.064e+04 6.038e-09
 92.19381    -46.5 1.045e+04 5.624e-09
 92.21354    -45.6 1.032e+04 5.403e-09
 92.23328    -44.7 1.020e+04 5.233e-09
 92.25301    -43.5 1.013e+04 5.104e-09
 92.27274    -42.4 1.010e+04 5.019e-09
 92.28674    -41.2 1.003e+04 4.927e-09
 92.29660    -40.9 1.005e+04 5.238e-09
 92.31220    -39.6 9.934e+03 5.030e-09
 92.33193    -38.3 9.830e+03 4.839e-09
 92.35167    -37.1 9.685e+03 4.668e-09
 92.37140    -35.9 9.556e+03 4.578e-09
 92.39113    -34.6 9.521e+03 4.564e-09
 92.41086    -33.6 9.484e+03 4.684e-09
 92.42462    -32.5 9.409e+03 4.736e-09
 92.43448    -32.8 9.412e+03 4.709e-09
 92.46029    -30.9 9.517e+03 5.211e-09
 92.49985    -28.5 9.673e+03 6.274e-09
 92.53931    -26.7 1.005e+04 7.990e-09
 92.56259    -25.6 1.036e+04 9.667e-09
 92.57236    -26.4 1.022e+04 8.765e-09
 92.58844    -26.7 1.068e+04 1.083e-08
 92.60818    -27.2 1.134e+04 1.402e-08
 92.62791    -28.9 1.217e+04 2.130e-08
 92.64764    -30.0 1.290e+04 3.111e-08
 92.66737    -30.7 1.355e+04 4.080e-08
 92.68710    -31.6 1.393e+04 4.485e-08
 92.70037    -33.4 1.397e+04 4.167e-08
 92.71024    -32.7 1.307e+04 3.063e-08
 92.72657    -34.8 1.275e+04 2.541e-08
 92.74630    -36.6 1.254e+04 2.426e-08
 92.76603    -37.6 1.247e+04 2.617e-08
 92.78576    -38.3 1.260e+04 2.838e-08
 92.80549    -39.0 1.291e+04 3.165e-08
 92.82522    -40.1 1.331e+04 3.521e-08
 92.83825    -41.4 1.369e+04 3.941e-08
 92.84811    -39.5 1.398e+04 4.527e-08
 92.86469    -40.7 1.411e+04 4.655e-08
 92.88442    -41.9 1.405e+04 4.436e-08
 92.90415    -43.0 1.361e+04 3.655e-08
 92.92388    -44.4 1.294e+04 2.829e-08
 92.94361    -45.4 1.218e+04 2.192e-08
 92.96334    -46.0 1.152e+04 1.722e-08
 92.97612    -46.2 1.109e+04 1.396e-08
 92.98599    -45.3 1.129e+04 1.458e-08
 93.00281    -45.5 1.105e+04 1.317e-08
 93.02254    -45.4 1.096e+04 1.262e-08
 93.04227    -45.3 1.098e+04 1.260e-08
 93.06200    -45.3 1.115e+04 1.310e-08
 93.08173    -46.6 1.220e+04 1.713e-08
 93.10146    -48.9 1.503e+04 3.158e-08
 93.11400    -50.4 1.747e+04 6.998e-08
 93.12387    -48.6 1.430e+04 3.871e-08
 93.14093    -50.2 1.689e+04 6.236e-08
 93.15568    -51.5 1.947e+04 1.266e-07
 93.16549    -52.5 2.089e+04 1.529e-07
 93.17536    -54.1 2.230e+04 2.050e-07
 93.18284    -56.9 2.300e+04 2.784e-07
 93.18777    -58.6 2.082e+04 1.175e-07
 93.19509    -62.5 2.107e+04 1.463e-07
 93.20496    -65.5 2.065e+04 1.733e-07
 93.21482    -68.7 2.034e+04 1.908e-07
 93.22469    -71.7 1.987e+04 1.911e-07
 93.23456    -74.6 1.921e+04 1.694e-07
 93.24442    -78.0 1.855e+04 1.228e-07
 93.25178    -82.7 1.765e+04 7.631e-08
 93.25671    -82.8 1.592e+04 6.458e-08
 93.26415    -87.3 1.481e+04 4.276e-08
 93.27402    -91.6 1.360e+04 3.099e-08
 93.28388    -94.8 1.295e+04 2.664e-08
 93.29375    -96.7 1.276e+04 2.572e-08
 93.30362    -98.1 1.276e+04 2.573e-08
 93.31846    -99.6 1.271e+04 2.579e-08
 93.33824   -101.2 1.272e+04 2.763e-08
 93.35798   -102.5 1.263e+04 2.781e-08
 93.37771   -103.5 1.220e+04 2.485e-08
 93.38975   -104.3 1.168e+04 1.953e-08
 93.39962   -103.8 1.159e+04 1.895e-08
 93.41717   -104.5 1.112e+04 1.449e-08
 93.43690   -105.2 1.063e+04 1.057e-08
 93.45663   -106.0 1.018e+04 7.728e-09
 93.47636   -106.6 9.828e+03 5.904e-09
 93.49610   -107.0 9.577e+03 4.784e-09
 93.51583   -107.1 9.408e+03 4.072e-09
 93.52763   -107.1 9.307e+03 3.543e-09
 93.53750   -106.8 9.389e+03 3.210e-09
 93.55529   -106.8 9.309e+03 2.799e-09
 93.57502   -106.6 9.310e+03 2.559e-09
 93.60472   -106.2 9.349e+03 2.399e-09
 93.64428   -105.1 9.464e+03 2.237e-09
 93.66570   -103.7 9.535e+03 2.171e-09
 93.68544   -103.2 9.485e+03 1.908e-09
 93.72320   -101.6 9.677e+03 1.935e-09
 93.76267    -99.7 9.797e+03 2.168e-09
 93.80213    -97.5 9.894e+03 2.649e-09
 93.84159    -95.2 9.995e+03 3.302e-09
 93.88106    -92.9 1.005e+04 4.082e-09
 93.91056    -91.3 9.993e+03 5.115e-09
 93.93019    -90.3 1.001e+04 5.936e-09
 93.94126    -89.0 1.012e+04 6.954e-09
 93.95113    -89.3 1.123e+04 2.915e-09
 93.96965    -88.7 1.123e+04 3.615e-09
 93.98938    -87.9 1.127e+04 4.612e-09
 94.00912    -87.2 1.128e+04 5.698e-09
 94.03881    -86.4 1.138e+04 7.278e-09
 94.07837    -84.9 1.158e+04 1.135e-08
 94.11784    -83.9 1.166e+04 1.294e-08
 94.15730    -83.1 1.157e+04 1.289e-08
 94.17834    -82.3 1.111e+04 1.122e-08
 94.18811    -82.1 1.106e+04 1.158e-08
 94.20643    -81.6 1.085e+04 1.073e-08
 94.21702    -81.1 1.068e+04 1.006e-08
 94.22688    -81.9 1.050e+04 7.984e-09
 94.24590    -81.5 1.048e+04 7.969e-09
 94.26563    -81.5 1.057e+04 8.295e-09
 94.28536    -82.0 1.109e+04 1.009e-08
 94.30509    -82.8 1.185e+04 1.438e-08
 94.32482    -83.4 1.251e+04 2.087e-08
 94.34455    -83.6 1.290e+04 2.756e-08
 94.35489    -83.8 1.297e+04 3.093e-08
 94.36476    -85.1 1.317e+04 3.788e-08
 94.38402    -84.6 1.265e+04 3.306e-08
 94.40375    -83.9 1.184e+04 2.315e-08
 94.42348    -83.6 1.100e+04 1.497e-08
 94.44321    -83.5 1.023e+04 9.929e-09
 94.46294    -83.4 9.604e+03 7.140e-09
 94.48267    -83.2 9.152e+03 5.582e-09
 94.49277    -82.7 8.808e+03 4.577e-09
 94.50264    -83.5 8.652e+03 3.905e-09
 94.52214    -82.6 8.498e+03 3.530e-09
 94.55183    -81.8 8.397e+03 3.333e-09
 94.59139    -80.2 8.118e+03 2.922e-09
 94.63086    -77.7 7.754e+03 2.450e-09
 94.67032    -75.3 7.587e+03 2.203e-09
 94.70978    -72.8 7.517e+03 2.042e-09
 94.74899    -70.4 7.452e+03 1.900e-09
 94.76872    -71.0 7.359e+03 1.349e-09
 94.78871    -68.5 7.342e+03 1.274e-09
 94.82817    -65.9 7.341e+03 1.260e-09
 94.86763    -63.4 7.380e+03 1.273e-09
 94.90710    -60.9 7.464e+03 1.334e-09
 94.94656    -58.4 7.550e+03 1.392e-09
 94.98602    -55.9 7.566e+03 1.419e-09
 95.02474    -53.4 7.555e+03 1.346e-09
 95.04447    -53.6 7.794e+03 1.470e-09
 95.06495    -51.1 7.873e+03 1.446e-09
 95.10441    -48.5 7.900e+03 1.412e-09
 95.14388    -45.8 7.925e+03 1.404e-09
 95.18334    -43.5 8.076e+03 1.423e-09
 95.22280    -41.7 8.535e+03 1.826e-09
 95.26227    -40.0 8.968e+03 3.557e-09
 95.30050    -38.1 9.844e+03 7.034e-09
 95.32023    -38.3 1.006e+04 7.430e-09
 95.34119    -36.6 1.098e+04 1.254e-08
 95.38065    -35.3 1.184e+04 1.806e-08
 95.41015    -34.3 1.238e+04 2.203e-08
 95.42979    -34.0 1.254e+04 2.299e-08
 95.44804    -33.4 1.274e+04 2.383e-08
 95.45791    -33.9 1.255e+04 2.112e-08
 95.46925    -33.8 1.274e+04 2.072e-08
 95.48898    -34.2 1.314e+04 2.201e-08
 95.50871    -35.2 1.356e+04 2.869e-08
 95.52845    -35.7 1.400e+04 4.307e-08
 95.54818    -35.2 1.457e+04 6.117e-08
 95.56791    -34.5 1.483e+04 6.912e-08
 95.58592    -33.8 1.454e+04 5.692e-08
 95.59579    -34.3 1.362e+04 3.399e-08
 95.60737    -33.9 1.313e+04 2.404e-08
 95.62710    -33.7 1.271e+04 1.580e-08
 95.64684    -33.4 1.245e+04 1.061e-08
 95.66657    -33.3 1.219e+04 7.847e-09
 95.69626    -32.8 1.199e+04 6.034e-09
 95.73582    -30.5 1.177e+04 4.399e-09
 95.77529    -28.7 1.171e+04 3.515e-09
 95.81475    -26.9 1.170e+04 2.480e-09
 95.85200    -25.1 1.158e+04 1.436e-09
 95.87174    -24.1 1.171e+04 2.348e-09
 95.89368    -22.4 1.175e+04 1.156e-09
 95.93314    -21.0 1.161e+04 7.296e-10
 95.97260    -19.2 1.180e+04 5.972e-10
 96.01206    -17.0 1.199e+04 5.341e-10
 96.05153    -14.9 1.224e+04 5.149e-10
 96.09099    -13.2 1.237e+04 6.444e-10
 96.12776    -11.6 1.195e+04 1.244e-09
 96.14749    -11.8 1.227e+04 9.271e-10
 96.16992     -9.4 1.194e+04 2.063e-09
 96.20938     -6.3 1.229e+04 4.362e-09
 96.24884     -4.5 1.284e+04 5.652e-09
 96.28831     -3.7 1.333e+04 5.927e-09
 96.31781     -3.3 1.338e+04 1.051e-08
 96.33744     -2.8 1.323e+04 1.131e-08
 96.36714     -1.5 1.261e+04 8.848e-09
 96.40351      0.2 1.238e+04 7.776e-09
 96.42315     -0.3 1.297e+04 1.507e-08
 96.43610      0.6 1.296e+04 1.073e-08
 96.45583      1.1 1.279e+04 7.888e-09
 96.47556      1.3 1.266e+04 5.831e-09
 96.49529      1.5 1.228e+04 5.311e-09
 96.51502      2.0 1.223e+04 4.981e-09
 96.53476      2.6 1.219e+04 5.246e-09
 96.55106      3.6 1.206e+04 5.182e-09
 96.56093      2.5 1.243e+04 7.365e-09
 96.57422      3.5 1.227e+04 7.233e-09
 96.59395      4.9 1.218e+04 6.696e-09
 96.61368      6.1 1.203e+04 6.340e-09
 96.63341      7.9 1.171e+04 5.677e-09
 96.65063      8.7 1.181e+04 5.585e-09
 96.66050      8.7 1.184e+04 5.948e-09
 96.67288     10.9 1.148e+04 5.104e-09
 96.68894     11.4 1.160e+04 4.881e-09
 96.69880     10.6 1.147e+04 3.965e-09
 96.72230     13.0 1.106e+04 2.932e-09
 96.76186     15.7 1.093e+04 2.597e-09
 96.80133     18.5 1.078e+04 2.562e-09
 96.84079     21.3 1.075e+04 2.662e-09
 96.88025     24.0 1.074e+04 2.753e-09
 96.91972     26.5 1.071e+04 2.730e-09
 96.95502     28.8 1.064e+04 2.658e-09
 96.97475     27.9 1.066e+04 2.485e-09
 96.99864     30.2 1.059e+04 2.496e-09
 97.03811     32.4 1.053e+04 2.544e-09
 97.07757     34.7 1.054e+04 2.607e-09
 97.11703     36.9 1.057e+04 2.582e-09
 97.15649     39.2 1.064e+04 2.423e-09
 97.19596     41.6 1.063e+04 2.180e-09
 97.23077     44.0 1.071e+04 2.017e-09
 97.25051     43.4 1.093e+04 2.745e-09
 97.26492     45.5 1.095e+04 2.750e-09
 97.28455     46.5 1.107e+04 2.881e-09
 97.30429     47.7 1.110e+04 3.030e-09
 97.32402     48.8 1.117e+04 3.291e-09
 97.34375     50.2 1.119e+04 3.499e-09
 97.36348     51.4 1.125e+04 3.741e-09
 97.37832     52.6 1.129e+04 3.939e-09
 97.38819     52.5 1.138e+04 4.237e-09
 97.40294     53.2 1.144e+04 4.332e-09
 97.42268     54.8 1.151e+04 4.383e-09
 97.44241     55.5 1.158e+04 4.483e-09
 97.47210     57.7 1.167e+04 4.423e-09
 97.50170     59.4 1.180e+04 4.593e-09
 97.51620     59.9 1.184e+04 4.752e-09
 97.52616     59.5 1.176e+04 4.808e-09
 97.55113     61.5 1.181e+04 4.851e-09
 97.59059     63.5 1.182e+04 4.664e-09
 97.63005     65.4 1.180e+04 4.155e-09
 97.66952     67.4 1.180e+04 3.688e-09
 97.70898     69.6 1.183e+04 3.757e-09
 97.74844     71.8 1.192e+04 4.076e-09
 97.78228     73.9 1.211e+04 4.732e-09
 97.80201     73.5 1.238e+04 6.372e-09
 97.82737     75.4 1.256e+04 6.861e-09
 97.86683     77.0 1.268e+04 6.799e-09
 97.90629     78.5 1.273e+04 6.797e-09
 97.94576     80.1 1.281e+04 7.015e-09
 97.98522     81.8 1.300e+04 7.675e-09
 98.02468     83.7 1.310e+04 8.452e-09
 98.05804     85.7 1.314e+04 8.555e-09
 98.07767     85.5 1.377e+04 1.401e-08
 98.09355     86.3 1.386e+04 1.399e-08
 98.11328     87.2 1.395e+04 1.384e-08
 98.13301     88.1 1.394e+04 1.395e-08
 98.15274     89.0 1.384e+04 1.400e-08
 98.17247     90.1 1.371e+04 1.398e-08
 98.19221     91.1 1.357e+04 1.401e-08
 98.20558     92.1 1.342e+04 1.408e-08
 98.21545     91.5 1.367e+04 1.679e-08
 98.23167     92.6 1.349e+04 1.630e-08
 98.25140     93.4 1.329e+04 1.573e-08
 98.27113     94.3 1.309e+04 1.515e-08
 98.29086     95.1 1.282e+04 1.390e-08
 98.31060     95.9 1.252e+04 1.222e-08
 98.33033     96.8 1.221e+04 1.052e-08
 98.34346     97.5 1.192e+04 9.026e-09
 98.35333     97.2 1.186e+04 8.385e-09
 98.36979     98.1 1.166e+04 7.508e-09
 98.38952     99.0 1.148e+04 6.777e-09
 98.40925     99.9 1.133e+04 6.147e-09
 98.42898    100.7 1.121e+04 5.623e-09
 98.44872    101.5 1.109e+04 5.218e-09
 98.46845    102.3 1.095e+04 4.923e-09
 98.48134    103.1 1.080e+04 4.861e-09
 98.49120    103.1 1.096e+04 4.935e-09
 98.50791    103.9 1.088e+04 4.944e-09
 98.52764    104.6 1.087e+04 4.981e-09
 98.54737    105.3 1.085e+04 5.131e-09
 98.56711    105.8 1.089e+04 5.412e-09
 98.58684    106.3 1.094e+04 5.915e-09
 98.60657    106.7 1.100e+04 6.621e-09
 98.61921    107.0 1.108e+04 7.508e-09
 98.62908    106.9 1.126e+04 8.186e-09
 98.64603    107.3 1.134e+04 8.952e-09
 98.66576    107.6 1.145e+04 9.615e-09
 98.68550    107.7 1.154e+04 1.015e-08
 98.70523    107.6 1.170e+04 1.004e-08
 98.72496    107.5 1.170e+04 9.923e-09
 98.74469    107.2 1.168e+04 9.689e-09
 98.77438    107.1 1.149e+04 8.838e-09
 98.81395    106.7 1.132e+04 8.360e-09
 98.85341    106.8 1.099e+04 7.019e-09
 98.88530    107.0 1.059e+04 5.477e-09
 98.90503    107.9 1.054e+04 4.605e-09
 98.93233    108.0 1.022e+04 3.491e-09
 98.97180    108.4 9.941e+03 2.666e-09
 99.01126    109.0 9.633e+03 2.176e-09
 99.05072    109.5 9.549e+03 1.961e-09
 99.09019    110.1 9.549e+03 1.988e-09
 99.12322    110.7 9.542e+03 2.062e-09
 99.14295    112.1 9.555e+03 2.108e-09
 99.16105    112.8 9.558e+03 2.206e-09
 99.18078    113.4 9.845e+03 2.833e-09
 99.20858    114.2 9.926e+03 2.966e-09
 99.24804    115.2 1.006e+04 3.145e-09
 99.28750    116.6 1.029e+04 3.413e-09
 99.30870    117.0 1.034e+04 3.372e-09
 99.31847    117.1 1.041e+04 3.547e-09
 99.33664    117.4 1.046e+04 3.621e-09
 99.35637    117.9 1.052e+04 3.623e-09
 99.37610    118.3 1.051e+04 3.605e-09
 99.39583    118.8 1.052e+04 3.559e-09
 99.41556    119.1 1.052e+04 3.512e-09
 99.43529    119.6 1.053e+04 3.475e-09
 99.44648    120.1 1.055e+04 3.461e-09
 99.45634    120.6 1.078e+04 4.061e-09
 99.47476    121.0 1.080e+04 3.898e-09
 99.49449    121.6 1.084e+04 3.741e-09
 99.51422    122.1 1.086e+04 3.581e-09
 99.53395    122.6 1.085e+04 3.434e-09
 99.56365    123.5 1.075e+04 3.135e-09
 99.60321    124.9 1.050e+04 2.717e-09
 99.64267    126.5 1.021e+04 2.407e-09
 99.68213    128.6 1.006e+04 2.335e-09
 99.71256    131.2 1.014e+04 2.409e-09
 99.73229    131.4 1.006e+04 2.430e-09
 99.76106    133.5 1.009e+04 2.775e-09
 99.79056    134.7 1.016e+04 3.300e-09
 99.81019    136.0 1.028e+04 3.999e-09
 99.82993    137.3 1.046e+04 4.808e-09
 99.84966    138.5 1.070e+04 5.718e-09
 99.86011    139.6 1.102e+04 6.799e-09
 99.86997    139.2 1.135e+04 9.220e-09
 99.88912    140.0 1.189e+04 1.218e-08
 99.90885    140.4 1.242e+04 1.602e-08
 99.92858    140.6 1.288e+04 2.055e-08
 99.94831    140.7 1.322e+04 2.532e-08
 99.96805    140.7 1.344e+04 2.965e-08
 99.98778    140.7 1.357e+04 3.336e-08
 99.99798    140.7 1.364e+04 3.663e-08
100.00785    139.4 1.368e+04 3.894e-08
