# Columns:
#   distance along LOS (in CHIMPs)
#   peculiar velocity  (in km/s)
#   temperature (K)
#   HI number density
# pos=(25.4186,104.221,146.189), angles=(1.49853,0.0963727)
  0.00651    -34.4 1.065e+04 9.198e-09
  0.03047    -35.0 1.041e+04 7.661e-09
  0.05024    -34.6 1.025e+04 7.695e-09
  0.07223    -34.6 9.885e+03 5.713e-09
  0.10164    -34.3 9.578e+03 4.514e-09
  0.12122    -34.2 9.497e+03 4.275e-09
  0.13133    -33.5 9.075e+03 3.047e-09
  0.15110    -32.9 9.268e+03 3.990e-09
  0.19027    -31.7 8.933e+03 3.099e-09
  0.22962    -30.2 8.732e+03 2.468e-09
  0.26897    -28.5 8.609e+03 2.034e-09
  0.30831    -26.6 8.523e+03 1.695e-09
  0.34766    -24.6 8.505e+03 1.480e-09
  0.38701    -22.7 8.520e+03 1.411e-09
  0.42636    -20.8 8.628e+03 1.412e-09
  0.45049    -19.1 8.856e+03 1.599e-09
  0.47016    -18.6 8.692e+03 1.422e-09
  0.50505    -17.0 8.844e+03 1.723e-09
  0.54440    -15.5 9.053e+03 2.089e-09
  0.58375    -14.0 9.241e+03 2.430e-09
  0.62309    -12.6 9.410e+03 2.692e-09
  0.65767    -11.3 9.568e+03 2.890e-09
  0.67735    -11.1 9.651e+03 3.311e-09
  0.70179     -9.7 9.815e+03 3.532e-09
  0.74114     -8.2 9.997e+03 3.729e-09
  0.78048     -6.7 1.018e+04 3.873e-09
  0.81983     -5.2 1.038e+04 3.986e-09
  0.85073     -3.7 1.060e+04 4.011e-09
  0.87041     -4.2 1.058e+04 4.216e-09
  0.89852     -3.1 1.088e+04 4.341e-09
  0.93787     -2.5 1.120e+04 5.235e-09
  0.97722     -2.3 1.155e+04 6.790e-09
  1.01657     -2.1 1.191e+04 8.720e-09
  1.05591     -2.0 1.203e+04 9.097e-09
  1.09526     -2.1 1.199e+04 7.593e-09
  1.13461     -3.1 1.211e+04 5.878e-09
  1.17396     -4.3 1.198e+04 4.646e-09
  1.20337     -4.5 1.186e+04 3.399e-09
  1.21324     -4.5 1.186e+04 3.231e-09
  1.22317     -4.4 1.192e+04 3.667e-09
  1.25098     -4.5 1.182e+04 2.180e-09
  1.27065     -3.7 1.160e+04 1.792e-09
  1.29200     -3.0 1.161e+04 1.047e-09
  1.33134     -2.2 1.149e+04 7.938e-10
  1.37069     -1.0 1.145e+04 7.640e-10
  1.41004     -0.3 1.133e+04 9.485e-10
  1.44939      0.2 1.125e+04 1.836e-09
  1.47068      0.5 1.131e+04 3.188e-09
  1.47807      0.9 1.129e+04 2.872e-09
  1.48620      0.8 1.127e+04 2.885e-09
  1.49838      0.3 1.139e+04 3.478e-09
  1.51805     -0.1 1.119e+04 5.745e-09
  1.53772      0.0 1.131e+04 6.507e-09
  1.55740     -0.6 1.131e+04 6.320e-09
  1.57707     -1.5 1.128e+04 4.853e-09
  1.59674     -2.6 1.087e+04 4.066e-09
  1.61642     -3.1 1.052e+04 3.415e-09
  1.64603     -3.4 1.021e+04 2.578e-09
  1.67090     -2.5 9.728e+03 1.604e-09
  1.69057     -1.2 9.836e+03 1.852e-09
  1.72482     -0.2 9.586e+03 1.055e-09
  1.74951      0.8 9.411e+03 7.719e-10
  1.76919      0.6 9.378e+03 7.855e-10
  1.80351      2.1 9.217e+03 7.222e-10
  1.84286      3.8 9.180e+03 7.155e-10
  1.88221      5.1 9.142e+03 8.528e-10
  1.92155      6.1 9.216e+03 1.198e-09
  1.96090      7.0 9.280e+03 1.965e-09
  2.00025      8.2 9.353e+03 2.738e-09
  2.03960      9.1 9.289e+03 2.926e-09
  2.07114     10.1 9.245e+03 2.346e-09
  2.09082     10.1 9.249e+03 2.341e-09
  2.11829     10.4 9.146e+03 1.985e-09
  2.15764     11.0 8.992e+03 1.716e-09
  2.19699     11.9 8.854e+03 1.438e-09
  2.23633     13.0 8.713e+03 1.180e-09
  2.27568     14.2 8.678e+03 9.649e-10
  2.31503     15.6 8.702e+03 8.875e-10
  2.35438     16.9 8.749e+03 9.145e-10
  2.39372     18.4 8.770e+03 9.880e-10
  2.43307     20.2 8.765e+03 1.046e-09
  2.47139     21.9 8.727e+03 1.067e-09
  2.49106     21.7 8.563e+03 8.872e-10
  2.51176     23.6 8.524e+03 8.800e-10
  2.55111     25.6 8.494e+03 8.822e-10
  2.59046     27.5 8.462e+03 9.074e-10
  2.62981     29.3 8.497e+03 9.916e-10
  2.66915     31.1 8.599e+03 1.200e-09
  2.70850     33.1 8.754e+03 1.480e-09
  2.74785     35.3 8.820e+03 1.748e-09
  2.78720     37.4 8.929e+03 1.867e-09
  2.82168     39.5 9.015e+03 1.916e-09
  2.84135     39.6 8.948e+03 2.109e-09
  2.86589     41.6 8.993e+03 2.054e-09
  2.89131     43.7 9.171e+03 2.214e-09
  2.91098     43.5 8.916e+03 1.455e-09
  2.94458     44.7 9.394e+03 2.064e-09
  2.97400     44.6 9.735e+03 3.040e-09
  2.99357     44.6 1.002e+04 4.641e-09
  3.01325     44.6 1.043e+04 7.081e-09
  3.03292     44.5 1.092e+04 9.849e-09
  3.05259     44.3 1.130e+04 1.093e-08
  3.07227     43.9 1.130e+04 1.059e-08
  3.09124     43.7 1.121e+04 9.238e-09
  3.10107     44.1 1.121e+04 9.196e-09
  3.10428     44.2 1.115e+04 7.551e-09
  3.11412     44.5 1.104e+04 7.475e-09
  3.13129     44.6 1.099e+04 6.143e-09
  3.15096     44.9 1.099e+04 5.108e-09
  3.17064     45.2 1.101e+04 4.407e-09
  3.19031     45.8 1.104e+04 4.323e-09
  3.20998     46.2 1.112e+04 4.437e-09
  3.22966     46.5 1.129e+04 5.013e-09
  3.24933     46.7 1.139e+04 6.304e-09
  3.26900     47.2 1.147e+04 8.181e-09
  3.28868     47.9 1.152e+04 1.027e-08
  3.30120     48.5 1.153e+04 1.063e-08
  3.31103     48.9 1.172e+04 1.178e-08
  3.32803     49.5 1.165e+04 1.108e-08
  3.34770     49.6 1.152e+04 9.614e-09
  3.36737     49.5 1.139e+04 8.150e-09
  3.38705     49.7 1.157e+04 9.438e-09
  3.40672     48.6 1.169e+04 9.918e-09
  3.42639     46.9 1.205e+04 1.242e-08
  3.44607     45.5 1.240e+04 1.740e-08
  3.46574     43.0 1.358e+04 2.889e-08
  3.48045     39.9 1.507e+04 4.103e-08
  3.49024     34.1 1.807e+04 8.292e-08
  3.50007     28.8 1.904e+04 2.196e-07
  3.50614     27.5 1.830e+04 4.390e-07
  3.50985     28.5 1.815e+04 2.947e-07
  3.51362     28.3 1.814e+04 3.517e-07
  3.51975     27.9 1.809e+04 3.621e-07
  3.52958     27.5 1.808e+04 3.042e-07
  3.53942     26.4 1.832e+04 1.863e-07
  3.54926     24.6 1.835e+04 1.143e-07
  3.56406     20.7 1.794e+04 5.426e-08
  3.58378     13.4 1.558e+04 2.375e-08
  3.60346      9.8 1.442e+04 1.972e-08
  3.62313      8.1 1.398e+04 2.261e-08
  3.64036      8.2 1.413e+04 2.665e-08
  3.65020      8.7 1.404e+04 2.563e-08
  3.66248      9.3 1.386e+04 2.358e-08
  3.68215      9.5 1.298e+04 1.507e-08
  3.70144      7.4 1.258e+04 9.772e-09
  3.71128      8.3 2.052e+04 2.850e-08
  3.72150      5.2 1.775e+04 2.214e-08
  3.74117      3.3 1.572e+04 2.113e-08
  3.76085      3.1 1.503e+04 2.329e-08
  3.78052      3.3 1.496e+04 3.024e-08
  3.80019      4.0 1.525e+04 4.088e-08
  3.81987      4.1 1.603e+04 5.718e-08
  3.83954      2.7 1.744e+04 8.968e-08
  3.85425      0.4 1.823e+04 1.670e-07
  3.86404     -0.5 1.842e+04 2.138e-07
  3.87387     -1.4 1.849e+04 2.879e-07
  3.88371     -2.2 1.869e+04 3.504e-07
  3.89355     -3.1 1.884e+04 3.923e-07
  3.90338     -3.8 1.876e+04 3.683e-07
  3.91130     -4.1 1.871e+04 2.897e-07
  3.91622     -5.1 1.884e+04 3.118e-07
  3.92306     -4.6 1.875e+04 2.358e-07
  3.93786     -5.9 1.812e+04 1.434e-07
  3.95758     -7.7 1.699e+04 8.009e-08
  3.97726     -9.0 1.594e+04 5.511e-08
  3.99693     -9.8 1.522e+04 4.389e-08
  4.01660    -10.3 1.465e+04 3.942e-08
  4.03628    -10.3 1.423e+04 3.667e-08
  4.05595    -10.2 1.387e+04 3.420e-08
  4.07562     -9.9 1.353e+04 3.111e-08
  4.09530     -9.4 1.321e+04 2.738e-08
  4.11152     -9.3 1.292e+04 2.414e-08
  4.12136     -8.7 1.238e+04 1.650e-08
  4.13465     -8.8 1.223e+04 1.507e-08
  4.15432     -8.8 1.221e+04 1.473e-08
  4.17399     -8.7 1.240e+04 1.524e-08
  4.18628     -9.0 1.268e+04 1.604e-08
  4.19612     -9.1 1.257e+04 1.401e-08
  4.21334     -9.7 1.278e+04 1.536e-08
  4.23301    -10.2 1.284e+04 1.707e-08
  4.25269    -10.3 1.291e+04 1.854e-08
  4.27236    -10.3 1.294e+04 1.959e-08
  4.29204    -10.1 1.296e+04 2.041e-08
  4.31165     -9.8 1.302e+04 2.128e-08
  4.33132    -10.4 1.271e+04 1.563e-08
  4.35106    -10.0 1.282e+04 1.656e-08
  4.37073     -9.5 1.293e+04 1.750e-08
  4.39040     -9.0 1.316e+04 1.871e-08
  4.41008     -8.6 1.329e+04 1.932e-08
  4.42975     -8.2 1.336e+04 1.962e-08
  4.44940     -7.9 1.325e+04 1.900e-08
  4.46908     -7.7 1.250e+04 1.257e-08
  4.48877     -7.2 1.222e+04 1.075e-08
  4.50845     -6.7 1.197e+04 8.956e-09
  4.52161     -6.2 1.178e+04 7.398e-09
  4.53144     -6.9 1.107e+04 5.025e-09
  4.54779     -6.2 1.103e+04 4.369e-09
  4.56747     -5.6 1.099e+04 3.708e-09
  4.58714     -5.3 1.098e+04 3.219e-09
  4.60681     -5.0 1.091e+04 3.028e-09
  4.62649     -4.3 1.096e+04 3.017e-09
  4.64616     -3.9 1.094e+04 3.141e-09
  4.66583     -3.1 1.097e+04 3.449e-09
  4.68551     -2.7 1.098e+04 3.736e-09
  4.70518     -2.0 1.120e+04 4.196e-09
  4.72173     -1.7 1.143e+04 4.477e-09
  4.72907     -1.6 1.086e+04 3.251e-09
  4.73220     -1.6 1.072e+04 3.047e-09
  4.74453     -1.0 1.072e+04 3.054e-09
  4.76420     -0.9 1.081e+04 3.015e-09
  4.78388     -1.0 1.095e+04 2.991e-09
  4.80355     -1.5 1.113e+04 3.322e-09
  4.82322     -2.2 1.152e+04 4.439e-09
  4.84290     -3.4 1.195e+04 6.666e-09
  4.86257     -3.8 1.237e+04 1.106e-08
  4.88224     -4.2 1.258e+04 1.482e-08
  4.90192     -4.4 1.246e+04 1.692e-08
  4.92159     -4.3 1.216e+04 1.542e-08
  4.93169     -4.4 1.177e+04 1.208e-08
  4.94153     -3.6 1.199e+04 1.348e-08
  4.96094     -3.4 1.165e+04 1.131e-08
  4.98061     -3.2 1.116e+04 8.293e-09
  4.99532     -2.8 1.077e+04 5.703e-09
  5.00516     -2.1 1.087e+04 6.401e-09
  5.01996     -2.0 1.047e+04 4.193e-09
  5.03963     -1.9 1.025e+04 2.959e-09
  5.05931     -1.9 1.007e+04 2.216e-09
  5.07898     -1.9 9.918e+03 2.102e-09
  5.10859     -0.1 9.769e+03 2.029e-09
  5.14803      1.0 9.451e+03 1.933e-09
  5.18738      2.3 9.315e+03 1.934e-09
  5.22673      3.5 9.173e+03 1.693e-09
  5.26608      4.8 8.983e+03 1.479e-09
  5.30542      6.2 8.855e+03 1.348e-09
  5.33213      7.6 8.757e+03 1.309e-09
  5.35180      7.6 9.092e+03 1.649e-09
  5.38412      9.5 8.858e+03 1.866e-09
  5.42347     11.9 8.947e+03 1.892e-09
  5.46281     13.8 9.291e+03 1.852e-09
  5.50216     15.4 9.475e+03 2.298e-09
  5.53150     17.1 9.511e+03 2.326e-09
  5.54182     17.9 9.571e+03 2.465e-09
  5.55173     17.6 1.001e+04 3.697e-09
  5.57082     18.0 1.031e+04 5.003e-09
  5.59050     16.8 1.152e+04 8.328e-09
  5.61017     11.1 1.544e+04 2.563e-08
  5.62488      8.1 1.562e+04 5.780e-08
  5.63466      5.9 1.666e+04 7.633e-08
  5.64186      5.2 1.722e+04 1.577e-07
  5.64678      4.8 1.798e+04 2.544e-07
  5.65434      4.3 1.833e+04 3.259e-07
  5.66418      2.5 1.855e+04 3.632e-07
  5.67271      0.3 1.923e+04 2.418e-07
  5.67762     -0.7 1.956e+04 2.795e-07
  5.68385     -5.6 1.899e+04 1.551e-07
  5.69369     -9.9 1.732e+04 9.608e-08
  5.70352    -13.5 1.520e+04 6.123e-08
  5.71336    -14.7 1.431e+04 4.718e-08
  5.72816    -15.1 1.332e+04 3.216e-08
  5.74202    -16.7 1.192e+04 1.921e-08
  5.75185    -16.9 1.230e+04 2.150e-08
  5.76756    -18.6 1.094e+04 1.234e-08
  5.78723    -19.7 1.009e+04 8.432e-09
  5.80436    -20.2 9.622e+03 6.499e-09
  5.81420    -21.5 9.538e+03 6.259e-09
  5.82658    -21.6 9.239e+03 5.261e-09
  5.84625    -21.5 9.063e+03 4.783e-09
  5.86593    -21.2 8.983e+03 4.694e-09
  5.88560    -20.9 9.001e+03 4.656e-09
  5.90528    -20.5 9.088e+03 4.802e-09
  5.92495    -20.1 9.221e+03 4.978e-09
  5.94214    -19.9 9.336e+03 5.106e-09
  5.95198    -19.7 9.408e+03 5.497e-09
  5.96430    -19.5 9.537e+03 5.699e-09
  5.98397    -19.4 9.658e+03 5.837e-09
  6.00364    -19.2 9.743e+03 5.882e-09
  6.02332    -18.9 9.782e+03 5.863e-09
  6.04299    -18.6 9.904e+03 5.425e-09
  6.06266    -18.5 1.002e+04 4.689e-09
  6.07732    -18.8 1.010e+04 4.111e-09
  6.08716    -19.5 1.013e+04 4.265e-09
  6.10201    -20.0 1.016e+04 4.077e-09
  6.12169    -20.4 1.034e+04 4.082e-09
  6.14136    -21.0 1.061e+04 4.734e-09
  6.15210    -21.3 1.084e+04 5.847e-09
  6.16194    -20.9 1.092e+04 6.349e-09
  6.18071    -21.2 1.124e+04 7.475e-09
  6.20038    -21.8 1.166e+04 9.043e-09
  6.22005    -22.8 1.216e+04 1.116e-08
  6.23973    -24.0 1.266e+04 1.386e-08
  6.25940    -25.1 1.314e+04 1.756e-08
  6.27907    -26.1 1.356e+04 2.055e-08
  6.29875    -27.3 1.367e+04 2.094e-08
  6.31842    -28.5 1.363e+04 1.771e-08
  6.33810    -29.7 1.344e+04 1.370e-08
  6.35028    -30.5 1.329e+04 1.177e-08
  6.35457    -30.9 1.329e+04 1.193e-08
  6.36206    -30.1 1.331e+04 1.202e-08
  6.37744    -30.4 1.325e+04 1.138e-08
  6.39712    -30.6 1.314e+04 1.071e-08
  6.41679    -30.7 1.294e+04 9.651e-09
  6.43646    -30.7 1.271e+04 8.160e-09
  6.45614    -30.6 1.249e+04 6.609e-09
  6.47581    -30.5 1.226e+04 5.372e-09
  6.49548    -29.9 1.205e+04 4.441e-09
  6.51516    -29.2 1.191e+04 3.688e-09
  6.53483    -28.5 1.183e+04 3.103e-09
  6.55244    -27.6 1.177e+04 2.663e-09
  6.57221    -27.1 1.169e+04 2.628e-09
  6.60377    -25.4 1.133e+04 2.133e-09
  6.64311    -23.8 1.115e+04 1.864e-09
  6.68258    -21.7 1.103e+04 1.738e-09
  6.72193    -19.6 1.096e+04 1.700e-09
  6.76127    -17.5 1.091e+04 1.840e-09
  6.80062    -15.5 1.091e+04 2.203e-09
  6.83997    -13.6 1.102e+04 2.776e-09
  6.87932    -12.0 1.134e+04 3.265e-09
  6.90873    -10.2 1.141e+04 2.778e-09
  6.92831    -10.1 1.143e+04 2.868e-09
  6.94798     -9.1 1.152e+04 3.131e-09
  6.96243     -8.9 1.156e+04 3.198e-09
  6.97236     -8.4 1.145e+04 3.069e-09
  6.99736     -6.9 1.161e+04 3.435e-09
  7.02677     -5.7 1.176e+04 3.447e-09
  7.04635     -5.3 1.177e+04 3.313e-09
  7.06602     -3.9 1.197e+04 2.814e-09
  7.08569     -3.5 1.190e+04 2.624e-09
  7.10537     -2.3 1.206e+04 2.156e-09
  7.12504     -2.0 1.203e+04 2.092e-09
  7.14472     -1.3 1.218e+04 2.011e-09
  7.15933     -1.5 1.218e+04 2.521e-09
  7.16732     -1.3 1.226e+04 2.979e-09
  7.17239     -0.5 1.227e+04 2.927e-09
  7.18406     -0.3 1.237e+04 4.531e-09
  7.20374      0.1 1.266e+04 6.799e-09
  7.22341      0.4 1.294e+04 1.045e-08
  7.24308      0.8 1.315e+04 1.515e-08
  7.26276      1.3 1.329e+04 1.876e-08
  7.28243      1.4 1.332e+04 1.935e-08
  7.30210      1.3 1.315e+04 1.708e-08
  7.32178      0.8 1.286e+04 1.449e-08
  7.34145      0.6 1.263e+04 1.289e-08
  7.36113      0.4 1.244e+04 1.108e-08
  7.37251      0.1 1.213e+04 9.451e-09
  7.38235      0.9 1.228e+04 1.076e-08
  7.40047      0.9 1.203e+04 9.112e-09
  7.42015      0.9 1.175e+04 7.300e-09
  7.43229      0.9 1.149e+04 5.933e-09
  7.44212      0.5 1.135e+04 5.363e-09
  7.45949      0.7 1.120e+04 4.604e-09
  7.47917      0.8 1.104e+04 4.100e-09
  7.49884      0.8 1.083e+04 3.748e-09
  7.51852      1.2 1.059e+04 3.555e-09
  7.53819      1.8 1.043e+04 3.343e-09
  7.55786      2.3 1.039e+04 2.800e-09
  7.58747      3.2 1.034e+04 2.235e-09
  7.62692      4.0 9.879e+03 1.464e-09
  7.66626      5.0 9.704e+03 1.217e-09
  7.69560      6.5 9.702e+03 1.189e-09
  7.71528      6.3 9.666e+03 1.215e-09
  7.74496      8.3 9.604e+03 1.374e-09
  7.77295     10.6 9.567e+03 1.493e-09
  7.79262     10.8 9.644e+03 1.245e-09
  7.82365     12.8 9.561e+03 1.154e-09
  7.86300     14.8 9.471e+03 1.142e-09
  7.90235     16.8 9.448e+03 1.245e-09
  7.94169     18.6 9.599e+03 1.539e-09
  7.98104     20.0 1.011e+04 2.091e-09
  8.01045     20.7 1.012e+04 2.805e-09
  8.03003     21.3 1.023e+04 3.496e-09
  8.04970     22.1 1.051e+04 4.088e-09
  8.06938     22.7 1.067e+04 4.642e-09
  8.08905     23.0 1.078e+04 5.084e-09
  8.10872     23.4 1.083e+04 5.491e-09
  8.12840     23.9 1.082e+04 5.521e-09
  8.14807     24.7 1.075e+04 5.176e-09
  8.16775     25.4 1.074e+04 4.628e-09
  8.18284     25.6 1.074e+04 4.083e-09
  8.19268     25.7 1.078e+04 3.909e-09
  8.20709     25.9 1.062e+04 3.719e-09
  8.22677     26.1 1.063e+04 3.840e-09
  8.24133     26.2 1.067e+04 4.351e-09
  8.25116     26.1 1.069e+04 4.470e-09
  8.26611     26.2 1.074e+04 5.786e-09
  8.28579     26.0 1.116e+04 8.496e-09
  8.30546     21.8 1.445e+04 1.807e-08
  8.32514     16.7 1.689e+04 5.491e-08
  8.34481     16.7 1.707e+04 1.689e-07
  8.36448     18.8 1.725e+04 2.272e-07
  8.38296     20.5 1.707e+04 1.440e-07
  8.39280     19.4 1.804e+04 2.104e-07
  8.40383     18.1 1.704e+04 6.661e-08
  8.42350     13.4 1.447e+04 2.683e-08
  8.44318     11.0 1.255e+04 1.851e-08
  8.46285     10.6 1.283e+04 1.737e-08
  8.48252      6.4 1.455e+04 2.806e-08
  8.50220      0.5 1.635e+04 5.272e-08
  8.51424     -4.7 1.699e+04 8.443e-08
  8.51911     -5.3 1.745e+04 8.871e-08
  8.52669     -8.5 1.835e+04 1.132e-07
  8.53653    -14.0 1.818e+04 1.459e-07
  8.54637    -17.0 1.816e+04 1.444e-07
  8.55620    -20.8 1.724e+04 9.913e-08
  8.56604    -24.5 1.606e+04 6.328e-08
  8.57588    -28.1 1.474e+04 4.050e-08
  8.58571    -30.1 1.393e+04 3.208e-08
  8.59287    -32.4 1.319e+04 2.477e-08
  8.60276    -34.4 1.268e+04 1.887e-08
  8.62024    -36.9 1.143e+04 1.225e-08
  8.63991    -38.0 1.103e+04 1.087e-08
  8.65959    -38.8 1.093e+04 1.083e-08
  8.67926    -39.4 1.111e+04 1.270e-08
  8.69893    -39.6 1.158e+04 1.598e-08
  8.71861    -39.4 1.203e+04 1.947e-08
  8.73828    -39.3 1.229e+04 2.146e-08
  8.75796    -39.3 1.234e+04 2.179e-08
  8.77741    -39.1 1.213e+04 2.009e-08
  8.78725    -39.5 1.203e+04 1.975e-08
  8.79304    -39.0 1.159e+04 1.619e-08
  8.80288    -39.0 1.210e+04 1.962e-08
  8.81698    -38.8 1.173e+04 1.599e-08
  8.83665    -38.5 1.158e+04 1.436e-08
  8.85632    -37.8 1.161e+04 1.418e-08
  8.87600    -37.6 1.207e+04 1.597e-08
  8.89567    -37.5 1.258e+04 2.040e-08
  8.91534    -37.0 1.309e+04 2.705e-08
  8.93502    -36.5 1.357e+04 3.544e-08
  8.95469    -35.7 1.401e+04 4.366e-08
  8.97437    -34.8 1.440e+04 5.249e-08
  8.99317    -33.9 1.474e+04 6.091e-08
  9.00300    -34.4 1.409e+04 3.892e-08
  9.01371    -33.6 1.402e+04 3.033e-08
  9.03339    -33.2 1.378e+04 2.105e-08
  9.05037    -33.2 1.335e+04 1.420e-08
  9.06021    -34.2 1.238e+04 8.116e-09
  9.07273    -34.6 1.179e+04 6.051e-09
  9.09241    -35.2 1.118e+04 5.287e-09
  9.11208    -35.6 1.084e+04 5.221e-09
  9.13176    -35.8 1.069e+04 5.638e-09
  9.15143    -37.4 1.134e+04 7.684e-09
  9.17110    -41.0 1.302e+04 1.515e-08
  9.19078    -43.8 1.443e+04 3.405e-08
  9.20313    -45.2 1.533e+04 5.882e-08
  9.21296    -44.9 1.505e+04 5.131e-08
  9.23012    -45.9 1.579e+04 7.082e-08
  9.24980    -47.3 1.578e+04 7.026e-08
  9.26947    -48.4 1.508e+04 4.291e-08
  9.28914    -50.5 1.390e+04 2.022e-08
  9.30882    -52.0 1.280e+04 1.116e-08
  9.32333    -52.3 1.221e+04 8.126e-09
  9.33317    -51.6 1.238e+04 9.433e-09
  9.34817    -51.5 1.216e+04 7.894e-09
  9.36784    -50.8 1.202e+04 6.556e-09
  9.38751    -50.0 1.198e+04 5.380e-09
  9.40325    -49.3 1.194e+04 4.378e-09
  9.41309    -49.0 1.239e+04 8.320e-09
  9.42686    -48.3 1.225e+04 7.033e-09
  9.44653    -47.5 1.207e+04 6.035e-09
  9.46621    -46.5 1.181e+04 5.248e-09
  9.48588    -45.2 1.150e+04 4.612e-09
  9.50555    -44.0 1.127e+04 4.081e-09
  9.52523    -43.3 1.132e+04 3.637e-09
  9.54490    -43.3 1.182e+04 3.582e-09
  9.56458    -44.5 1.239e+04 4.614e-09
  9.58425    -46.7 1.341e+04 7.014e-09
  9.59629    -48.6 1.463e+04 1.489e-08
  9.60557    -46.9 1.521e+04 1.361e-08
  9.61321    -49.4 1.753e+04 7.492e-08
  9.62360    -49.6 1.729e+04 1.076e-07
  9.64327    -50.3 1.707e+04 1.040e-07
  9.65798    -51.4 1.632e+04 7.278e-08
  9.66776    -51.5 1.629e+04 7.049e-08
  9.67760    -52.1 1.601e+04 6.092e-08
  9.68744    -52.1 1.599e+04 5.978e-08
  9.69728    -52.3 1.576e+04 5.453e-08
  9.70711    -52.4 1.585e+04 5.526e-08
  9.71317    -52.4 1.596e+04 5.706e-08
  9.71809    -53.6 1.653e+04 6.684e-08
  9.72679    -53.7 1.664e+04 7.000e-08
  9.73267    -53.6 1.676e+04 7.432e-08
  9.73759    -53.9 1.715e+04 9.758e-08
  9.74646    -53.8 1.728e+04 1.035e-07
  9.75630    -53.9 1.747e+04 1.111e-07
  9.76613    -54.0 1.761e+04 1.196e-07
  9.77597    -54.2 1.758e+04 1.282e-07
  9.78581    -54.2 1.750e+04 1.375e-07
  9.79564    -54.2 1.759e+04 1.515e-07
  9.80548    -54.0 1.775e+04 1.687e-07
  9.81323    -53.9 1.804e+04 1.936e-07
  9.81815    -54.5 1.749e+04 1.277e-07
  9.82515    -54.5 1.772e+04 1.399e-07
  9.83499    -54.7 1.787e+04 1.484e-07
  9.84483    -55.3 1.791e+04 1.507e-07
  9.85466    -55.9 1.787e+04 1.481e-07
  9.86423    -56.1 1.785e+04 1.462e-07
  9.86915    -56.6 1.737e+04 1.099e-07
  9.87931    -57.2 1.703e+04 9.121e-08
  9.89903    -57.4 1.695e+04 9.089e-08
  9.91870    -57.5 1.658e+04 7.682e-08
  9.93341    -57.5 1.654e+04 7.122e-08
  9.94320    -57.3 1.646e+04 7.091e-08
  9.95303    -57.0 1.644e+04 7.089e-08
  9.96287    -57.0 1.642e+04 6.874e-08
  9.97767    -56.3 1.634e+04 6.433e-08
  9.99740    -55.4 1.621e+04 5.927e-08
 10.01345    -54.7 1.609e+04 5.397e-08
 10.02329    -54.9 1.571e+04 5.255e-08
 10.03674    -54.0 1.567e+04 4.812e-08
 10.05642    -53.3 1.560e+04 4.390e-08
 10.07609    -52.5 1.554e+04 4.094e-08
 10.09576    -51.7 1.558e+04 3.997e-08
 10.11544    -51.1 1.572e+04 4.163e-08
 10.13237    -50.4 1.584e+04 4.484e-08
 10.14221    -50.7 1.526e+04 3.292e-08
 10.15479    -50.1 1.533e+04 3.429e-08
 10.17446    -49.6 1.539e+04 3.527e-08
 10.19413    -49.1 1.540e+04 3.548e-08
 10.21358    -48.5 1.528e+04 3.241e-08
 10.22341    -48.2 1.508e+04 3.469e-08
 10.23348    -47.5 1.512e+04 3.517e-08
 10.25315    -46.9 1.515e+04 3.329e-08
 10.27283    -46.3 1.514e+04 2.968e-08
 10.29250    -45.8 1.508e+04 2.532e-08
 10.31217    -45.4 1.495e+04 2.088e-08
 10.33185    -45.0 1.475e+04 1.721e-08
 10.35152    -44.4 1.457e+04 1.480e-08
 10.37120    -43.9 1.436e+04 1.331e-08
 10.39087    -43.2 1.415e+04 1.232e-08
 10.40533    -42.3 1.396e+04 1.144e-08
 10.41517    -42.4 1.384e+04 1.107e-08
 10.42354    -41.5 1.366e+04 9.873e-09
 10.43337    -41.7 1.402e+04 1.640e-08
 10.44989    -40.5 1.381e+04 1.387e-08
 10.46956    -39.5 1.360e+04 1.115e-08
 10.48924    -38.5 1.334e+04 8.851e-09
 10.50891    -37.2 1.318e+04 7.418e-09
 10.52858    -35.9 1.315e+04 6.708e-09
 10.54826    -34.7 1.307e+04 6.245e-09
 10.56793    -33.4 1.293e+04 5.986e-09
 10.58761    -31.8 1.280e+04 6.197e-09
 10.60728    -30.2 1.290e+04 7.155e-09
 10.62366    -28.6 1.301e+04 8.226e-09
 10.63350    -28.2 1.312e+04 8.972e-09
 10.64663    -26.5 1.313e+04 9.526e-09
 10.66630    -24.8 1.311e+04 9.865e-09
 10.67829    -23.1 1.324e+04 1.084e-08
 10.68813    -22.9 1.293e+04 8.060e-09
 10.70565    -21.3 1.307e+04 9.296e-09
 10.72532    -19.6 1.318e+04 1.074e-08
 10.74499    -17.9 1.335e+04 1.161e-08
 10.76467    -16.4 1.348e+04 1.178e-08
 10.78434    -14.7 1.359e+04 1.140e-08
 10.80402    -13.1 1.382e+04 1.055e-08
 10.82369    -11.6 1.395e+04 8.978e-09
 10.84336     -9.5 1.473e+04 2.176e-08
 10.86304     -8.5 1.478e+04 1.969e-08
 10.88271     -7.4 1.469e+04 1.825e-08
 10.90238     -6.4 1.457e+04 1.726e-08
 10.92206     -5.5 1.437e+04 1.574e-08
 10.94141     -4.7 1.418e+04 1.516e-08
 10.95125     -4.5 1.379e+04 1.488e-08
 10.96141     -3.9 1.370e+04 1.723e-08
 10.98108     -3.2 1.374e+04 2.112e-08
 11.00075     -2.3 1.396e+04 2.723e-08
 11.02043     -1.9 1.446e+04 3.628e-08
 11.03374     -1.9 1.505e+04 4.997e-08
 11.04358     -2.0 1.506e+04 4.928e-08
 11.05977     -2.5 1.557e+04 6.570e-08
 11.07945     -2.6 1.602e+04 8.031e-08
 11.09912     -3.1 1.609e+04 8.269e-08
 11.11879     -3.2 1.568e+04 6.762e-08
 11.13847     -3.2 1.502e+04 5.042e-08
 11.15814     -2.8 1.429e+04 3.620e-08
 11.17782     -2.2 1.349e+04 2.447e-08
 11.19749     -1.5 1.280e+04 1.775e-08
 11.21437     -0.6 1.236e+04 1.481e-08
 11.22421     -1.1 1.208e+04 1.284e-08
 11.23386      0.2 1.179e+04 1.125e-08
 11.24370     -0.3 1.171e+04 1.073e-08
 11.25651      1.3 1.146e+04 1.006e-08
 11.27618      3.6 1.145e+04 1.074e-08
 11.29586      5.5 1.181e+04 1.030e-08
 11.31553      7.2 1.151e+04 1.109e-08
 11.33520      9.0 1.166e+04 1.097e-08
 11.35488     10.0 1.209e+04 1.349e-08
 11.37455     11.7 1.244e+04 1.794e-08
 11.39423     13.6 1.261e+04 2.024e-08
 11.41390     15.5 1.289e+04 2.290e-08
 11.43357     17.1 1.312e+04 2.537e-08
 11.44382     18.5 1.305e+04 2.481e-08
 11.45366     18.1 1.239e+04 1.834e-08
 11.47292     19.6 1.239e+04 1.806e-08
 11.48733     20.4 1.238e+04 1.800e-08
 11.49717     20.7 1.147e+04 1.292e-08
 11.51227     21.8 1.140e+04 1.317e-08
 11.53194     23.1 1.160e+04 1.464e-08
 11.55161     24.5 1.186e+04 1.635e-08
 11.57129     26.0 1.210e+04 1.805e-08
 11.59096     27.3 1.272e+04 2.205e-08
 11.61064     28.7 1.454e+04 3.119e-08
 11.63031     31.1 1.503e+04 3.614e-08
 11.64390     33.4 1.440e+04 2.725e-08
 11.65374     32.0 1.371e+04 2.243e-08
 11.66469     34.1 1.362e+04 2.203e-08
 11.67448     34.7 1.353e+04 2.212e-08
 11.68431     35.2 1.371e+04 2.351e-08
 11.69415     35.8 1.389e+04 2.479e-08
 11.70399     36.5 1.432e+04 2.797e-08
 11.71382     37.4 1.490e+04 3.199e-08
 11.72366     38.4 1.588e+04 3.798e-08
 11.73350     39.6 1.763e+04 4.795e-08
 11.74334     40.7 2.035e+04 6.914e-08
 11.74883     40.8 2.409e+04 1.289e-07
 11.75375     38.7 1.642e+04 4.119e-08
 11.76019     36.5 2.463e+04 6.272e-08
 11.76511     39.4 1.838e+04 5.633e-08
 11.77285     37.0 2.519e+04 1.092e-07
 11.78268     33.7 2.238e+04 1.201e-06
 11.79004     33.2 1.861e+04 6.504e-06
 11.79493     33.8 1.713e+04 1.491e-05
 11.79881     34.5 1.722e+04 1.410e-05
 11.80127     34.8 2.207e+04 6.711e-07
 11.80477     33.3 2.138e+04 3.910e-07
 11.80969     26.6 2.341e+04 2.634e-07
 11.81460     15.6 2.753e+04 2.352e-07
 11.81952     -0.5 2.559e+04 7.664e-07
 11.82444     -8.8 1.982e+04 3.413e-06
 11.82839    -12.4 1.724e+04 1.110e-05
 11.83084    -12.9 1.711e+04 1.079e-05
 11.83428    -14.8 1.649e+04 1.743e-05
 11.83920    -17.2 1.664e+04 1.430e-05
 11.84411    -18.0 1.734e+04 1.121e-05
 11.84887    -20.2 1.784e+04 7.703e-06
 11.85381    -16.5 1.735e+04 7.392e-06
 11.86138    -18.2 1.820e+04 5.003e-06
 11.87121    -20.0 1.887e+04 3.460e-06
 11.88105    -21.6 2.012e+04 1.745e-06
 11.89089    -22.6 2.160e+04 7.507e-07
 11.89667    -23.7 2.242e+04 3.400e-07
 11.90159    -24.8 2.295e+04 2.543e-07
 11.91056    -25.4 2.262e+04 1.357e-07
 11.92040    -25.3 2.174e+04 9.846e-08
 11.93024    -25.7 2.120e+04 7.363e-08
 11.94007    -25.3 2.083e+04 6.710e-08
 11.94895    -25.7 2.033e+04 6.014e-08
 11.95387    -25.3 2.057e+04 1.105e-07
 11.96471    -26.3 1.958e+04 7.562e-08
 11.98444    -26.5 1.827e+04 6.382e-08
 12.00411    -26.8 1.741e+04 6.190e-08
 12.02341    -27.0 1.681e+04 6.602e-08
 12.03325    -26.4 1.690e+04 5.522e-08
 12.04346    -26.1 1.658e+04 6.457e-08
 12.05403    -25.5 1.653e+04 7.302e-08
 12.06387    -26.5 1.656e+04 7.474e-08
 12.08280    -26.4 1.615e+04 6.607e-08
 12.10248    -26.5 1.582e+04 5.668e-08
 12.12215    -27.2 1.544e+04 4.751e-08
 12.14182    -28.2 1.496e+04 3.978e-08
 12.16150    -29.4 1.436e+04 3.341e-08
 12.18117    -30.6 1.371e+04 2.822e-08
 12.20085    -31.6 1.308e+04 2.404e-08
 12.22052    -32.4 1.254e+04 2.041e-08
 12.24019    -33.3 1.201e+04 1.708e-08
 12.25415    -34.5 1.150e+04 1.445e-08
 12.26399    -35.8 1.099e+04 1.203e-08
 12.27954    -37.1 1.096e+04 1.197e-08
 12.29637    -39.9 1.171e+04 1.500e-08
 12.30621    -37.4 1.154e+04 1.462e-08
 12.31889    -41.0 1.272e+04 1.883e-08
 12.33856    -45.4 1.423e+04 2.992e-08
 12.35823    -49.9 1.521e+04 4.569e-08
 12.37791    -54.4 1.555e+04 5.437e-08
 12.39758    -58.9 1.533e+04 5.170e-08
 12.41726    -63.6 1.442e+04 3.839e-08
 12.43693    -67.9 1.348e+04 2.865e-08
 12.45428    -71.6 1.317e+04 2.431e-08
 12.46411    -71.8 1.199e+04 1.550e-08
 12.47628    -75.4 1.193e+04 1.502e-08
 12.49595    -78.9 1.217e+04 1.601e-08
 12.51562    -81.8 1.260e+04 1.935e-08
 12.53530    -84.0 1.289e+04 2.307e-08
 12.55497    -85.2 1.292e+04 2.432e-08
 12.56933    -86.0 1.266e+04 2.346e-08
 12.57917    -86.0 1.345e+04 3.094e-08
 12.59432    -86.7 1.295e+04 2.752e-08
 12.61399    -87.5 1.245e+04 2.267e-08
 12.63367    -88.2 1.213e+04 1.875e-08
 12.65334    -88.8 1.195e+04 1.644e-08
 12.66424    -89.2 1.195e+04 1.593e-08
 12.67407    -87.7 1.189e+04 1.642e-08
 12.69269    -88.0 1.200e+04 1.668e-08
 12.71236    -88.3 1.229e+04 1.848e-08
 12.73203    -88.7 1.265e+04 2.190e-08
 12.75171    -88.9 1.305e+04 2.669e-08
 12.77138    -88.8 1.338e+04 3.132e-08
 12.79106    -88.8 1.358e+04 3.371e-08
 12.81073    -88.7 1.354e+04 3.100e-08
 12.83040    -88.9 1.332e+04 2.582e-08
 12.84229    -89.2 1.284e+04 1.880e-08
 12.85213    -90.8 1.236e+04 1.452e-08
 12.86436    -91.4 1.144e+04 9.862e-09
 12.87419    -89.4 1.280e+04 1.772e-08
 12.88942    -90.0 1.185e+04 1.154e-08
 12.90910    -90.3 1.093e+04 8.589e-09
 12.92877    -90.3 1.049e+04 7.763e-09
 12.94844    -89.7 1.042e+04 7.915e-09
 12.96812    -89.0 1.057e+04 8.425e-09
 12.98779    -88.1 1.074e+04 9.078e-09
 13.00747    -87.3 1.089e+04 9.610e-09
 13.02714    -86.5 1.094e+04 9.795e-09
 13.04681    -85.7 1.093e+04 9.498e-09
 13.06448    -84.9 1.083e+04 8.339e-09
 13.07432    -83.9 1.115e+04 1.048e-08
 13.08616    -83.0 1.105e+04 9.248e-09
 13.10542    -82.2 1.093e+04 7.616e-09
 13.11525    -82.6 1.086e+04 7.297e-09
 13.12551    -81.9 1.070e+04 5.632e-09
 13.14518    -81.6 1.052e+04 4.351e-09
 13.16485    -81.4 1.034e+04 3.632e-09
 13.18453    -81.3 1.028e+04 3.427e-09
 13.20420    -81.3 1.029e+04 3.398e-09
 13.22388    -81.6 1.060e+04 3.802e-09
 13.24355    -81.9 1.078e+04 4.808e-09
 13.26322    -82.2 1.095e+04 6.003e-09
 13.27444    -82.4 1.114e+04 6.961e-09
 13.28428    -81.8 1.137e+04 7.988e-09
 13.30257    -82.5 1.156e+04 8.331e-09
 13.32224    -83.1 1.165e+04 8.342e-09
 13.34192    -83.7 1.174e+04 8.165e-09
 13.36159    -84.2 1.193e+04 8.002e-09
 13.37838    -84.6 1.208e+04 8.252e-09
 13.38821    -85.0 1.210e+04 8.690e-09
 13.40094    -85.3 1.219e+04 9.502e-09
 13.42061    -85.4 1.229e+04 1.067e-08
 13.44029    -85.5 1.240e+04 1.185e-08
 13.45996    -85.5 1.250e+04 1.265e-08
 13.47456    -85.4 1.256e+04 1.291e-08
 13.48440    -85.8 1.233e+04 1.093e-08
 13.49931    -85.6 1.247e+04 1.175e-08
 13.51898    -85.4 1.262e+04 1.252e-08
 13.53865    -85.3 1.280e+04 1.326e-08
 13.55833    -85.1 1.299e+04 1.426e-08
 13.57800    -85.1 1.318e+04 1.588e-08
 13.59768    -85.1 1.335e+04 1.850e-08
 13.61735    -85.1 1.357e+04 2.251e-08
 13.63702    -85.0 1.384e+04 2.804e-08
 13.65134    -84.7 1.415e+04 3.470e-08
 13.66117    -85.8 1.428e+04 3.891e-08
 13.67469    -85.5 1.450e+04 4.428e-08
 13.68452    -86.1 1.380e+04 2.798e-08
 13.69604    -85.8 1.375e+04 2.639e-08
 13.71572    -85.4 1.361e+04 2.402e-08
 13.73539    -84.9 1.337e+04 2.091e-08
 13.75506    -84.3 1.307e+04 1.757e-08
 13.77474    -83.5 1.281e+04 1.465e-08
 13.79441    -82.6 1.261e+04 1.246e-08
 13.81409    -81.5 1.248e+04 1.089e-08
 13.83376    -80.3 1.243e+04 9.781e-09
 13.85343    -79.0 1.245e+04 8.902e-09
 13.87311    -77.8 1.249e+04 8.121e-09
 13.88465    -76.4 1.253e+04 7.487e-09
 13.89448    -76.3 1.234e+04 6.900e-09
 13.91245    -75.0 1.241e+04 6.511e-09
 13.92430    -73.8 1.245e+04 6.158e-09
 13.93413    -74.6 1.254e+04 6.626e-09
 13.95180    -73.1 1.256e+04 6.437e-09
 13.97147    -71.7 1.260e+04 6.343e-09
 13.99115    -70.3 1.259e+04 6.213e-09
 14.01082    -68.9 1.250e+04 5.993e-09
 14.03050    -67.4 1.245e+04 5.809e-09
 14.05017    -66.0 1.245e+04 5.708e-09
 14.06984    -64.7 1.246e+04 5.626e-09
 14.08477    -63.2 1.247e+04 5.582e-09
 14.09461    -63.2 1.246e+04 5.463e-09
 14.10919    -61.8 1.249e+04 5.446e-09
 14.12886    -60.5 1.255e+04 5.453e-09
 14.14854    -59.3 1.259e+04 5.460e-09
 14.16821    -58.1 1.265e+04 5.494e-09
 14.18742    -56.9 1.269e+04 5.556e-09
 14.19725    -57.4 1.269e+04 5.555e-09
 14.20756    -56.3 1.270e+04 5.603e-09
 14.22723    -55.1 1.268e+04 5.807e-09
 14.24691    -54.1 1.273e+04 6.339e-09
 14.26658    -53.2 1.277e+04 7.232e-09
 14.28489    -52.2 1.275e+04 8.374e-09
 14.29473    -52.3 1.277e+04 8.924e-09
 14.30593    -51.3 1.283e+04 1.043e-08
 14.32560    -50.4 1.292e+04 1.211e-08
 14.34527    -49.5 1.297e+04 1.379e-08
 14.36495    -48.8 1.298e+04 1.540e-08
 14.38462    -48.1 1.297e+04 1.678e-08
 14.40430    -47.5 1.296e+04 1.768e-08
 14.42397    -46.9 1.294e+04 1.809e-08
 14.44364    -46.2 1.282e+04 1.809e-08
 14.46038    -45.4 1.263e+04 1.687e-08
 14.47021    -46.1 1.238e+04 1.491e-08
 14.48299    -45.3 1.209e+04 1.227e-08
 14.49485    -44.5 1.177e+04 9.661e-09
 14.50469    -44.8 1.210e+04 1.200e-08
 14.52234    -43.9 1.178e+04 9.319e-09
 14.54201    -43.1 1.146e+04 7.097e-09
 14.56168    -42.1 1.118e+04 5.448e-09
 14.58136    -40.9 1.100e+04 4.373e-09
 14.60103    -39.7 1.087e+04 3.702e-09
 14.62071    -38.4 1.057e+04 3.358e-09
 14.64038    -37.0 1.028e+04 3.128e-09
 14.66005    -35.4 1.018e+04 3.056e-09
 14.67973    -33.7 1.017e+04 3.088e-09
 14.69497    -32.2 1.021e+04 3.193e-09
 14.70481    -32.9 1.043e+04 3.499e-09
 14.71907    -31.3 1.035e+04 3.583e-09
 14.73334    -29.5 1.031e+04 3.731e-09
 14.74317    -29.5 1.028e+04 3.814e-09
 14.75842    -27.6 1.030e+04 4.080e-09
 14.77809    -25.8 1.034e+04 4.246e-09
 14.79777    -24.1 1.030e+04 4.250e-09
 14.81744    -22.3 1.023e+04 4.206e-09
 14.83712    -20.4 1.021e+04 4.258e-09
 14.85679    -18.5 1.029e+04 4.634e-09
 14.87646    -16.5 1.036e+04 5.074e-09
 14.89510    -14.6 1.042e+04 5.280e-09
 14.90493    -15.2 1.035e+04 4.723e-09
 14.91581    -13.4 1.035e+04 4.838e-09
 14.93548    -11.5 1.046e+04 5.483e-09
 14.95516     -9.6 1.065e+04 6.423e-09
 14.97483     -7.7 1.093e+04 7.518e-09
 14.99451     -6.3 1.117e+04 8.790e-09
 15.00630     -5.1 1.156e+04 1.142e-08
 15.01613     -5.0 1.197e+04 1.430e-08
 15.03385     -4.3 1.263e+04 2.161e-08
 15.05353     -3.1 1.365e+04 3.581e-08
 15.07320     -2.1 1.457e+04 5.467e-08
 15.09287     -0.7 1.537e+04 8.255e-08
 15.10506      0.9 1.602e+04 1.106e-07
 15.11489      0.3 1.542e+04 8.800e-08
 15.13222      1.6 1.565e+04 9.650e-08
 15.15189      2.8 1.561e+04 8.734e-08
 15.17157      3.2 1.547e+04 7.025e-08
 15.19124      2.3 1.550e+04 6.348e-08
 15.21092      0.6 1.577e+04 6.745e-08
 15.23059     -0.7 1.606e+04 8.576e-08
 15.25026     -0.3 1.644e+04 1.137e-07
 15.26942      0.4 1.638e+04 1.112e-07
 15.27926      0.4 1.573e+04 6.583e-08
 15.28961      0.9 1.492e+04 3.554e-08
 15.30518     -0.2 1.312e+04 1.772e-08
 15.31502     -1.0 1.509e+04 3.143e-08
 15.32896     -3.4 1.342e+04 1.992e-08
 15.34863     -4.0 1.278e+04 1.806e-08
 15.36830     -3.2 1.257e+04 1.807e-08
 15.38798     -2.3 1.238e+04 1.837e-08
 15.40765     -1.1 1.209e+04 1.777e-08
 15.42733      0.1 1.180e+04 1.607e-08
 15.44700      1.3 1.147e+04 1.422e-08
 15.46667      2.6 1.125e+04 1.254e-08
 15.48635      3.8 1.105e+04 1.092e-08
 15.50530      4.9 1.089e+04 9.362e-09
 15.51514      2.6 1.132e+04 1.101e-08
 15.52569      3.8 1.128e+04 1.088e-08
 15.54238      4.8 1.129e+04 1.132e-08
 15.55222      5.6 1.197e+04 1.515e-08
 15.56504      6.7 1.211e+04 1.673e-08
 15.58471      7.9 1.241e+04 1.914e-08
 15.60439      9.2 1.263e+04 2.313e-08
 15.62406     10.5 1.314e+04 2.862e-08
 15.64374     11.4 1.391e+04 3.434e-08
 15.66341     10.9 1.429e+04 3.821e-08
 15.67812      8.8 1.469e+04 4.712e-08
 15.68368      8.0 1.512e+04 5.219e-08
 15.68860      7.7 1.560e+04 6.266e-08
 15.69774      6.6 1.586e+04 8.186e-08
 15.70758      6.3 1.576e+04 9.620e-08
 15.71516      6.3 1.580e+04 1.079e-07
 15.72008      5.4 1.542e+04 8.331e-08
 15.72725      5.3 1.552e+04 8.217e-08
 15.73709      4.6 1.622e+04 7.939e-08
 15.74692      3.0 1.697e+04 8.055e-08
 15.75676      0.7 1.767e+04 8.148e-08
 15.76660     -1.6 1.757e+04 8.987e-08
 15.77644     -3.5 1.729e+04 1.048e-07
 15.78627     -4.6 1.724e+04 1.240e-07
 15.79611     -5.0 1.740e+04 1.499e-07
 15.80595     -5.0 1.778e+04 1.797e-07
 15.81523     -4.9 1.814e+04 2.082e-07
 15.82014     -6.1 1.853e+04 2.174e-07
 15.82562     -6.1 1.866e+04 2.041e-07
 15.83546     -6.3 1.868e+04 1.747e-07
 15.84529     -6.4 1.852e+04 1.636e-07
 15.85513     -6.7 1.842e+04 1.412e-07
 15.86497     -6.7 1.825e+04 1.353e-07
 15.87480     -6.4 1.792e+04 1.179e-07
 15.88464     -6.3 1.787e+04 1.168e-07
 15.89448     -5.6 1.798e+04 1.155e-07
 15.90431     -5.6 1.804e+04 1.175e-07
 15.91415     -5.3 1.817e+04 1.321e-07
 15.92021     -5.2 1.831e+04 1.377e-07
 15.92517     -5.0 1.742e+04 9.781e-08
 15.93387     -4.5 1.770e+04 1.122e-07
 15.94366     -4.5 1.794e+04 1.222e-07
 15.95172     -4.3 1.796e+04 1.462e-07
 15.95664     -4.0 1.851e+04 1.934e-07
 15.96334     -3.6 1.891e+04 2.474e-07
 15.97317     -3.2 1.891e+04 3.309e-07
 15.98301     -2.6 1.907e+04 3.903e-07
 15.99285     -2.0 1.913e+04 4.327e-07
 16.00268     -1.7 1.933e+04 4.438e-07
 16.01252     -1.7 1.957e+04 4.325e-07
 16.02027     -2.4 1.983e+04 4.620e-07
 16.02518     -1.0 1.958e+04 3.853e-07
 16.03219     -2.1 1.982e+04 4.414e-07
 16.04203     -3.7 1.986e+04 5.585e-07
 16.05187     -5.6 1.937e+04 8.418e-07
 16.06170     -6.8 1.864e+04 1.466e-06
 16.07154     -7.8 1.820e+04 2.222e-06
 16.08138     -9.3 1.808e+04 2.540e-06
 16.08820    -10.9 1.831e+04 2.193e-06
 16.09312    -11.5 1.851e+04 2.195e-06
 16.10105    -13.1 1.899e+04 1.460e-06
 16.11089    -14.7 1.970e+04 8.649e-07
 16.12033    -16.4 2.030e+04 4.733e-07
 16.12525    -16.4 2.015e+04 5.546e-07
 16.13056    -17.5 2.015e+04 3.522e-07
 16.14040    -18.2 1.971e+04 2.499e-07
 16.15023    -18.2 1.946e+04 1.952e-07
 16.16007    -18.4 1.901e+04 1.514e-07
 16.16991    -18.0 1.869e+04 1.345e-07
 16.17975    -17.6 1.841e+04 1.214e-07
 16.19455    -16.5 1.817e+04 9.710e-08
 16.21427    -15.2 1.735e+04 8.511e-08
 16.23395    -14.2 1.688e+04 7.052e-08
 16.25362    -14.1 1.679e+04 6.605e-08
 16.26833    -15.7 1.706e+04 7.034e-08
 16.27811    -16.0 1.748e+04 7.092e-08
 16.28795    -16.1 1.902e+04 7.735e-08
 16.29779    -18.2 2.071e+04 1.135e-07
 16.30762    -19.8 2.101e+04 2.552e-07
 16.31746    -21.8 2.011e+04 5.812e-07
 16.32537    -22.7 1.932e+04 1.232e-06
 16.33029    -25.4 1.886e+04 2.239e-06
 16.33713    -27.8 1.869e+04 2.624e-06
 16.34697    -30.9 1.886e+04 2.390e-06
 16.35624    -33.7 1.929e+04 1.653e-06
 16.36116    -35.4 2.000e+04 8.933e-07
 16.36665    -37.4 2.043e+04 4.325e-07
 16.37648    -39.0 2.051e+04 1.877e-07
 16.38632    -40.1 1.989e+04 8.936e-08
 16.39616    -41.3 1.845e+04 4.935e-08
 16.40599    -42.4 1.665e+04 3.466e-08
 16.41583    -43.1 1.519e+04 2.857e-08
 16.42543    -43.2 1.433e+04 2.672e-08
 16.43035    -43.8 1.367e+04 2.343e-08
 16.43550    -43.5 1.374e+04 2.449e-08
 16.45031    -42.6 1.426e+04 2.906e-08
 16.47003    -41.9 1.457e+04 3.490e-08
 16.48970    -41.3 1.506e+04 4.321e-08
 16.50938    -40.7 1.532e+04 4.844e-08
 16.52559    -40.1 1.535e+04 4.884e-08
 16.53543    -40.1 1.441e+04 3.431e-08
 16.54872    -39.4 1.433e+04 3.278e-08
 16.56840    -38.6 1.398e+04 2.807e-08
 16.58807    -37.8 1.349e+04 2.269e-08
 16.60775    -37.1 1.296e+04 1.815e-08
 16.62438    -36.3 1.245e+04 1.501e-08
 16.63422    -36.5 1.244e+04 1.476e-08
 16.64709    -35.4 1.203e+04 1.284e-08
 16.66677    -34.4 1.171e+04 1.139e-08
 16.68644    -33.4 1.136e+04 9.898e-09
 16.70611    -32.4 1.104e+04 8.528e-09
 16.72571    -31.5 1.070e+04 7.306e-09
 16.74539    -30.9 1.034e+04 6.265e-09
 16.76513    -30.0 1.013e+04 5.626e-09
 16.78481    -29.2 9.945e+03 5.183e-09
 16.80448    -28.4 9.734e+03 4.683e-09
 16.82416    -27.7 9.615e+03 4.333e-09
 16.84383    -27.2 9.529e+03 4.136e-09
 16.86350    -26.7 9.426e+03 4.017e-09
 16.88318    -26.3 9.341e+03 3.983e-09
 16.89734    -25.8 9.241e+03 3.974e-09
 16.90718    -25.8 9.354e+03 4.315e-09
 16.92252    -25.2 9.172e+03 4.147e-09
 16.93567    -24.5 8.989e+03 3.840e-09
 16.94551    -24.0 9.249e+03 4.571e-09
 16.96187    -23.3 9.066e+03 4.017e-09
 16.98154    -22.6 8.847e+03 3.528e-09
 17.00122    -21.9 8.660e+03 3.263e-09
 17.02089    -21.0 8.594e+03 3.187e-09
 17.04057    -20.0 8.553e+03 3.151e-09
 17.06024    -19.1 8.512e+03 3.133e-09
 17.07991    -18.2 8.525e+03 3.304e-09
 17.09959    -17.1 8.639e+03 3.577e-09
 17.11926    -16.2 8.704e+03 3.737e-09
 17.13579    -15.3 8.844e+03 4.090e-09
 17.14563    -14.6 9.162e+03 5.037e-09
 17.15861    -13.9 9.329e+03 5.593e-09
 17.17030    -13.1 9.445e+03 6.131e-09
 17.18014    -13.3 9.620e+03 6.596e-09
 17.19795    -12.6 9.790e+03 7.500e-09
 17.21763    -11.8 1.018e+04 8.903e-09
 17.23730    -11.6 1.059e+04 1.042e-08
 17.25698    -11.4 1.125e+04 1.418e-08
 17.27665    -11.3 1.184e+04 1.768e-08
 17.29632    -10.0 1.208e+04 2.346e-08
 17.31600     -8.0 1.249e+04 2.854e-08
 17.33567     -6.3 1.278e+04 3.062e-08
 17.34575     -4.9 1.288e+04 3.031e-08
 17.35559     -4.6 1.296e+04 3.183e-08
 17.37502     -3.6 1.282e+04 2.744e-08
 17.39469     -2.7 1.260e+04 2.598e-08
 17.41436     -2.2 1.269e+04 2.347e-08
 17.43342     -1.8 1.268e+04 2.436e-08
 17.44326     -2.4 1.269e+04 2.378e-08
 17.45371     -1.8 1.274e+04 2.409e-08
 17.47339     -0.9 1.267e+04 2.419e-08
 17.49306      0.4 1.256e+04 2.268e-08
 17.51273      1.6 1.222e+04 1.957e-08
 17.53241      2.8 1.182e+04 1.635e-08
 17.54588      3.7 1.139e+04 1.348e-08
 17.55571      3.6 1.086e+04 1.032e-08
 17.57175      4.2 1.051e+04 8.561e-09
 17.59143      5.1 1.039e+04 8.313e-09
 17.61110      6.0 1.038e+04 8.329e-09
 17.63078      7.1 1.039e+04 8.406e-09
 17.65045      8.2 1.048e+04 8.853e-09
 17.67012      9.2 1.063e+04 9.538e-09
 17.68980     10.4 1.069e+04 1.005e-08
 17.70638     11.8 1.075e+04 1.027e-08
 17.71622     11.8 1.071e+04 1.013e-08
 17.72914     13.3 1.070e+04 9.907e-09
 17.74600     14.7 1.064e+04 9.066e-09
 17.75584     14.6 1.033e+04 7.170e-09
 17.76849     15.7 1.043e+04 6.927e-09
 17.78816     16.7 1.054e+04 6.986e-09
 17.80784     17.8 1.066e+04 7.115e-09
 17.82751     19.0 1.085e+04 7.412e-09
 17.84719     20.1 1.115e+04 8.164e-09
 17.86686     21.0 1.145e+04 9.293e-09
 17.88653     22.0 1.176e+04 1.083e-08
 17.90621     23.2 1.211e+04 1.298e-08
 17.92588     24.4 1.247e+04 1.508e-08
 17.94555     25.7 1.278e+04 1.545e-08
 17.95596     26.8 1.280e+04 1.496e-08
 17.96580     26.9 1.254e+04 1.250e-08
 17.97934     27.9 1.260e+04 1.144e-08
 17.98918     27.4 1.278e+04 1.224e-08
 18.00457     28.3 1.280e+04 1.138e-08
 18.02425     29.2 1.284e+04 1.148e-08
 18.04392     30.0 1.295e+04 1.232e-08
 18.06360     30.8 1.323e+04 1.521e-08
 18.08327     31.5 1.363e+04 2.036e-08
 18.10294     32.1 1.414e+04 2.778e-08
 18.12262     32.6 1.470e+04 3.726e-08
 18.14229     33.1 1.514e+04 4.652e-08
 18.15608     33.6 1.536e+04 5.060e-08
 18.16592     32.0 1.541e+04 5.283e-08
 18.18164     32.4 1.528e+04 5.158e-08
 18.20131     32.9 1.501e+04 4.661e-08
 18.22098     33.5 1.469e+04 4.021e-08
 18.24066     33.9 1.436e+04 3.408e-08
 18.25230     34.1 1.450e+04 3.195e-08
 18.26214     33.2 1.487e+04 4.096e-08
 18.27504     32.3 1.503e+04 3.980e-08
 18.28483     32.1 1.501e+04 3.934e-08
 18.29466     31.0 1.522e+04 4.320e-08
 18.30450     30.3 1.535e+04 4.750e-08
 18.31434     29.6 1.551e+04 5.309e-08
 18.32417     29.1 1.546e+04 5.675e-08
 18.33401     28.6 1.531e+04 5.489e-08
 18.34385     28.0 1.508e+04 5.209e-08
 18.35368     27.2 1.457e+04 4.282e-08
 18.36103     26.8 1.435e+04 4.012e-08
 18.36599     26.2 1.416e+04 3.667e-08
 18.37837     24.8 1.355e+04 2.659e-08
 18.39805     22.6 1.284e+04 1.903e-08
 18.41772     20.6 1.223e+04 1.553e-08
 18.43740     19.1 1.213e+04 1.544e-08
 18.45707     17.8 1.224e+04 1.681e-08
 18.47674     16.7 1.248e+04 1.968e-08
 18.49642     15.6 1.273e+04 2.270e-08
 18.51542     13.4 1.341e+04 2.765e-08
 18.52526     12.3 1.381e+04 3.122e-08
 18.53576      7.8 1.465e+04 4.277e-08
 18.55047      4.9 1.436e+04 4.779e-08
 18.56026      4.7 1.426e+04 4.716e-08
 18.56612      4.1 1.382e+04 4.193e-08
 18.57600      2.9 1.363e+04 3.950e-08
 18.59478     -0.1 1.330e+04 2.740e-08
 18.61446     -6.6 1.246e+04 1.661e-08
 18.63413    -14.0 1.137e+04 1.378e-08
 18.65381    -19.3 1.190e+04 1.862e-08
 18.67348    -21.9 1.271e+04 2.897e-08
 18.69315    -22.9 1.321e+04 3.573e-08
 18.71283    -24.2 1.333e+04 3.445e-08
 18.73250    -25.8 1.262e+04 2.343e-08
 18.75217    -29.0 1.139e+04 1.460e-08
 18.76629    -30.4 1.041e+04 1.115e-08
 18.77612    -28.7 1.040e+04 1.090e-08
 18.78838    -28.6 1.004e+04 9.572e-09
 18.79822    -28.5 1.058e+04 1.256e-08
 18.81119    -27.4 1.017e+04 9.798e-09
 18.83087    -26.7 9.752e+03 7.145e-09
 18.85054    -26.4 9.301e+03 5.172e-09
 18.87022    -26.1 8.945e+03 4.104e-09
 18.88989    -25.5 8.725e+03 3.600e-09
 18.90956    -24.6 8.648e+03 3.458e-09
 18.92924    -23.8 8.728e+03 3.743e-09
 18.94891    -23.0 8.942e+03 4.481e-09
 18.96641    -22.1 9.226e+03 5.450e-09
 18.97625    -21.1 9.028e+03 4.775e-09
 18.98826    -20.3 9.374e+03 5.906e-09
 19.00793    -20.3 1.012e+04 8.062e-09
 19.02760    -22.2 1.181e+04 1.360e-08
 19.04728    -24.9 1.334e+04 2.678e-08
 19.06134    -25.8 1.412e+04 4.791e-08
 19.07118    -25.6 1.357e+04 3.829e-08
 19.08663    -25.4 1.410e+04 5.090e-08
 19.10630    -24.8 1.417e+04 5.298e-08
 19.12597    -24.4 1.333e+04 3.619e-08
 19.14565    -25.6 1.222e+04 2.098e-08
 19.16532    -27.6 1.127e+04 1.465e-08
 19.17637    -28.4 1.098e+04 1.346e-08
 19.18621    -28.3 1.076e+04 1.200e-08
 19.20467    -28.5 1.088e+04 1.285e-08
 19.22434    -28.5 1.116e+04 1.539e-08
 19.24402    -28.0 1.137e+04 1.718e-08
 19.26369    -27.4 1.145e+04 1.762e-08
 19.28336    -26.9 1.131e+04 1.584e-08
 19.30304    -26.7 1.104e+04 1.285e-08
 19.32271    -26.7 1.068e+04 1.032e-08
 19.33430    -26.6 1.040e+04 8.565e-09
 19.34414    -26.8 1.024e+04 7.759e-09
 19.36206    -26.6 1.000e+04 6.488e-09
 19.37649    -26.3 9.891e+03 5.822e-09
 19.38633    -25.8 9.839e+03 5.341e-09
 19.40140    -25.4 9.771e+03 4.844e-09
 19.42108    -24.8 9.706e+03 4.527e-09
 19.44075    -24.1 9.695e+03 4.357e-09
 19.46043    -23.2 9.713e+03 4.233e-09
 19.48010    -22.3 9.705e+03 4.133e-09
 19.49977    -21.3 9.789e+03 4.058e-09
 19.51945    -20.5 9.781e+03 3.848e-09
 19.53912    -19.2 9.881e+03 3.578e-09
 19.55879    -18.9 9.929e+03 3.462e-09
 19.57671    -17.9 1.007e+04 3.261e-09
 19.59577    -16.6 1.003e+04 3.277e-09
 19.60746    -16.6 1.001e+04 3.288e-09
 19.62785    -14.9 1.005e+04 3.186e-09
 19.66719    -13.0 9.947e+03 2.904e-09
 19.70654    -11.5 9.897e+03 2.652e-09
 19.74589     -9.7 9.918e+03 2.768e-09
 19.78524     -7.4 9.925e+03 3.218e-09
 19.82458     -5.0 9.974e+03 3.218e-09
 19.86393     -2.7 1.026e+04 2.766e-09
 19.90328     -0.8 1.019e+04 2.762e-09
 19.94263      1.2 1.026e+04 2.820e-09
 19.97706      3.4 1.030e+04 2.731e-09
 19.99673      4.3 1.030e+04 2.827e-09
 20.02132      6.3 1.033e+04 2.778e-09
 20.06067      8.3 1.037e+04 2.868e-09
 20.10001     10.4 1.046e+04 3.146e-09
 20.13370     12.4 1.058e+04 3.542e-09
 20.15328     12.4 1.069e+04 3.908e-09
 20.16868     14.1 1.076e+04 4.134e-09
 20.18682     14.5 1.084e+04 4.246e-09
 20.19666     14.9 1.083e+04 4.254e-09
 20.20802     16.7 1.076e+04 4.033e-09
 20.22770     17.2 1.082e+04 3.993e-09
 20.24737     19.1 1.075e+04 3.482e-09
 20.26705     19.4 1.079e+04 3.373e-09
 20.28672     21.3 1.068e+04 2.846e-09
 20.30639     21.6 1.073e+04 2.792e-09
 20.33600     23.4 1.081e+04 2.727e-09
 20.37545     25.6 1.087e+04 2.567e-09
 20.39698     27.8 1.094e+04 2.424e-09
 20.41665     28.9 1.089e+04 2.432e-09
 20.45414     31.3 1.083e+04 2.227e-09
 20.49349     33.6 1.071e+04 2.181e-09
 20.53284     35.8 1.065e+04 2.243e-09
 20.57218     37.7 1.082e+04 2.564e-09
 20.61153     39.3 1.095e+04 2.924e-09
 20.64094     40.7 1.094e+04 2.847e-09
 20.66052     41.0 1.097e+04 2.858e-09
 20.67943     41.4 1.101e+04 2.866e-09
 20.69920     41.1 1.098e+04 2.552e-09
 20.71964     41.8 1.105e+04 2.910e-09
 20.73921     41.9 1.118e+04 3.358e-09
 20.75889     41.8 1.139e+04 4.499e-09
 20.77856     41.8 1.144e+04 4.850e-09
 20.79712     41.5 1.184e+04 7.761e-09
 20.81690     43.1 1.141e+04 5.843e-09
 20.84761     43.2 1.188e+04 8.913e-09
 20.88696     42.9 1.220e+04 9.661e-09
 20.92631     42.5 1.209e+04 8.280e-09
 20.96566     42.3 1.175e+04 5.631e-09
 21.00500     42.2 1.136e+04 4.020e-09
 21.04435     42.5 1.103e+04 3.048e-09
 21.08370     43.6 1.074e+04 2.030e-09
 21.12304     45.2 1.058e+04 1.121e-09
 21.16239     46.7 1.056e+04 6.310e-10
 21.19747     48.2 1.026e+04 5.091e-10
 21.21714     49.5 1.034e+04 4.926e-10
 21.22554     51.4 1.005e+04 4.844e-10
 21.24522     51.0 1.003e+04 4.865e-10
 21.28043     53.3 1.001e+04 4.990e-10
 21.31978     55.6 9.991e+03 5.516e-10
 21.35913     57.8 1.003e+04 6.434e-10
 21.39848     59.9 1.010e+04 7.638e-10
 21.43782     61.9 1.018e+04 9.241e-10
 21.47717     63.7 1.025e+04 1.145e-09
 21.51652     65.4 1.034e+04 1.433e-09
 21.55587     67.0 1.042e+04 1.737e-09
 21.59521     68.3 1.041e+04 1.924e-09
 21.61739     69.5 1.040e+04 1.924e-09
 21.63706     70.3 1.043e+04 1.942e-09
 21.67391     71.3 1.036e+04 1.827e-09
 21.71325     72.4 1.025e+04 1.687e-09
 21.75179     73.5 1.019e+04 1.686e-09
 21.77146     73.3 1.024e+04 1.690e-09
 21.79195     74.3 1.026e+04 2.064e-09
 21.83130     75.3 1.035e+04 2.691e-09
 21.87064     76.2 1.045e+04 3.380e-09
 21.90999     77.0 1.052e+04 3.827e-09
 21.94934     78.0 1.057e+04 3.905e-09
 21.97875     78.4 1.050e+04 3.703e-09
 21.99833     78.6 1.044e+04 3.586e-09
 22.01744     79.0 1.037e+04 3.542e-09
 22.02727     79.2 1.041e+04 3.583e-09
 22.03439     79.6 1.037e+04 3.552e-09
 22.04423     79.4 1.040e+04 3.666e-09
 22.05735     79.8 1.038e+04 3.664e-09
 22.07702     80.1 1.039e+04 3.745e-09
 22.09670     80.2 1.045e+04 4.056e-09
 22.11637     80.2 1.054e+04 4.693e-09
 22.13604     80.1 1.068e+04 5.729e-09
 22.15572     79.7 1.091e+04 7.342e-09
 22.17539     79.3 1.122e+04 9.671e-09
 22.19506     78.7 1.154e+04 1.244e-08
 22.21474     78.0 1.172e+04 1.394e-08
 22.22740     77.2 1.172e+04 1.385e-08
 22.23723     76.9 1.173e+04 1.411e-08
 22.25408     76.1 1.160e+04 1.313e-08
 22.27376     75.4 1.132e+04 1.107e-08
 22.29343     74.9 1.099e+04 8.903e-09
 22.30735     74.4 1.067e+04 7.182e-09
 22.31719     73.5 1.078e+04 7.854e-09
 22.33278     73.4 1.043e+04 6.037e-09
 22.35245     73.4 1.013e+04 4.643e-09
 22.37213     73.4 9.896e+03 3.483e-09
 22.39180     73.4 9.656e+03 2.614e-09
 22.41147     73.3 9.409e+03 2.267e-09
 22.42752     73.3 9.238e+03 2.146e-09
 22.43745     72.1 9.294e+03 2.278e-09
 22.46085     73.4 9.161e+03 2.221e-09
 22.49027     74.8 9.080e+03 2.212e-09
 22.50984     75.8 9.009e+03 2.343e-09
 22.52952     76.5 9.029e+03 2.727e-09
 22.54919     76.8 9.180e+03 3.350e-09
 22.56886     76.9 9.735e+03 4.193e-09
 22.58031     76.5 1.083e+04 5.037e-09
 22.59015     76.7 9.257e+03 3.390e-09
 22.60821     76.0 9.383e+03 3.469e-09
 22.62764     74.8 9.651e+03 3.692e-09
 22.63748     72.3 1.072e+04 4.737e-09
 22.64756     71.0 1.131e+04 7.132e-09
 22.66723     70.0 1.173e+04 1.119e-08
 22.68691     69.5 1.206e+04 1.644e-08
 22.70658     69.2 1.244e+04 2.234e-08
 22.72625     69.2 1.288e+04 2.802e-08
 22.74593     69.1 1.330e+04 3.195e-08
 22.76560     68.8 1.369e+04 3.394e-08
 22.78527     68.0 1.416e+04 3.588e-08
 22.80495     66.6 1.491e+04 4.102e-08
 22.82462     64.6 1.600e+04 5.483e-08
 22.83760     61.5 1.729e+04 9.507e-08
 22.84658     61.6 1.740e+04 1.164e-07
 22.85327     61.5 1.681e+04 6.204e-08
 22.86397     58.2 1.795e+04 1.263e-07
 22.87867     56.4 1.850e+04 1.911e-07
 22.88846     55.4 1.874e+04 2.428e-07
 22.89830     54.1 1.884e+04 2.514e-07
 22.90814     52.9 1.877e+04 2.429e-07
 22.92294     51.6 1.837e+04 1.826e-07
 22.94266     50.0 1.770e+04 1.177e-07
 22.96234     47.9 1.692e+04 7.840e-08
 22.98201     46.3 1.617e+04 6.020e-08
 23.00168     46.0 1.572e+04 5.212e-08
 23.02136     46.1 1.546e+04 4.595e-08
 23.03773     46.4 1.528e+04 4.045e-08
 23.04756     46.5 1.528e+04 4.458e-08
 23.06070     46.8 1.515e+04 3.908e-08
 23.08038     46.9 1.501e+04 3.493e-08
 23.10005     47.0 1.484e+04 3.118e-08
 23.11639     47.0 1.457e+04 2.671e-08
 23.12623     45.1 1.304e+04 1.680e-08
 23.13940     45.2 1.243e+04 1.291e-08
 23.15907     45.1 1.178e+04 9.562e-09
 23.17875     44.8 1.135e+04 7.359e-09
 23.19842     44.3 1.132e+04 6.893e-09
 23.21809     43.4 1.151e+04 7.683e-09
 23.23777     42.3 1.199e+04 1.085e-08
 23.25744     42.0 1.216e+04 1.299e-08
 23.27712     41.3 1.260e+04 1.792e-08
 23.29679     40.0 1.301e+04 2.007e-08
 23.31646     37.4 1.335e+04 2.119e-08
 23.33614     34.2 1.358e+04 2.404e-08
 23.35581     31.8 1.340e+04 2.359e-08
 23.37548     30.5 1.295e+04 2.058e-08
 23.38935     29.6 1.239e+04 1.444e-08
 23.39919     30.1 1.246e+04 1.578e-08
 23.41483     28.9 1.194e+04 9.000e-09
 23.43450     26.6 1.148e+04 5.049e-09
 23.44781     24.9 1.064e+04 4.217e-09
 23.45764     25.4 1.052e+04 3.461e-09
 23.47385     25.0 1.048e+04 3.495e-09
 23.49353     24.8 1.051e+04 3.775e-09
 23.51320     24.7 1.061e+04 4.584e-09
 23.53287     24.8 1.074e+04 5.737e-09
 23.55255     25.0 1.094e+04 6.913e-09
 23.57222     25.1 1.114e+04 7.686e-09
 23.59189     25.2 1.111e+04 7.534e-09
 23.61157     25.1 1.104e+04 7.045e-09
 23.63124     24.9 1.083e+04 5.898e-09
 23.64793     24.7 1.074e+04 5.457e-09
 23.65786     25.9 1.088e+04 5.918e-09
 23.68062     25.1 1.073e+04 5.610e-09
 23.71997     24.2 1.076e+04 5.803e-09
 23.75931     22.9 1.088e+04 6.236e-09
 23.79866     21.4 1.094e+04 7.445e-09
 23.83801     19.9 1.119e+04 9.553e-09
 23.85799     19.0 1.131e+04 1.109e-08
 23.86773     19.8 1.127e+04 1.045e-08
 23.88700     19.9 1.136e+04 1.102e-08
 23.90667     19.6 1.153e+04 1.253e-08
 23.92543     19.5 1.175e+04 1.422e-08
 23.93537     19.3 1.156e+04 1.363e-08
 23.94612     19.5 1.191e+04 1.585e-08
 23.96569     19.4 1.215e+04 1.790e-08
 23.98537     19.4 1.233e+04 1.970e-08
 24.00504     19.5 1.246e+04 2.105e-08
 24.02471     19.4 1.262e+04 2.223e-08
 24.04439     19.1 1.297e+04 2.470e-08
 24.05801     18.2 1.377e+04 3.134e-08
 24.06785     19.8 1.313e+04 2.248e-08
 24.08373     17.9 1.404e+04 3.007e-08
 24.10341     17.0 1.470e+04 4.859e-08
 24.12308     17.5 1.458e+04 5.524e-08
 24.14276     19.6 1.381e+04 4.428e-08
 24.16243     20.6 1.308e+04 2.683e-08
 24.18210     20.5 1.204e+04 1.267e-08
 24.19839     19.1 1.132e+04 7.442e-09
 24.20823     20.2 1.232e+04 1.215e-08
 24.22145     19.8 1.091e+04 6.605e-09
 24.24112     19.7 1.049e+04 4.963e-09
 24.25814     21.1 9.781e+03 3.576e-09
 24.26797     21.3 9.771e+03 3.482e-09
 24.28047     22.4 9.916e+03 3.229e-09
 24.31008     24.7 9.810e+03 2.352e-09
 24.34952     27.4 9.641e+03 1.800e-09
 24.38887     30.1 9.508e+03 1.389e-09
 24.42822     32.7 9.446e+03 1.198e-09
 24.45845     35.4 9.455e+03 1.154e-09
 24.47227     36.3 9.467e+03 1.084e-09
 24.48138     35.9 9.792e+03 1.953e-09
 24.50691     38.3 9.839e+03 1.831e-09
 24.54626     40.7 9.918e+03 1.734e-09
 24.58561     43.0 9.991e+03 1.686e-09
 24.62496     45.0 1.009e+04 1.829e-09
 24.66430     46.8 1.026e+04 2.334e-09
 24.70365     48.7 1.042e+04 3.101e-09
 24.74300     50.7 1.062e+04 3.687e-09
 24.78235     52.2 1.068e+04 3.673e-09
 24.82169     53.8 1.065e+04 3.398e-09
 24.85870     55.4 1.051e+04 3.220e-09
 24.87837     56.4 1.034e+04 2.956e-09
 24.90039     58.2 1.029e+04 3.036e-09
 24.93973     60.1 1.024e+04 3.373e-09
 24.97908     62.1 1.019e+04 3.835e-09
 25.00763     64.2 1.013e+04 4.331e-09
 25.02730     63.0 1.040e+04 5.682e-09
 25.05778     65.1 1.018e+04 5.343e-09
 25.09712     67.1 9.959e+03 4.857e-09
 25.13647     69.1 9.690e+03 4.315e-09
 25.17582     71.2 9.359e+03 3.650e-09
 25.21517     73.3 9.011e+03 2.909e-09
 25.25451     75.5 8.675e+03 2.233e-09
 25.27862     77.9 8.392e+03 1.682e-09
 25.29829     78.9 8.494e+03 1.860e-09
 25.33321     81.3 8.207e+03 1.250e-09
 25.37255     83.7 7.860e+03 9.986e-10
 25.41190     86.3 7.790e+03 9.964e-10
 25.45125     89.0 7.779e+03 1.032e-09
 25.49060     91.7 7.806e+03 1.206e-09
 25.52994     94.3 8.045e+03 1.619e-09
 25.55355     95.9 8.304e+03 2.190e-09
 25.56329     94.5 8.416e+03 2.266e-09
 25.57893     95.3 8.411e+03 2.373e-09
 25.59861     96.4 8.465e+03 2.698e-09
 25.61828     97.4 8.652e+03 3.389e-09
 25.63795     98.5 8.975e+03 4.553e-09
 25.65763     99.2 9.508e+03 6.478e-09
 25.67730     99.2 1.035e+04 9.936e-09
 25.68851     99.0 1.157e+04 1.686e-08
 25.69834    100.3 1.033e+04 9.645e-09
 25.71665    100.0 1.111e+04 1.501e-08
 25.73632     98.7 1.336e+04 3.116e-08
 25.75103     97.4 1.472e+04 4.990e-08
 25.76082     96.2 1.569e+04 7.160e-08
 25.77065     94.9 1.665e+04 1.020e-07
 25.78049     93.6 1.771e+04 1.458e-07
 25.78847     92.0 1.860e+04 2.098e-07
 25.79339     92.8 1.846e+04 2.016e-07
 25.80016     90.9 1.898e+04 2.983e-07
 25.81000     89.2 1.921e+04 3.773e-07
 25.81984     87.4 1.928e+04 3.810e-07
 25.82622     85.7 1.928e+04 3.449e-07
 25.83113     83.6 1.950e+04 3.017e-07
 25.83951     81.5 1.970e+04 2.044e-07
 25.84935     78.1 1.995e+04 1.376e-07
 25.85918     75.7 1.956e+04 1.004e-07
 25.87399     70.7 1.791e+04 7.039e-08
 25.88863     67.6 1.571e+04 4.869e-08
 25.89847     66.5 1.536e+04 4.605e-08
 25.91339     65.2 1.557e+04 4.785e-08
 25.93306     62.8 1.758e+04 5.769e-08
 25.95273     58.7 2.031e+04 7.089e-08
 25.97241     53.3 1.961e+04 8.546e-08
 25.99208     49.3 1.802e+04 8.734e-08
 26.01175     47.1 1.644e+04 8.190e-08
 26.03143     46.1 1.572e+04 7.091e-08
 26.05110     45.9 1.537e+04 5.289e-08
 26.07077     46.0 1.481e+04 3.410e-08
 26.08875     45.9 1.388e+04 1.999e-08
 26.09758     45.6 1.403e+04 3.351e-08
 26.09927     43.1 1.247e+04 1.288e-08
 26.11012     43.5 1.173e+04 8.915e-09
 26.12980     44.5 1.135e+04 7.517e-09
 26.15940     44.7 1.073e+04 6.709e-09
 26.19885     47.0 1.064e+04 6.865e-09
 26.23820     49.8 1.071e+04 8.073e-09
 26.26761     51.4 1.078e+04 9.189e-09
 26.28718     52.7 1.084e+04 1.015e-08
 26.29871     54.1 1.087e+04 1.081e-08
 26.30855     54.2 1.084e+04 1.017e-08
 26.32653     55.6 1.088e+04 1.084e-08
 26.34621     56.8 1.097e+04 1.130e-08
 26.36240     57.8 1.096e+04 1.128e-08
 26.37223     57.2 1.064e+04 9.630e-09
 26.38555     58.5 1.052e+04 9.315e-09
 26.40523     59.7 1.037e+04 8.765e-09
 26.42490     60.9 1.020e+04 8.061e-09
 26.44457     62.1 1.004e+04 7.425e-09
 26.46425     63.2 9.911e+03 6.881e-09
 26.48392     64.2 9.762e+03 6.428e-09
 26.49883     65.4 9.684e+03 6.209e-09
 26.50867     65.5 9.581e+03 5.972e-09
 26.52327     66.7 9.588e+03 5.967e-09
 26.54294     67.8 9.626e+03 6.048e-09
 26.56262     68.9 9.661e+03 6.192e-09
 26.58229     70.1 9.697e+03 6.363e-09
 26.60196     71.2 9.730e+03 6.469e-09
 26.62164     72.2 9.730e+03 6.464e-09
 26.63536     73.2 9.703e+03 6.397e-09
 26.64519     72.3 9.211e+03 4.599e-09
 26.66098     73.2 9.131e+03 4.510e-09
 26.68066     74.1 9.035e+03 4.372e-09
 26.69896     75.0 8.950e+03 4.274e-09
 26.70879     75.1 9.268e+03 5.353e-09
 26.72001     75.9 9.252e+03 5.364e-09
 26.73968     76.7 9.263e+03 5.391e-09
 26.75935     77.4 9.310e+03 5.485e-09
 26.77903     77.9 9.392e+03 5.739e-09
 26.79870     78.4 9.517e+03 6.265e-09
 26.81837     78.8 9.725e+03 7.177e-09
 26.83805     79.1 9.985e+03 8.360e-09
 26.85772     79.3 1.032e+04 1.006e-08
 26.87739     79.3 1.068e+04 1.232e-08
 26.89707     79.2 1.112e+04 1.489e-08
 26.90831     79.1 1.156e+04 1.737e-08
 26.91033     78.7 1.201e+04 2.385e-08
 26.91875     78.5 1.195e+04 1.917e-08
 26.93642     77.9 1.223e+04 1.965e-08
 26.95609     76.9 1.223e+04 1.936e-08
 26.97576     75.7 1.209e+04 1.758e-08
 26.99544     74.4 1.165e+04 1.434e-08
 27.01511     73.0 1.102e+04 1.079e-08
 27.03478     71.6 1.033e+04 7.690e-09
 27.05446     69.9 9.697e+03 5.682e-09
 27.07413     68.1 9.600e+03 5.454e-09
 27.09380     66.3 9.702e+03 5.724e-09
 27.10904     64.3 1.005e+04 7.099e-09
 27.11888     63.2 1.026e+04 7.298e-09
 27.13315     61.2 1.102e+04 1.141e-08
 27.15283     59.8 1.192e+04 1.808e-08
 27.17144     58.5 1.287e+04 2.549e-08
 27.18127     57.5 1.168e+04 1.554e-08
 27.19217     55.4 1.248e+04 1.841e-08
 27.21185     51.0 1.382e+04 2.252e-08
 27.22655     46.6 1.519e+04 2.912e-08
 27.23634     43.3 1.571e+04 3.456e-08
 27.24618     40.1 1.620e+04 4.411e-08
 27.25601     37.1 1.670e+04 6.056e-08
 27.26585     34.4 1.730e+04 8.952e-08
 27.27569     31.9 1.830e+04 1.469e-07
 27.28553     29.3 1.924e+04 2.795e-07
 27.29536     27.0 1.905e+04 7.338e-07
 27.30520     26.1 1.801e+04 2.369e-06
 27.31274     24.1 1.749e+04 4.988e-06
 27.31660     22.7 1.834e+04 1.542e-06
 27.31890     23.5 1.835e+04 1.611e-06
 27.32487     21.8 1.838e+04 1.533e-06
 27.33471     21.4 1.848e+04 9.901e-07
 27.34455     21.1 1.872e+04 4.539e-07
 27.35438     19.1 1.889e+04 2.285e-07
 27.36422     16.4 1.808e+04 1.246e-07
 27.37406     15.1 1.740e+04 1.079e-07
 27.38886     12.4 1.688e+04 8.687e-08
 27.40858      9.8 1.645e+04 7.883e-08
 27.42826      4.8 1.740e+04 1.024e-07
 27.44296      0.8 1.798e+04 1.477e-07
 27.44922     -0.3 1.815e+04 1.679e-07
 27.45419      1.8 1.763e+04 1.341e-07
 27.46760     -2.0 1.782e+04 1.597e-07
 27.48728     -5.0 1.739e+04 1.162e-07
 27.50695     -9.4 1.631e+04 5.756e-08
 27.51912    -14.7 1.406e+04 2.963e-08
 27.52896    -15.7 1.329e+04 2.385e-08
 27.54630    -17.7 1.226e+04 1.601e-08
 27.56597    -19.1 1.177e+04 1.338e-08
 27.58565    -19.9 1.193e+04 1.312e-08
 27.60532    -22.4 1.296e+04 1.643e-08
 27.62499    -25.4 1.375e+04 2.506e-08
 27.64467    -27.6 1.432e+04 3.822e-08
 27.66434    -28.9 1.477e+04 4.847e-08
 27.68401    -30.9 1.462e+04 4.764e-08
 27.70369    -32.8 1.362e+04 3.044e-08
 27.71736    -35.5 1.209e+04 1.489e-08
 27.72308    -34.9 1.214e+04 1.553e-08
 27.72908    -32.2 1.273e+04 2.082e-08
 27.74304    -35.4 1.100e+04 8.966e-09
 27.76271    -38.6 9.832e+03 5.128e-09
 27.78238    -40.2 9.370e+03 4.301e-09
 27.80206    -41.0 9.258e+03 4.146e-09
 27.82173    -41.7 9.231e+03 4.184e-09
 27.84140    -42.4 9.210e+03 4.781e-09
 27.86108    -42.8 9.300e+03 5.575e-09
 27.88075    -43.2 9.429e+03 6.296e-09
 27.90042    -43.6 9.576e+03 6.849e-09
 27.91937    -44.2 9.596e+03 6.957e-09
 27.92920    -42.9 9.669e+03 7.097e-09
 27.93977    -43.6 9.703e+03 7.113e-09
 27.96938    -45.0 9.194e+03 6.281e-09
 28.00883    -46.3 8.888e+03 5.581e-09
 28.04817    -47.8 8.858e+03 5.361e-09
 28.08752    -49.7 9.335e+03 6.216e-09
 28.11969    -51.7 9.835e+03 7.739e-09
 28.13926    -49.6 9.500e+03 6.773e-09
 28.15618    -51.3 9.693e+03 7.889e-09
 28.17586    -52.4 9.869e+03 8.450e-09
 28.19553    -53.9 9.933e+03 8.625e-09
 28.21520    -55.4 9.906e+03 8.505e-09
 28.23488    -56.7 9.783e+03 8.114e-09
 28.25344    -57.9 9.643e+03 7.775e-09
 28.26328    -57.9 9.541e+03 7.565e-09
 28.27422    -58.9 9.495e+03 7.485e-09
 28.29390    -59.7 9.493e+03 7.594e-09
 28.31357    -60.4 9.586e+03 8.063e-09
 28.32945    -61.1 9.706e+03 8.574e-09
 28.33929    -60.6 9.625e+03 8.388e-09
 28.35292    -61.4 9.626e+03 8.341e-09
 28.37259    -61.9 9.698e+03 8.400e-09
 28.39227    -62.4 9.724e+03 8.373e-09
 28.41194    -62.7 9.735e+03 8.388e-09
 28.43161    -62.9 9.751e+03 8.412e-09
 28.45129    -62.9 9.768e+03 8.389e-09
 28.47096    -62.9 9.792e+03 8.174e-09
 28.49063    -62.9 9.818e+03 8.033e-09
 28.51031    -63.0 9.896e+03 7.997e-09
 28.52640    -63.1 1.001e+04 8.195e-09
 28.53583    -63.0 1.025e+04 9.945e-09
 28.53941    -62.5 1.069e+04 1.250e-08
 28.54966    -62.7 1.095e+04 1.328e-08
 28.56933    -63.0 1.115e+04 1.379e-08
 28.58900    -63.3 1.127e+04 1.405e-08
 28.60868    -63.8 1.138e+04 1.432e-08
 28.62835    -66.0 1.204e+04 1.575e-08
 28.64802    -71.8 1.482e+04 2.802e-08
 28.66770    -77.4 1.673e+04 7.201e-08
 28.68737    -80.9 1.755e+04 1.405e-07
 28.70704    -83.7 1.772e+04 1.658e-07
 28.72672    -86.1 1.699e+04 1.353e-07
 28.73953    -88.2 1.519e+04 5.204e-08
 28.74440    -87.7 1.512e+04 4.956e-08
 28.75121    -89.2 1.420e+04 2.797e-08
 28.76602    -91.9 1.268e+04 1.402e-08
 28.78574    -95.3 1.044e+04 5.690e-09
 28.79936    -96.2 9.613e+03 4.206e-09
 28.80920    -96.2 9.553e+03 4.075e-09
 28.82509    -96.3 9.227e+03 3.615e-09
 28.84476    -95.9 9.000e+03 3.292e-09
 28.86443    -95.1 8.805e+03 3.006e-09
 28.88411    -94.5 8.706e+03 2.827e-09
 28.91372    -94.1 8.565e+03 2.608e-09
 28.93985    -92.7 8.139e+03 2.100e-09
 28.95952    -93.0 8.341e+03 2.355e-09
 28.99251    -91.0 7.829e+03 1.576e-09
 29.03186    -88.6 7.380e+03 1.074e-09
 29.07120    -86.2 7.125e+03 8.167e-10
 29.11055    -83.9 6.992e+03 7.006e-10
 29.14990    -81.5 6.896e+03 6.487e-10
 29.18924    -79.1 6.824e+03 6.066e-10
 29.22859    -76.7 6.770e+03 5.711e-10
 29.26794    -74.4 6.699e+03 5.486e-10
 29.30729    -72.2 6.680e+03 5.380e-10
 29.33564    -70.1 6.679e+03 5.383e-10
 29.34877    -69.5 6.780e+03 5.689e-10
 29.35977    -69.3 6.799e+03 5.820e-10
 29.38598    -67.2 6.840e+03 6.142e-10
 29.42533    -65.2 6.901e+03 6.476e-10
 29.46468    -63.3 6.965e+03 6.706e-10
 29.50402    -61.6 7.017e+03 6.929e-10
 29.54337    -60.1 7.078e+03 7.504e-10
 29.58272    -58.6 7.141e+03 8.748e-10
 29.62207    -57.3 7.251e+03 1.008e-09
 29.66141    -56.0 7.344e+03 1.067e-09
 29.70076    -55.0 7.379e+03 1.065e-09
 29.74011    -54.1 7.379e+03 1.011e-09
 29.76002    -53.5 7.357e+03 9.903e-10
 29.77969    -53.2 7.452e+03 9.576e-10
 29.81880    -52.8 7.454e+03 9.695e-10
 29.85815    -52.6 7.694e+03 1.262e-09
 29.88156    -52.4 7.978e+03 1.823e-09
 29.90123    -51.5 8.142e+03 1.888e-09
 29.93684    -51.3 8.408e+03 2.347e-09
 29.97619    -52.6 9.228e+03 3.380e-09
 30.00560    -55.5 1.019e+04 5.709e-09
 30.02518    -57.9 1.107e+04 9.957e-09
 30.04485    -59.9 1.182e+04 1.684e-08
 30.06453    -60.9 1.255e+04 2.560e-08
 30.08420    -61.7 1.276e+04 2.854e-08
 30.10387    -62.2 1.260e+04 2.708e-08
 30.12355    -62.2 1.193e+04 1.796e-08
 30.14322    -62.4 1.117e+04 1.071e-08
 30.15432    -62.5 1.062e+04 6.982e-09
 30.16133    -62.3 1.080e+04 7.118e-09
 30.16990    -61.8 1.104e+04 8.040e-09
 30.18257    -61.9 1.056e+04 5.762e-09
 30.20224    -61.3 1.013e+04 4.559e-09
 30.22192    -60.3 9.882e+03 3.748e-09
 30.24159    -59.4 9.759e+03 3.221e-09
 30.26126    -58.4 9.670e+03 3.054e-09
 30.29087    -57.1 9.636e+03 3.069e-09
 30.33032    -55.3 9.570e+03 2.962e-09
 30.36966    -53.7 9.570e+03 3.011e-09
 30.40780    -52.5 9.819e+03 4.111e-09
 30.42747    -52.0 9.620e+03 3.241e-09
 30.44836    -50.9 9.959e+03 4.779e-09
 30.48771    -49.9 1.039e+04 7.356e-09
 30.52705    -48.9 1.064e+04 9.010e-09
 30.56051    -48.2 1.064e+04 9.103e-09
 30.58018    -48.8 1.061e+04 9.280e-09
 30.60575    -47.8 1.021e+04 7.054e-09
 30.64510    -46.5 9.972e+03 5.278e-09
 30.68444    -45.2 9.941e+03 4.818e-09
 30.72379    -43.9 1.009e+04 4.907e-09
 30.76314    -42.7 1.033e+04 5.674e-09
 30.80248    -41.5 1.046e+04 6.053e-09
 30.84183    -40.5 1.046e+04 6.021e-09
 30.88118    -39.3 1.035e+04 5.413e-09
 30.92053    -37.9 1.014e+04 4.503e-09
 30.95372    -36.3 9.986e+03 3.884e-09
 30.97339    -35.1 1.005e+04 2.604e-09
 30.98043    -33.7 1.007e+04 2.056e-09
 31.00010    -33.1 9.908e+03 3.001e-09
 31.03857    -31.4 9.929e+03 2.723e-09
 31.07792    -29.7 1.007e+04 2.771e-09
 31.11726    -28.4 1.037e+04 3.749e-09
 31.15661    -26.8 1.067e+04 5.778e-09
 31.19596    -25.2 1.108e+04 7.824e-09
 31.22537    -24.6 1.133e+04 9.136e-09
 31.23632    -24.1 1.142e+04 9.492e-09
 31.24616    -24.0 1.181e+04 1.100e-08
 31.26462    -24.4 1.250e+04 1.219e-08
 31.28429    -25.8 1.289e+04 1.735e-08
 31.30397    -26.2 1.305e+04 2.630e-08
 31.32364    -25.0 1.311e+04 3.336e-08
 31.34331    -23.5 1.305e+04 3.441e-08
 31.36299    -22.1 1.252e+04 2.825e-08
 31.38048    -21.2 1.198e+04 1.873e-08
 31.39031    -22.4 1.216e+04 1.839e-08
 31.40234    -22.7 1.177e+04 1.267e-08
 31.42201    -22.7 1.152e+04 1.049e-08
 31.44168    -22.2 1.130e+04 9.668e-09
 31.46136    -21.5 1.110e+04 9.387e-09
 31.48103    -20.6 1.101e+04 9.535e-09
 31.49954    -19.5 1.111e+04 9.766e-09
 31.50938    -19.7 1.137e+04 1.262e-08
 31.52038    -18.8 1.120e+04 1.358e-08
 31.54999    -17.0 1.145e+04 1.557e-08
 31.58943    -15.1 1.155e+04 1.592e-08
 31.61884    -14.1 1.208e+04 1.834e-08
 31.63842    -13.3 1.203e+04 1.871e-08
 31.65809    -11.9 1.252e+04 2.071e-08
 31.67777    -11.3 1.295e+04 2.095e-08
 31.69744    -11.9 1.362e+04 2.321e-08
 31.71711    -14.7 1.432e+04 3.683e-08
 31.73679    -16.7 1.448e+04 6.823e-08
 31.75646    -15.2 1.528e+04 1.235e-07
 31.77240    -13.8 1.587e+04 1.547e-07
 31.78224    -12.7 1.547e+04 1.393e-07
 31.79056    -12.5 1.510e+04 9.287e-08
 31.80040    -13.0 1.437e+04 5.633e-08
 31.81548    -15.0 1.361e+04 2.633e-08
 31.83516    -17.8 1.266e+04 1.602e-08
 31.85483    -18.8 1.200e+04 1.268e-08
 31.87450    -18.6 1.174e+04 1.157e-08
 31.89418    -18.0 1.153e+04 1.033e-08
 31.91385    -17.3 1.152e+04 9.151e-09
 31.94346    -16.6 1.137e+04 8.111e-09
 31.98290    -14.9 1.119e+04 7.434e-09
 32.02225    -13.7 1.148e+04 8.260e-09
 32.04556    -13.0 1.166e+04 1.187e-08
 32.06523    -12.7 1.109e+04 9.515e-09
 32.09101    -12.0 1.170e+04 1.590e-08
 32.11059    -11.3 1.190e+04 1.837e-08
 32.13026    -10.4 1.216e+04 2.047e-08
 32.14993     -9.5 1.252e+04 2.085e-08
 32.16961     -9.7 1.276e+04 1.980e-08
 32.18928    -10.4 1.270e+04 1.978e-08
 32.20064    -10.8 1.227e+04 2.142e-08
 32.21048    -12.0 1.177e+04 2.198e-08
 32.22863    -10.7 1.164e+04 2.348e-08
 32.24830     -9.4 1.173e+04 2.307e-08
 32.26798     -8.6 1.183e+04 2.162e-08
 32.28765     -8.3 1.184e+04 2.110e-08
 32.30732     -7.9 1.163e+04 2.116e-08
 32.31832     -6.9 1.144e+04 2.134e-08
 32.32816     -7.1 1.042e+04 1.162e-08
 32.34667     -6.1 1.048e+04 1.028e-08
 32.36634     -5.4 1.056e+04 9.236e-09
 32.38602     -5.0 1.059e+04 8.364e-09
 32.40076     -4.7 1.029e+04 8.175e-09
 32.41060     -5.5 9.813e+03 6.204e-09
 32.42537     -4.5 9.628e+03 6.082e-09
 32.44504     -3.2 9.409e+03 6.244e-09
 32.46471     -2.8 9.314e+03 5.971e-09
 32.49432     -0.4 9.216e+03 5.951e-09
 32.53377      1.7 8.902e+03 5.062e-09
 32.57180      4.1 8.740e+03 4.933e-09
 32.59148      4.3 8.591e+03 4.197e-09
 32.60108      7.1 8.661e+03 4.244e-09
 32.62076      6.7 8.271e+03 3.192e-09
 32.65181      9.3 8.305e+03 3.249e-09
 32.69116     11.7 8.404e+03 3.455e-09
 32.73050     13.6 8.803e+03 4.343e-09
 32.76985     15.0 9.635e+03 6.981e-09
 32.80920     16.5 1.048e+04 1.036e-08
 32.84854     17.2 1.060e+04 1.033e-08
 32.87796     17.9 1.040e+04 8.623e-09
 32.89753     17.8 1.021e+04 7.736e-09
 32.91721     18.1 9.841e+03 6.502e-09
 32.93688     18.3 9.634e+03 5.783e-09
 32.95655     18.6 9.545e+03 5.738e-09
 32.97623     18.9 9.564e+03 5.964e-09
 32.99590     19.2 9.817e+03 7.126e-09
 33.01097     19.1 1.052e+04 1.009e-08
 33.02081     19.2 1.047e+04 1.007e-08
 33.03525     19.4 1.118e+04 1.461e-08
 33.05492     19.9 1.167e+04 2.023e-08
 33.07460     20.6 1.201e+04 2.386e-08
 33.09427     21.4 1.197e+04 2.265e-08
 33.11394     22.1 1.178e+04 1.867e-08
 33.12736     21.8 1.163e+04 1.386e-08
 33.13720     21.9 1.159e+04 1.637e-08
 33.15329     21.7 1.154e+04 1.358e-08
 33.17296     20.9 1.158e+04 1.243e-08
 33.19264     19.7 1.181e+04 1.332e-08
 33.21109     18.9 1.212e+04 1.624e-08
 33.22093     19.7 1.200e+04 1.489e-08
 33.23199     19.5 1.208e+04 1.660e-08
 33.25166     19.4 1.211e+04 1.665e-08
 33.27133     19.0 1.217e+04 1.543e-08
 33.29101     18.0 1.257e+04 1.350e-08
 33.31068     16.8 1.274e+04 1.258e-08
 33.33035     15.9 1.259e+04 1.254e-08
 33.35003     15.3 1.274e+04 1.318e-08
 33.36970     14.7 1.314e+04 1.489e-08
 33.38938     14.4 1.324e+04 1.749e-08
 33.40032     14.5 1.316e+04 2.006e-08
 33.41016     16.1 1.272e+04 1.127e-08
 33.42105     16.0 1.276e+04 1.221e-08
 33.43089     16.9 1.291e+04 1.179e-08
 33.44840     16.5 1.304e+04 1.416e-08
 33.46807     15.8 1.331e+04 1.786e-08
 33.48774     15.1 1.398e+04 2.405e-08
 33.50742     13.9 1.526e+04 3.471e-08
 33.52709     12.3 1.728e+04 5.258e-08
 33.54676     10.8 1.893e+04 8.130e-08
 33.56644      9.3 1.943e+04 1.169e-07
 33.58611      7.9 1.867e+04 1.360e-07
 33.60579      7.3 1.728e+04 1.129e-07
 33.62117      7.0 1.611e+04 8.664e-08
 33.63101      6.1 1.573e+04 6.109e-08
 33.64513      6.1 1.414e+04 2.929e-08
 33.66345      6.4 1.269e+04 1.307e-08
 33.67328      8.0 1.335e+04 2.113e-08
 33.68448      7.4 1.202e+04 1.019e-08
 33.70415      7.1 1.119e+04 5.931e-09
 33.72383      7.3 1.044e+04 4.714e-09
 33.74350      8.6 1.007e+04 4.442e-09
 33.76317      9.9 1.004e+04 4.461e-09
 33.79278     13.7 1.032e+04 5.588e-09
 33.82140     16.2 9.900e+03 3.936e-09
 33.83113     15.0 9.346e+03 2.502e-09
 33.84187     15.5 9.447e+03 2.570e-09
 33.87148     18.4 9.389e+03 2.638e-09
 33.91092     21.3 9.417e+03 2.651e-09
 33.95027     24.0 9.528e+03 2.798e-09
 33.98962     26.4 9.711e+03 3.158e-09
 34.02896     28.5 9.975e+03 3.974e-09
 34.05838     29.9 1.010e+04 4.810e-09
 34.07795     30.8 1.031e+04 5.573e-09
 34.09763     31.5 1.037e+04 5.885e-09
 34.11730     32.3 1.050e+04 5.957e-09
 34.13697     33.1 1.050e+04 5.794e-09
 34.15665     33.7 1.050e+04 5.622e-09
 34.17632     34.5 1.038e+04 5.299e-09
 34.19600     35.1 1.029e+04 5.127e-09
 34.20937     35.8 1.017e+04 4.944e-09
 34.21920     36.8 1.051e+04 6.708e-09
 34.23138     37.4 1.042e+04 6.623e-09
 34.24122     37.8 1.027e+04 5.882e-09
 34.25502     38.6 1.011e+04 5.683e-09
 34.27469     39.2 9.954e+03 5.490e-09
 34.29436     39.8 9.779e+03 5.165e-09
 34.31404     40.5 9.673e+03 4.814e-09
 34.33371     40.9 9.585e+03 4.512e-09
 34.35338     41.4 9.513e+03 4.208e-09
 34.37306     41.7 9.464e+03 3.957e-09
 34.39273     41.9 9.389e+03 3.768e-09
 34.41241     42.1 9.331e+03 3.684e-09
 34.43150     42.3 9.275e+03 3.714e-09
 34.44134     42.6 9.519e+03 4.548e-09
 34.45175     42.8 9.477e+03 4.500e-09
 34.47143     42.9 9.427e+03 4.475e-09
 34.50103     43.9 9.167e+03 3.833e-09
 34.54048     44.9 9.066e+03 3.690e-09
 34.57983     46.0 9.052e+03 3.709e-09
 34.61917     47.4 8.991e+03 3.661e-09
 34.64166     49.1 8.926e+03 3.635e-09
 34.66133     48.9 8.841e+03 3.200e-09
 34.69787     50.9 8.809e+03 3.106e-09
 34.73581     52.9 8.840e+03 3.157e-09
 34.75548     54.0 8.896e+03 3.691e-09
 34.76663     55.0 8.894e+03 3.673e-09
 34.78620     55.6 8.904e+03 3.676e-09
 34.80588     56.7 8.897e+03 3.676e-09
 34.82555     57.1 8.890e+03 3.648e-09
 34.85516     58.8 8.864e+03 3.612e-09
 34.89461     60.3 8.661e+03 3.005e-09
 34.93395     61.8 8.349e+03 2.200e-09
 34.97330     63.1 8.059e+03 1.575e-09
 35.01265     64.3 7.881e+03 1.261e-09
 35.04190     65.8 7.887e+03 1.176e-09
 35.06158     66.0 7.823e+03 1.018e-09
 35.09134     67.6 7.861e+03 9.621e-10
 35.13069     69.4 7.926e+03 9.298e-10
 35.17004     71.3 8.048e+03 9.189e-10
 35.20938     73.0 8.193e+03 1.005e-09
 35.24873     74.7 8.374e+03 1.266e-09
 35.28173     76.4 8.613e+03 1.792e-09
 35.30140     76.6 8.124e+03 8.280e-10
 35.32743     78.3 8.287e+03 1.117e-09
 35.36677     79.9 8.504e+03 1.641e-09
 35.40612     81.4 8.941e+03 2.495e-09
 35.44215     82.8 9.480e+03 3.654e-09
 35.46182     83.6 9.339e+03 3.346e-09
 35.48482     85.3 9.795e+03 4.481e-09
 35.51423     85.3 1.014e+04 5.348e-09
 35.53380     85.7 1.029e+04 5.755e-09
 35.55348     86.4 1.030e+04 5.474e-09
 35.56433     87.1 1.022e+04 5.067e-09
 35.57416     87.7 1.013e+04 4.928e-09
 35.59282     88.5 1.008e+04 4.757e-09
 35.61250     89.2 1.020e+04 4.421e-09
 35.63217     90.0 1.019e+04 4.109e-09
 35.65185     91.0 1.014e+04 3.899e-09
 35.67152     92.6 1.032e+04 4.492e-09
 35.69119     93.7 1.034e+04 4.508e-09
 35.71087     94.7 1.044e+04 4.631e-09
 35.73054     95.6 1.061e+04 5.051e-09
 35.75021     96.5 1.085e+04 5.908e-09
 35.76989     97.3 1.117e+04 7.415e-09
 35.78956     97.8 1.163e+04 1.015e-08
 35.80924     98.3 1.227e+04 1.593e-08
 35.82745     98.8 1.301e+04 2.437e-08
 35.83729     99.2 1.365e+04 3.080e-08
 35.84858     99.8 1.476e+04 5.734e-08
 35.86187    100.0 1.560e+04 6.547e-08
 35.87171    101.1 1.637e+04 1.008e-07
 35.88793    100.7 1.652e+04 9.970e-08
 35.90760     99.8 1.631e+04 7.638e-08
 35.92728     97.9 1.544e+04 4.022e-08
 35.94695     94.8 1.371e+04 1.798e-08
 35.96662     91.5 1.198e+04 1.197e-08
 35.98630     90.4 1.161e+04 1.150e-08
 36.00597     90.3 1.153e+04 1.140e-08
 36.02565     90.2 1.146e+04 1.116e-08
 36.04532     90.2 1.133e+04 1.044e-08
 36.06200     90.0 1.114e+04 9.266e-09
 36.07183     89.5 1.124e+04 9.743e-09
 36.08467     89.3 1.109e+04 8.781e-09
 36.10041     88.9 1.093e+04 7.964e-09
 36.11025     89.0 1.113e+04 8.995e-09
 36.12401     88.8 1.098e+04 8.348e-09
 36.14369     88.6 1.085e+04 7.959e-09
 36.16336     88.3 1.074e+04 7.745e-09
 36.18303     88.1 1.066e+04 7.624e-09
 36.20271     87.8 1.055e+04 7.512e-09
 36.22238     87.6 1.042e+04 7.358e-09
 36.24206     87.5 1.031e+04 7.162e-09
 36.26173     87.4 1.022e+04 6.939e-09
 36.27196     87.2 1.012e+04 6.729e-09
 36.28179     86.3 9.850e+03 5.507e-09
 36.30108     86.1 9.769e+03 5.489e-09
 36.32075     85.9 9.742e+03 5.573e-09
 36.34042     85.7 9.729e+03 5.775e-09
 36.36010     85.5 9.732e+03 6.075e-09
 36.37337     85.4 9.709e+03 6.448e-09
 36.38321     86.0 1.027e+04 8.010e-09
 36.39944     85.9 1.020e+04 8.297e-09
 36.41912     85.8 1.021e+04 8.938e-09
 36.43879     85.5 1.041e+04 1.025e-08
 36.45847     85.1 1.079e+04 1.245e-08
 36.47208     85.0 1.130e+04 1.551e-08
 36.48192     84.1 1.142e+04 1.613e-08
 36.49781     84.1 1.190e+04 1.981e-08
 36.51749     84.5 1.224e+04 2.291e-08
 36.53716     85.0 1.236e+04 2.392e-08
 36.55683     85.6 1.236e+04 2.382e-08
 36.57651     86.4 1.230e+04 2.338e-08
 36.59618     87.3 1.226e+04 2.307e-08
 36.61586     88.3 1.230e+04 2.332e-08
 36.63553     89.1 1.256e+04 2.515e-08
 36.64633     89.6 1.305e+04 2.982e-08
 36.65617     89.4 1.282e+04 2.611e-08
 36.67220     89.9 1.353e+04 3.376e-08
 36.68204     88.6 1.356e+04 3.450e-08
 36.69455     89.0 1.439e+04 4.660e-08
 36.71422     89.2 1.517e+04 6.273e-08
 36.73390     89.3 1.577e+04 7.767e-08
 36.75357     88.9 1.587e+04 7.849e-08
 36.77324     88.3 1.571e+04 7.328e-08
 36.79292     87.9 1.500e+04 5.625e-08
 36.81259     87.5 1.382e+04 3.606e-08
 36.83227     86.6 1.238e+04 2.095e-08
 36.85194     85.3 1.098e+04 1.249e-08
 36.87161     84.0 1.023e+04 9.329e-09
 36.88216     83.7 1.018e+04 9.072e-09
 36.89200     82.7 9.903e+03 7.747e-09
 36.90945     82.9 9.932e+03 7.856e-09
 36.91929     82.9 1.003e+04 8.348e-09
 36.93063     83.2 1.013e+04 8.641e-09
 36.95031     83.3 1.044e+04 9.731e-09
 36.96998     83.2 1.087e+04 1.172e-08
 36.98965     83.1 1.135e+04 1.439e-08
 37.00933     82.7 1.193e+04 1.750e-08
 37.02900     81.4 1.274e+04 2.111e-08
 37.04868     78.6 1.379e+04 2.364e-08
 37.06835     73.9 1.646e+04 3.234e-08
 37.08223     70.3 1.720e+04 2.535e-08
 37.08710     70.8 1.766e+04 2.800e-08
 37.09284     67.8 1.842e+04 3.765e-08
 37.10268     66.8 1.910e+04 4.616e-08
 37.11252     63.8 1.979e+04 6.541e-08
 37.12235     61.4 2.192e+04 8.969e-08
 37.13219     58.4 2.249e+04 2.009e-07
 37.14203     55.3 2.111e+04 5.964e-07
 37.15186     52.4 1.940e+04 1.460e-06
 37.16170     49.9 1.850e+04 2.426e-06
 37.17154     48.0 1.818e+04 2.970e-06
 37.18138     46.8 1.815e+04 2.902e-06
 37.18717     46.5 1.833e+04 2.304e-06
 37.18810     47.6 1.858e+04 1.672e-06
 37.19215     49.5 1.879e+04 1.275e-06
 37.20105     49.2 1.872e+04 1.206e-06
 37.21089     49.7 1.866e+04 9.422e-07
 37.22072     50.8 1.858e+04 7.247e-07
 37.23056     52.1 1.841e+04 5.232e-07
 37.24040     53.3 1.833e+04 3.244e-07
 37.25023     53.9 1.820e+04 1.810e-07
 37.26007     54.5 1.765e+04 9.142e-08
 37.26991     54.4 1.681e+04 5.066e-08
 37.27974     55.2 1.584e+04 3.054e-08
 37.28723     55.1 1.539e+04 2.622e-08
 37.29215     54.6 1.483e+04 2.088e-08
 37.30438     56.9 1.447e+04 1.772e-08
 37.32411     57.8 1.336e+04 1.009e-08
 37.34378     58.5 1.233e+04 6.093e-09
 37.36345     59.6 1.165e+04 4.623e-09
 37.38313     61.5 1.150e+04 4.347e-09
 37.40280     63.6 1.154e+04 4.308e-09
 37.42248     65.4 1.154e+04 4.275e-09
 37.44215     67.3 1.150e+04 4.199e-09
 37.45537     69.3 1.145e+04 4.160e-09
 37.46521     69.7 1.153e+04 4.120e-09
 37.48150     71.5 1.154e+04 4.135e-09
 37.49237     73.1 1.154e+04 4.155e-09
 37.50220     73.2 1.159e+04 3.947e-09
 37.52084     74.8 1.159e+04 4.031e-09
 37.54052     76.3 1.158e+04 4.062e-09
 37.56019     77.8 1.158e+04 4.048e-09
 37.57986     79.3 1.155e+04 3.958e-09
 37.59954     80.8 1.152e+04 3.775e-09
 37.61921     82.2 1.151e+04 3.536e-09
 37.63889     83.9 1.154e+04 3.266e-09
 37.65856     85.0 1.159e+04 3.028e-09
 37.68817     87.6 1.151e+04 2.850e-09
 37.72761     90.4 1.143e+04 2.733e-09
 37.76696     93.2 1.141e+04 2.970e-09
 37.80631     96.2 1.139e+04 3.459e-09
 37.83572     97.9 1.121e+04 3.472e-09
 37.85530     99.1 1.116e+04 3.727e-09
 37.87497    100.3 1.113e+04 3.991e-09
 37.89261    101.6 1.110e+04 4.226e-09
 37.90245    101.7 1.117e+04 4.710e-09
 37.91432    103.0 1.116e+04 4.938e-09
 37.93399    104.4 1.114e+04 5.141e-09
 37.95366    105.7 1.113e+04 5.308e-09
 37.97334    106.9 1.116e+04 5.484e-09
 37.99145    107.9 1.123e+04 5.763e-09
 38.00129    108.7 1.107e+04 5.418e-09
 38.01268    109.7 1.119e+04 5.762e-09
 38.03236    110.6 1.136e+04 6.495e-09
 38.05203    111.3 1.159e+04 7.715e-09
 38.07171    112.0 1.185e+04 9.356e-09
 38.09138    112.7 1.208e+04 1.116e-08
 38.10257    113.4 1.226e+04 1.263e-08
 38.11241    113.6 1.248e+04 1.456e-08
 38.13073    114.2 1.256e+04 1.581e-08
 38.15040    114.8 1.252e+04 1.587e-08
 38.17007    115.5 1.247e+04 1.551e-08
 38.18975    116.2 1.230e+04 1.367e-08
 38.20942    116.9 1.208e+04 1.108e-08
 38.22910    117.4 1.183e+04 8.827e-09
 38.24877    117.7 1.162e+04 7.640e-09
 38.26441    118.0 1.160e+04 7.639e-09
 38.27425    119.3 1.190e+04 9.850e-09
 38.28812    119.3 1.191e+04 1.001e-08
 38.30269    119.3 1.195e+04 1.093e-08
 38.31253    119.5 1.184e+04 1.050e-08
 38.32746    119.5 1.194e+04 1.245e-08
 38.34714    119.5 1.211e+04 1.530e-08
 38.36681    119.5 1.229e+04 1.823e-08
 38.38648    119.5 1.238e+04 2.010e-08
 38.40616    119.4 1.237e+04 2.016e-08
 38.42583    119.1 1.229e+04 1.951e-08
 38.44551    118.7 1.206e+04 1.758e-08
 38.46518    118.2 1.178e+04 1.528e-08
 38.48485    117.4 1.150e+04 1.366e-08
 38.50282    116.7 1.128e+04 1.296e-08
 38.51265    117.8 1.085e+04 9.874e-09
 38.52420    117.2 1.078e+04 9.903e-09
 38.53737    116.8 1.073e+04 1.005e-08
 38.54721    117.8 1.111e+04 1.221e-08
 38.56355    117.4 1.105e+04 1.244e-08
 38.58322    117.1 1.089e+04 1.181e-08
 38.60289    116.8 1.070e+04 1.012e-08
 38.62257    116.0 1.030e+04 6.201e-09
 38.64224    115.5 9.979e+03 4.741e-09
 38.67185    115.4 9.418e+03 2.894e-09
 38.70314    115.4 8.437e+03 1.858e-09
 38.72281    117.7 9.677e+03 3.936e-09
 38.75064    118.0 9.076e+03 3.005e-09
 38.78999    118.6 8.946e+03 2.897e-09
 38.82934    119.5 8.990e+03 3.014e-09
 38.86868    120.7 9.142e+03 3.405e-09
 38.89810    121.1 9.139e+03 3.514e-09
 38.91290    121.4 9.194e+03 3.740e-09
 38.92274    121.6 9.242e+03 3.976e-09
 38.93735    122.0 9.331e+03 4.402e-09
 38.95702    122.6 9.424e+03 4.821e-09
 38.97669    123.3 9.529e+03 5.087e-09
 38.99637    123.8 9.555e+03 5.098e-09
 39.01604    124.5 9.547e+03 5.016e-09
 39.03571    125.0 9.529e+03 4.706e-09
 39.06372    125.6 9.406e+03 3.770e-09
 39.08339    125.5 9.347e+03 3.633e-09
 39.10328    126.4 9.179e+03 2.953e-09
 39.12296    127.3 9.209e+03 3.006e-09
 39.14402    128.1 9.047e+03 2.816e-09
 39.18346    129.5 8.702e+03 2.378e-09
 39.22281    131.3 8.474e+03 2.228e-09
 39.26216    133.5 8.473e+03 2.262e-09
 39.30150    135.8 8.565e+03 2.485e-09
 39.34085    137.6 8.717e+03 2.924e-09
 39.37026    138.8 8.743e+03 3.276e-09
 39.38984    140.3 8.837e+03 3.882e-09
 39.40951    141.9 9.113e+03 4.975e-09
 39.42919    143.3 9.525e+03 6.414e-09
 39.44886    144.3 1.000e+04 8.103e-09
 39.46854    144.5 1.037e+04 9.897e-09
 39.48821    144.2 1.100e+04 1.275e-08
 39.50788    142.9 1.264e+04 2.113e-08
 39.52310    140.5 1.460e+04 4.083e-08
 39.53294    141.6 1.462e+04 4.370e-08
 39.54723    139.8 1.574e+04 6.422e-08
 39.56194    137.8 1.632e+04 7.637e-08
 39.57172    135.9 1.678e+04 8.742e-08
 39.58156    133.7 1.695e+04 9.305e-08
 39.59140    131.4 1.690e+04 9.244e-08
 39.60123    129.4 1.667e+04 8.758e-08
 39.61107    127.5 1.626e+04 7.671e-08
 39.61928    125.5 1.579e+04 6.392e-08
 39.62420    125.0 1.591e+04 6.791e-08
 39.62799    123.0 1.550e+04 5.884e-08
 39.63291    122.8 1.556e+04 6.184e-08
 39.64058    120.8 1.536e+04 5.785e-08
 39.65042    119.0 1.536e+04 5.540e-08
 39.66026    117.3 1.542e+04 5.499e-08
 39.67009    115.8 1.552e+04 5.525e-08
 39.67993    114.2 1.561e+04 5.580e-08
 39.68977    112.6 1.568e+04 5.687e-08
 39.69960    111.0 1.577e+04 5.916e-08
 39.70944    109.3 1.596e+04 6.334e-08
 39.71928    107.2 1.633e+04 7.119e-08
 39.72805    104.8 1.696e+04 8.552e-08
 39.73297    104.6 1.691e+04 8.779e-08
 39.73895    101.5 1.762e+04 1.101e-07
 39.74879     98.0 1.844e+04 1.497e-07
 39.75576     93.6 1.979e+04 2.468e-07
 39.76068     89.3 2.083e+04 4.139e-07
 39.76846     81.4 2.150e+04 8.205e-07
 39.77830     72.8 2.203e+04 9.509e-07
 39.78813     64.2 2.252e+04 7.479e-07
 39.79797     57.3 2.262e+04 3.407e-07
 39.80781     51.0 2.099e+04 1.220e-07
 39.81765     50.0 1.956e+04 6.525e-08
 39.82748     45.8 1.844e+04 3.726e-08
 39.84229     33.8 1.495e+04 2.260e-08
 39.86201     30.2 1.293e+04 2.061e-08
 39.88168     29.5 1.304e+04 2.165e-08
 39.89233     29.0 1.310e+04 2.237e-08
 39.90217     28.5 1.282e+04 1.979e-08
 39.92103     28.1 1.271e+04 1.872e-08
 39.93319     27.6 1.258e+04 1.664e-08
 39.94302     27.2 1.207e+04 1.199e-08
 39.96038     26.4 1.199e+04 1.085e-08
 39.98005     25.6 1.189e+04 1.018e-08
 39.99972     24.8 1.179e+04 9.938e-09
 40.01940     24.3 1.169e+04 9.730e-09
 40.03907     24.2 1.152e+04 8.973e-09
 40.05875     24.3 1.128e+04 7.544e-09
 40.07842     24.2 1.114e+04 6.097e-09
 40.09809     23.8 1.098e+04 4.888e-09
 40.11777     23.3 1.077e+04 4.173e-09
 40.13331     23.2 1.061e+04 3.841e-09
 40.14315     23.1 1.057e+04 3.841e-09
 40.15546     23.3 1.044e+04 3.561e-09
 40.16529     22.9 1.053e+04 4.012e-09
 40.17679     23.2 1.046e+04 3.839e-09
 40.19646     23.8 1.044e+04 3.271e-09
 40.21613     23.8 1.045e+04 3.199e-09
 40.24574     24.3 1.048e+04 2.747e-09
 40.28519     24.8 1.047e+04 2.626e-09
 40.32379     24.1 1.082e+04 3.544e-09
 40.34337     23.9 1.064e+04 3.208e-09
 40.35385     22.7 1.104e+04 5.185e-09
 40.37352     23.5 1.093e+04 6.940e-09
 40.39320     23.7 1.131e+04 8.549e-09
 40.41287     23.8 1.145e+04 8.501e-09
 40.42842     24.0 1.142e+04 7.700e-09
 40.43825     23.7 1.159e+04 8.205e-09
 40.45222     23.3 1.169e+04 7.227e-09
 40.47189     22.2 1.169e+04 7.226e-09
 40.49157     22.0 1.157e+04 7.172e-09
 40.52117     20.8 1.158e+04 7.037e-09
 40.56062     19.6 1.162e+04 6.211e-09
 40.59997     17.4 1.181e+04 6.370e-09
 40.62938     14.0 1.217e+04 9.083e-09
 40.64895     12.6 1.235e+04 1.070e-08
 40.66863     10.8 1.279e+04 1.311e-08
 40.68830      8.8 1.322e+04 1.677e-08
 40.70138      7.1 1.339e+04 1.841e-08
 40.71121      7.7 1.297e+04 1.467e-08
 40.72765      6.5 1.290e+04 1.421e-08
 40.74352      4.9 1.275e+04 1.321e-08
 40.76329      4.1 1.251e+04 1.112e-08
 40.79670      2.0 1.209e+04 9.606e-09
 40.83605      1.1 1.155e+04 7.437e-09
 40.87540      1.2 1.092e+04 5.471e-09
 40.91474      1.6 1.048e+04 3.383e-09
 40.95409      1.7 1.032e+04 2.708e-09
 40.99344      1.9 1.035e+04 3.157e-09
 41.03279      2.0 1.058e+04 4.262e-09
 41.06220      2.9 1.071e+04 5.157e-09
 41.08178      3.1 1.077e+04 5.254e-09
 41.11138      2.9 1.081e+04 4.791e-09
 41.14396      2.8 1.076e+04 2.881e-09
 41.16363      3.0 1.052e+04 2.718e-09
 41.19018      2.4 1.031e+04 1.923e-09
 41.22782      2.1 1.020e+04 1.663e-09
 41.24749      3.4 1.018e+04 1.696e-09
 41.26887      3.8 1.021e+04 1.788e-09
 41.30822      4.0 1.035e+04 1.958e-09
 41.34757      4.3 1.047e+04 2.125e-09
 41.38691      4.5 1.048e+04 2.109e-09
 41.42626      4.6 1.043e+04 1.955e-09
 41.46561      4.9 1.030e+04 1.916e-09
 41.50495      5.4 1.029e+04 1.858e-09
 41.54420      5.6 1.049e+04 1.897e-09
 41.58355      3.4 1.089e+04 4.027e-09
 41.62300      2.3 1.126e+04 1.046e-08
 41.66234      0.4 1.166e+04 1.495e-08
 41.70169     -2.2 1.101e+04 1.081e-08
 41.74104     -3.5 9.985e+03 6.407e-09
 41.77374     -4.6 9.038e+03 3.014e-09
 41.79341     -3.2 8.746e+03 2.611e-09
 41.81973     -3.7 8.204e+03 1.934e-09
 41.85908     -2.8 7.984e+03 1.824e-09
 41.89843     -1.7 8.069e+03 2.070e-09
 41.93777     -0.7 8.362e+03 2.451e-09
 41.96412     -0.2 8.648e+03 3.075e-09
 41.98380     -0.7 8.727e+03 3.223e-09
 42.01647      0.0 8.995e+03 4.308e-09
 42.05582      1.0 9.229e+03 5.223e-09
 42.09516      1.9 9.194e+03 4.929e-09
 42.13451      2.5 8.994e+03 3.777e-09
 42.17386      3.2 8.883e+03 3.212e-09
 42.21321      3.8 8.769e+03 2.883e-09
 42.25255      4.6 8.760e+03 2.851e-09
 42.29190      5.4 8.932e+03 2.988e-09
 42.31966      5.9 9.179e+03 3.323e-09
 42.32939      6.1 9.089e+03 3.412e-09
 42.34089      6.0 9.163e+03 3.474e-09
 42.36056      6.2 9.229e+03 4.557e-09
 42.37401      6.7 9.470e+03 4.926e-09
 42.38385      6.8 9.484e+03 5.019e-09
 42.39991      7.2 9.720e+03 5.844e-09
 42.41958      7.4 9.849e+03 6.231e-09
 42.43926      7.5 9.887e+03 6.522e-09
 42.45893      7.0 1.006e+04 6.698e-09
 42.47861      5.7 1.032e+04 7.075e-09
 42.49828      4.2 1.024e+04 8.313e-09
 42.51795      3.2 1.027e+04 9.210e-09
 42.53763      2.4 1.018e+04 9.661e-09
 42.55730      1.8 9.940e+03 8.968e-09
 42.57413      0.9 9.749e+03 7.484e-09
 42.58397      0.9 9.949e+03 8.054e-09
 42.59242     -1.1 9.668e+03 6.818e-09
 42.60226     -1.7 1.013e+04 8.465e-09
 42.61632     -3.3 1.004e+04 8.296e-09
 42.63599     -4.5 1.014e+04 9.201e-09
 42.65567     -5.3 1.026e+04 1.036e-08
 42.67534     -5.7 1.033e+04 1.106e-08
 42.69502     -5.8 1.035e+04 1.115e-08
 42.71469     -6.0 1.025e+04 1.033e-08
 42.73436     -6.4 1.003e+04 8.951e-09
 42.75404     -6.9 9.735e+03 7.454e-09
 42.77371     -7.3 9.428e+03 6.071e-09
 42.78409     -7.7 9.105e+03 4.892e-09
 42.79393     -7.9 8.941e+03 4.633e-09
 42.81306     -7.9 8.780e+03 4.054e-09
 42.83273     -7.8 8.655e+03 3.551e-09
 42.85240     -7.7 8.574e+03 3.194e-09
 42.86548     -7.2 8.577e+03 2.968e-09
 42.88525     -7.7 8.658e+03 3.046e-09
 42.92146     -7.0 8.681e+03 2.815e-09
 42.96081     -6.0 8.686e+03 2.553e-09
 43.00015     -4.7 8.724e+03 2.467e-09
 43.03950     -3.3 8.888e+03 2.583e-09
 43.06891     -1.7 9.061e+03 2.780e-09
 43.08849     -1.8 9.143e+03 2.889e-09
 43.10816     -0.9 9.672e+03 4.194e-09
 43.12784     -0.8 9.724e+03 4.303e-09
 43.15744     -0.4 1.010e+04 5.630e-09
 43.18453      0.2 1.059e+04 7.907e-09
 43.19427     -0.2 1.084e+04 8.675e-09
 43.20653     -0.1 1.086e+04 8.749e-09
 43.22620      0.6 1.104e+04 9.631e-09
 43.24588      0.7 1.106e+04 9.605e-09
 43.27549      1.6 1.113e+04 8.419e-09
 43.31493      2.5 1.106e+04 6.171e-09
 43.35428      3.5 1.121e+04 5.551e-09
 43.39182      4.8 1.152e+04 7.260e-09
 43.41149      3.9 1.177e+04 8.180e-09
 43.43297      5.5 1.198e+04 8.815e-09
 43.47232      7.1 1.200e+04 9.824e-09
 43.51167      8.7 1.197e+04 9.703e-09
 43.55101     10.6 1.183e+04 8.744e-09
 43.58478     12.4 1.188e+04 8.943e-09
 43.60445     11.1 1.173e+04 7.918e-09
 43.62971     12.3 1.190e+04 9.084e-09
 43.66906     13.5 1.190e+04 1.135e-08
 43.70840     14.7 1.171e+04 1.083e-08
 43.74775     16.7 1.105e+04 7.301e-09
 43.78710     18.1 1.058e+04 3.666e-09
 43.82645     19.1 1.030e+04 2.824e-09
 43.86579     20.3 1.036e+04 3.174e-09
 43.89521     21.2 1.030e+04 3.644e-09
 43.91478     22.1 1.030e+04 4.219e-09
 43.93446     23.1 1.030e+04 4.531e-09
 43.94738     23.9 1.028e+04 4.576e-09
 43.95722     23.9 1.026e+04 4.565e-09
 43.97380     24.7 1.024e+04 4.660e-09
 43.99348     25.5 1.017e+04 4.501e-09
 44.00450     26.4 1.010e+04 3.931e-09
 44.01434     26.1 1.015e+04 4.244e-09
 44.03282     26.9 1.009e+04 4.125e-09
 44.05250     27.7 1.009e+04 3.738e-09
 44.07217     28.0 1.009e+04 3.687e-09
 44.09185     29.0 1.002e+04 3.480e-09
 44.11152     29.3 1.004e+04 3.425e-09
 44.13119     30.1 1.001e+04 3.395e-09
 44.15087     30.6 1.009e+04 3.525e-09
 44.17054     30.8 1.015e+04 3.925e-09
 44.19021     31.3 1.025e+04 4.527e-09
 44.20462     31.7 1.033e+04 5.076e-09
 44.21446     31.4 1.062e+04 6.697e-09
 44.22034     31.9 1.058e+04 6.519e-09
 44.23018     32.1 1.073e+04 7.370e-09
 44.24923     33.0 1.055e+04 6.373e-09
 44.26891     33.7 1.033e+04 5.020e-09
 44.28858     34.2 1.017e+04 3.417e-09
 44.30826     34.2 1.013e+04 2.882e-09
 44.33786     34.8 1.002e+04 2.423e-09
 44.37731     35.6 9.947e+03 2.408e-09
 44.40494     36.7 9.880e+03 2.606e-09
 44.42462     35.8 9.800e+03 2.637e-09
 44.45600     37.2 9.548e+03 2.649e-09
 44.48366     38.3 9.367e+03 2.647e-09
 44.50333     37.5 9.352e+03 3.070e-09
 44.53470     38.4 9.124e+03 2.689e-09
 44.57404     39.3 8.990e+03 2.317e-09
 44.61339     40.1 8.977e+03 2.198e-09
 44.65274     40.8 9.093e+03 2.352e-09
 44.69209     41.0 9.406e+03 2.895e-09
 44.73143     40.8 9.841e+03 4.085e-09
 44.75652     39.4 1.043e+04 6.662e-09
 44.76626     39.4 1.011e+04 5.322e-09
 44.78042     39.4 1.017e+04 5.937e-09
 44.80010     38.9 1.039e+04 7.315e-09
 44.81483     38.1 1.079e+04 9.722e-09
 44.82467     37.7 1.071e+04 9.183e-09
 44.83944     37.1 1.110e+04 1.185e-08
 44.85912     36.3 1.131e+04 1.345e-08
 44.87879     35.3 1.128e+04 1.331e-08
 44.89847     34.0 1.112e+04 1.233e-08
 44.91814     32.0 1.102e+04 1.150e-08
 44.93781     29.4 1.110e+04 1.180e-08
 44.95749     26.3 1.129e+04 1.312e-08
 44.97716     23.2 1.163e+04 1.482e-08
 44.99683     15.4 1.361e+04 2.159e-08
 45.01495      7.6 1.441e+04 3.427e-08
 45.02479      6.9 1.468e+04 3.683e-08
 45.02938      1.9 1.349e+04 3.787e-08
 45.03922      2.0 1.344e+04 3.792e-08
 45.05585     -1.3 1.273e+04 2.412e-08
 45.07553     -7.3 1.143e+04 1.361e-08
 45.09520    -13.3 1.025e+04 9.599e-09
 45.11488    -16.7 9.993e+03 9.063e-09
 45.13455    -19.0 1.010e+04 9.947e-09
 45.15422    -20.9 1.016e+04 1.062e-08
 45.17390    -22.3 1.013e+04 1.066e-08
 45.19357    -23.3 9.909e+03 9.908e-09
 45.21324    -24.2 9.544e+03 8.322e-09
 45.22491    -25.0 9.091e+03 6.557e-09
 45.23475    -23.9 9.091e+03 6.524e-09
 45.25259    -24.7 8.618e+03 4.955e-09
 45.27226    -25.6 8.196e+03 3.785e-09
 45.29194    -26.3 7.959e+03 3.142e-09
 45.32155    -26.3 7.990e+03 3.044e-09
 45.36099    -26.5 8.087e+03 3.098e-09
 45.40034    -26.7 8.282e+03 3.335e-09
 45.43969    -27.0 8.435e+03 3.546e-09
 45.47903    -27.1 8.488e+03 3.556e-09
 45.51838    -27.2 8.505e+03 3.189e-09
 45.55582    -27.2 8.552e+03 2.892e-09
 45.57550    -27.1 8.633e+03 3.189e-09
 45.58714    -27.0 8.641e+03 2.988e-09
 45.60672    -27.2 8.738e+03 3.088e-09
 45.62516    -27.6 9.007e+03 3.695e-09
 45.63499    -26.9 9.014e+03 3.624e-09
 45.64606    -27.4 9.327e+03 4.665e-09
 45.66574    -27.5 9.753e+03 6.592e-09
 45.68541    -27.1 1.012e+04 8.297e-09
 45.70508    -26.5 1.036e+04 9.204e-09
 45.72476    -26.2 1.040e+04 9.243e-09
 45.74443    -26.1 1.025e+04 7.963e-09
 45.76411    -26.4 1.008e+04 6.861e-09
 45.78378    -26.8 9.956e+03 6.321e-09
 45.80345    -27.0 9.916e+03 6.163e-09
 45.82313    -27.0 1.000e+04 6.147e-09
 45.83512    -27.0 1.005e+04 6.374e-09
 45.84058    -26.5 1.004e+04 6.436e-09
 45.84826    -27.0 9.868e+03 5.995e-09
 45.86247    -27.0 9.834e+03 5.928e-09
 45.88215    -27.0 9.782e+03 5.792e-09
 45.90182    -27.0 9.712e+03 5.586e-09
 45.92150    -27.0 9.632e+03 5.321e-09
 45.94117    -27.1 9.534e+03 4.981e-09
 45.96084    -27.3 9.408e+03 4.576e-09
 45.98052    -27.4 9.292e+03 4.212e-09
 46.00019    -27.7 9.236e+03 4.006e-09
 46.01986    -28.0 9.230e+03 3.965e-09
 46.03524    -28.6 9.374e+03 4.338e-09
 46.04508    -28.7 9.186e+03 4.050e-09
 46.05921    -29.5 9.483e+03 5.031e-09
 46.07888    -30.2 9.845e+03 6.397e-09
 46.09856    -31.0 1.023e+04 8.041e-09
 46.11138    -31.8 1.056e+04 9.634e-09
 46.12122    -31.9 1.054e+04 9.621e-09
 46.13791    -32.8 1.082e+04 1.089e-08
 46.15758    -33.9 1.101e+04 1.149e-08
 46.17725    -35.5 1.115e+04 1.169e-08
 46.19693    -37.9 1.143e+04 1.204e-08
 46.21660    -41.0 1.202e+04 1.456e-08
 46.23536    -44.2 1.285e+04 2.224e-08
 46.24520    -43.5 1.217e+04 1.551e-08
 46.25595    -46.5 1.324e+04 2.690e-08
 46.27562    -48.8 1.441e+04 4.475e-08
 46.29529    -51.1 1.544e+04 6.185e-08
 46.31497    -54.4 1.595e+04 6.738e-08
 46.33464    -58.9 1.604e+04 6.445e-08
 46.35432    -63.8 1.584e+04 5.586e-08
 46.37399    -68.2 1.581e+04 5.526e-08
 46.38434    -71.8 1.607e+04 6.532e-08
 46.39418    -73.1 1.653e+04 8.279e-08
 46.41334    -76.1 1.654e+04 8.690e-08
 46.43301    -78.9 1.617e+04 7.735e-08
 46.44532    -81.6 1.555e+04 6.051e-08
 46.45516    -82.3 1.616e+04 7.537e-08
 46.47236    -85.3 1.542e+04 5.640e-08
 46.49203    -88.2 1.475e+04 4.385e-08
 46.51170    -90.7 1.420e+04 3.598e-08
 46.53138    -92.7 1.377e+04 3.112e-08
 46.55105    -94.5 1.340e+04 2.752e-08
 46.57073    -96.1 1.303e+04 2.387e-08
 46.59040    -97.4 1.258e+04 2.015e-08
 46.61007    -98.7 1.206e+04 1.573e-08
 46.62975    -99.7 1.152e+04 1.193e-08
 46.64545   -100.6 1.103e+04 9.240e-09
 46.65333   -101.7 1.044e+04 6.273e-09
 46.65730   -102.8 1.028e+04 6.009e-09
 46.66909   -103.1 9.985e+03 5.105e-09
 46.68877   -103.0 9.790e+03 4.508e-09
 46.70844   -102.7 9.656e+03 3.954e-09
 46.72812   -102.2 9.576e+03 3.461e-09
 46.74779   -101.8 9.523e+03 3.148e-09
 46.77740   -101.4 9.516e+03 2.970e-09
 46.81684   -100.4 9.536e+03 3.014e-09
 46.84576    -99.3 9.702e+03 3.631e-09
 46.86544    -99.2 9.640e+03 3.481e-09
 46.89554    -98.7 1.008e+04 5.134e-09
 46.93488    -98.5 1.051e+04 7.094e-09
 46.97423    -98.6 1.079e+04 8.223e-09
 47.01358    -99.1 1.087e+04 8.361e-09
 47.05293    -99.5 1.085e+04 7.743e-09
 47.09227    -99.7 1.092e+04 7.129e-09
 47.13162    -99.8 1.099e+04 6.980e-09
 47.17097   -100.0 1.123e+04 7.034e-09
 47.19348   -100.3 1.129e+04 7.065e-09
 47.20322   -100.0 1.130e+04 7.381e-09
 47.21996   -100.0 1.132e+04 7.194e-09
 47.23963    -99.9 1.134e+04 6.937e-09
 47.25565    -99.8 1.137e+04 6.624e-09
 47.26549    -99.8 1.131e+04 5.919e-09
 47.27898    -99.6 1.135e+04 5.757e-09
 47.29865    -99.3 1.140e+04 5.621e-09
 47.31832    -99.1 1.147e+04 5.503e-09
 47.33800    -99.0 1.153e+04 5.392e-09
 47.35767    -98.9 1.164e+04 5.219e-09
 47.37735    -99.2 1.198e+04 5.043e-09
 47.39702    -99.9 1.231e+04 5.482e-09
 47.41669   -101.4 1.293e+04 6.989e-09
 47.43637   -103.1 1.365e+04 1.183e-08
 47.45577   -104.4 1.430e+04 2.228e-08
 47.46561   -104.9 1.506e+04 4.545e-08
 47.46635   -105.5 1.558e+04 6.563e-08
 47.47618   -106.0 1.621e+04 9.307e-08
 47.49539   -106.8 1.640e+04 9.987e-08
 47.51506   -107.6 1.616e+04 8.380e-08
 47.53474   -108.0 1.563e+04 6.241e-08
 47.55441   -108.1 1.500e+04 4.252e-08
 47.57408   -108.1 1.440e+04 2.786e-08
 47.59376   -107.8 1.384e+04 1.793e-08
 47.61343   -107.1 1.342e+04 1.176e-08
 47.63310   -106.3 1.308e+04 7.879e-09
 47.65278   -105.2 1.286e+04 5.353e-09
 47.66573   -104.1 1.276e+04 3.721e-09
 47.67557   -104.0 1.283e+04 3.665e-09
 47.69212   -103.2 1.279e+04 2.895e-09
 47.71973   -102.4 1.269e+04 2.468e-09
 47.73950   -102.5 1.275e+04 2.197e-09
 47.76118   -100.3 1.256e+04 1.699e-09
 47.80052    -98.1 1.253e+04 1.394e-09
 47.83987    -96.2 1.267e+04 1.238e-09
 47.87922    -94.3 1.277e+04 1.186e-09
 47.91857    -92.7 1.286e+04 1.171e-09
 47.95791    -91.2 1.296e+04 1.183e-09
 47.99726    -89.8 1.290e+04 1.228e-09
 48.03661    -88.5 1.276e+04 1.279e-09
 48.06617    -87.1 1.259e+04 1.344e-09
 48.08585    -86.8 1.260e+04 1.484e-09
 48.11530    -85.3 1.246e+04 1.508e-09
 48.15465    -83.8 1.232e+04 1.565e-09
 48.19400    -82.4 1.219e+04 1.659e-09
 48.23335    -81.1 1.206e+04 1.767e-09
 48.26575    -79.9 1.194e+04 1.864e-09
 48.28542    -79.6 1.205e+04 2.535e-09
 48.31204    -78.7 1.195e+04 2.360e-09
 48.35139    -78.0 1.189e+04 2.150e-09
 48.39073    -77.4 1.185e+04 2.077e-09
 48.43008    -76.7 1.173e+04 2.244e-09
 48.46642    -75.8 1.164e+04 2.522e-09
 48.48609    -75.2 1.178e+04 2.658e-09
 48.50878    -74.6 1.172e+04 2.986e-09
 48.54812    -74.3 1.173e+04 3.306e-09
 48.58747    -74.3 1.178e+04 3.580e-09
 48.62682    -74.7 1.181e+04 4.242e-09
 48.66617    -75.1 1.186e+04 5.502e-09
 48.70551    -75.3 1.184e+04 6.209e-09
 48.74486    -75.1 1.147e+04 5.272e-09
 48.78421    -73.9 1.103e+04 3.021e-09
 48.81167    -72.0 1.072e+04 1.544e-09
 48.83134    -71.0 1.066e+04 1.620e-09
 48.86290    -69.0 1.056e+04 9.324e-10
 48.88634    -67.0 1.048e+04 6.756e-10
 48.90601    -66.3 1.057e+04 9.362e-10
 48.94160    -64.4 1.054e+04 7.579e-10
 48.98094    -62.4 1.050e+04 7.145e-10
 49.02029    -60.4 1.048e+04 7.237e-10
 49.05964    -58.6 1.039e+04 8.439e-10
 49.09899    -56.6 1.031e+04 1.044e-09
 49.13833    -54.7 1.024e+04 1.235e-09
 49.17768    -52.8 1.018e+04 1.313e-09
 49.21703    -51.0 1.016e+04 1.320e-09
 49.25638    -49.2 1.006e+04 1.285e-09
 49.28658    -47.6 1.001e+04 1.239e-09
 49.30626    -47.0 1.002e+04 1.310e-09
 49.33507    -45.4 1.002e+04 1.295e-09
 49.35758    -44.0 1.003e+04 1.346e-09
 49.37726    -43.6 9.789e+03 1.081e-09
 49.41376    -42.4 9.768e+03 1.279e-09
 49.45311    -41.2 9.773e+03 1.532e-09
 49.49246    -40.2 9.777e+03 1.740e-09
 49.53181    -39.2 9.748e+03 1.888e-09
 49.57115    -38.2 9.714e+03 2.039e-09
 49.61050    -37.1 9.722e+03 2.233e-09
 49.64985    -35.8 9.731e+03 2.454e-09
 49.68683    -34.6 9.793e+03 2.806e-09
 49.70650    -33.8 9.548e+03 1.885e-09
 49.72854    -32.6 9.724e+03 2.488e-09
 49.76789    -31.8 1.017e+04 4.092e-09
 49.80724    -31.4 1.105e+04 8.078e-09
 49.83665    -31.4 1.180e+04 1.324e-08
 49.85623    -31.8 1.241e+04 1.862e-08
 49.87590    -32.2 1.309e+04 2.739e-08
 49.89347    -32.2 1.351e+04 3.553e-08
 49.90331    -31.3 1.381e+04 3.789e-08
 49.90643    -31.3 1.416e+04 4.528e-08
 49.91627    -30.9 1.419e+04 4.596e-08
 49.93492    -31.2 1.412e+04 4.608e-08
 49.95460    -31.4 1.361e+04 3.614e-08
 49.97427    -31.9 1.287e+04 2.394e-08
 49.99394    -32.6 1.219e+04 1.594e-08
 50.01362    -33.3 1.172e+04 1.200e-08
 50.03329    -33.7 1.151e+04 1.070e-08
 50.05296    -33.9 1.149e+04 1.053e-08
 50.07264    -34.8 1.180e+04 1.176e-08
 50.09231    -36.3 1.240e+04 1.642e-08
 50.10655    -38.2 1.317e+04 2.377e-08
 50.11639    -37.6 1.292e+04 2.153e-08
 50.13166    -40.0 1.373e+04 2.910e-08
 50.15133    -42.5 1.419e+04 3.546e-08
 50.16643    -44.9 1.423e+04 3.686e-08
 50.17627    -44.1 1.377e+04 2.953e-08
 50.19068    -46.2 1.351e+04 2.616e-08
 50.21035    -47.9 1.283e+04 1.833e-08
 50.23003    -49.4 1.216e+04 1.287e-08
 50.24970    -50.4 1.165e+04 1.013e-08
 50.26937    -50.9 1.136e+04 8.965e-09
 50.28905    -51.1 1.121e+04 8.323e-09
 50.30668    -51.3 1.115e+04 7.868e-09
 50.31651    -51.3 1.116e+04 8.381e-09
 50.32839    -51.6 1.105e+04 7.669e-09
 50.34807    -52.0 1.098e+04 7.223e-09
 50.36774    -52.3 1.095e+04 6.992e-09
 50.38742    -52.6 1.094e+04 6.888e-09
 50.40709    -52.9 1.089e+04 6.770e-09
 50.42676    -52.9 1.076e+04 6.345e-09
 50.43939    -52.7 1.058e+04 5.404e-09
 50.44923    -52.2 1.055e+04 5.008e-09
 50.46611    -51.9 1.039e+04 4.000e-09
 50.48578    -51.6 1.032e+04 3.193e-09
 50.50690    -51.3 1.032e+04 2.707e-09
 50.52667    -51.2 1.016e+04 2.452e-09
 50.55484    -50.3 9.957e+03 1.800e-09
 50.59418    -49.0 9.886e+03 1.433e-09
 50.63353    -47.7 9.891e+03 1.326e-09
 50.67288    -46.3 9.897e+03 1.299e-09
 50.71223    -44.9 9.961e+03 1.305e-09
 50.75157    -43.7 1.010e+04 1.403e-09
 50.79092    -42.7 1.029e+04 1.683e-09
 50.83027    -41.9 1.056e+04 2.205e-09
 50.85968    -41.7 1.082e+04 2.891e-09
 50.87926    -42.4 1.095e+04 3.542e-09
 50.89893    -43.1 1.115e+04 5.043e-09
 50.91688    -43.5 1.144e+04 6.506e-09
 50.92672    -44.4 1.159e+04 7.387e-09
 50.93828    -45.0 1.194e+04 8.886e-09
 50.95795    -45.8 1.215e+04 9.628e-09
 50.97547    -46.7 1.222e+04 9.788e-09
 50.98531    -47.4 1.229e+04 1.025e-08
 50.99730    -48.2 1.231e+04 9.631e-09
 51.01697    -48.9 1.230e+04 8.712e-09
 51.03665    -49.6 1.230e+04 7.728e-09
 51.05632    -50.2 1.228e+04 6.864e-09
 51.07599    -50.9 1.228e+04 6.303e-09
 51.09567    -51.4 1.231e+04 6.124e-09
 51.11534    -52.0 1.237e+04 6.144e-09
 51.12684    -52.5 1.239e+04 6.321e-09
 51.13668    -52.7 1.221e+04 6.186e-09
 51.15469    -53.0 1.216e+04 6.302e-09
 51.17436    -52.9 1.176e+04 6.153e-09
 51.19404    -52.8 1.141e+04 4.894e-09
 51.21371    -52.8 1.125e+04 3.474e-09
 51.23338    -52.9 1.115e+04 2.815e-09
 51.26299    -52.8 1.099e+04 2.266e-09
 51.30244    -51.9 1.054e+04 1.714e-09
 51.32716    -50.6 1.031e+04 1.510e-09
 51.34683    -50.5 1.018e+04 1.256e-09
 51.38113    -49.1 1.013e+04 1.227e-09
 51.42048    -47.8 1.018e+04 1.436e-09
 51.45983    -46.7 1.049e+04 2.061e-09
 51.48924    -46.2 1.074e+04 2.885e-09
 51.50881    -46.8 1.090e+04 3.740e-09
 51.52139    -47.2 1.114e+04 5.815e-09
 51.52983    -47.8 1.140e+04 7.159e-09
 51.53692    -47.3 1.123e+04 5.829e-09
 51.54816    -47.3 1.155e+04 7.902e-09
 51.56784    -47.2 1.181e+04 9.184e-09
 51.58751    -47.4 1.188e+04 9.431e-09
 51.60718    -47.7 1.179e+04 8.844e-09
 51.62686    -47.9 1.161e+04 7.881e-09
 51.64653    -48.0 1.144e+04 6.883e-09
 51.66620    -48.1 1.127e+04 5.753e-09
 51.69581    -48.9 1.095e+04 4.218e-09
 51.72741    -48.5 1.061e+04 3.141e-09
 51.74708    -47.7 1.072e+04 3.155e-09
 51.77460    -46.7 1.033e+04 2.343e-09
 51.81395    -45.5 1.011e+04 1.796e-09
 51.85330    -44.4 9.983e+03 1.408e-09
 51.89265    -43.0 9.901e+03 1.102e-09
 51.93199    -41.6 9.852e+03 8.664e-10
 51.97134    -40.1 9.861e+03 6.968e-10
 52.01069    -38.6 9.854e+03 6.196e-10
 52.04783    -37.1 9.853e+03 6.059e-10
 52.06751    -37.7 9.863e+03 6.054e-10
 52.08938    -36.4 9.901e+03 6.887e-10
 52.12765    -35.1 9.892e+03 9.204e-10
 52.14733    -34.6 1.005e+04 1.078e-09
 52.16808    -33.2 1.014e+04 1.314e-09
 52.20742    -31.8 1.024e+04 1.388e-09
 52.24677    -30.5 1.039e+04 1.235e-09
 52.28612    -29.4 1.051e+04 1.003e-09
 52.32547    -28.5 1.052e+04 9.288e-10
 52.36481    -28.0 1.076e+04 1.168e-09
 52.40416    -27.8 1.094e+04 2.078e-09
 52.43357    -27.5 1.132e+04 3.667e-09
 52.45315    -28.1 1.144e+04 4.851e-09
 52.47282    -28.0 1.182e+04 7.553e-09
 52.49250    -28.0 1.214e+04 8.273e-09
 52.51217    -29.1 1.244e+04 7.860e-09
 52.53184    -30.8 1.268e+04 6.359e-09
 52.54738    -33.2 1.278e+04 6.074e-09
 52.55721    -33.4 1.276e+04 8.308e-09
 52.57119    -35.8 1.292e+04 8.792e-09
 52.59087    -39.0 1.358e+04 1.377e-08
 52.60339    -42.4 1.457e+04 2.607e-08
 52.61323    -43.9 1.491e+04 3.040e-08
 52.63021    -47.7 1.581e+04 4.722e-08
 52.64989    -52.0 1.614e+04 5.533e-08
 52.66956    -56.3 1.601e+04 5.227e-08
 52.68923    -59.9 1.544e+04 3.616e-08
 52.70891    -62.8 1.479e+04 2.193e-08
 52.72858    -65.0 1.417e+04 1.320e-08
 52.75819    -67.0 1.350e+04 8.509e-09
 52.78770    -66.9 1.329e+04 7.138e-09
 52.80728    -66.7 1.323e+04 6.776e-09
 52.82695    -66.4 1.319e+04 6.411e-09
 52.84662    -66.3 1.320e+04 6.374e-09
 52.86630    -66.4 1.318e+04 6.456e-09
 52.87635    -66.6 1.319e+04 7.162e-09
 52.88619    -68.1 1.308e+04 7.113e-09
 52.90564    -68.7 1.308e+04 7.561e-09
 52.92532    -69.6 1.310e+04 7.646e-09
 52.94499    -70.9 1.316e+04 6.857e-09
 52.95746    -72.3 1.313e+04 5.596e-09
 52.96730    -72.2 1.360e+04 8.889e-09
 52.98434    -73.7 1.324e+04 6.485e-09
 53.00401    -76.2 1.303e+04 5.394e-09
 53.03362    -78.8 1.269e+04 4.409e-09
 53.07307    -80.9 1.231e+04 4.059e-09
 53.11241    -82.0 1.223e+04 4.343e-09
 53.13967    -82.8 1.227e+04 5.382e-09
 53.15935    -83.9 1.201e+04 4.154e-09
 53.19111    -84.8 1.189e+04 4.234e-09
 53.23045    -85.6 1.166e+04 3.708e-09
 53.26980    -86.2 1.138e+04 2.897e-09
 53.30915    -86.6 1.109e+04 2.201e-09
 53.34806    -86.9 1.086e+04 1.730e-09
 53.36774    -87.6 1.086e+04 1.703e-09
 53.38784    -87.7 1.073e+04 1.564e-09
 53.42719    -87.7 1.060e+04 1.478e-09
 53.46654    -87.8 1.043e+04 1.418e-09
 53.50589    -87.6 1.019e+04 1.335e-09
 53.54523    -87.1 9.970e+03 1.191e-09
 53.58458    -86.3 9.800e+03 1.017e-09
 53.62393    -85.3 9.690e+03 9.045e-10
 53.66327    -84.5 9.594e+03 8.581e-10
 53.68559    -83.8 9.556e+03 8.501e-10
 53.70526    -84.5 9.580e+03 8.485e-10
 53.74197    -84.0 9.543e+03 8.792e-10
 53.76798    -83.6 9.475e+03 9.747e-10
 53.78766    -84.0 9.431e+03 9.338e-10
 53.82066    -83.8 9.364e+03 1.053e-09
 53.86001    -83.5 9.316e+03 1.122e-09
 53.89936    -83.2 9.262e+03 1.157e-09
 53.93871    -83.0 9.207e+03 1.191e-09
 53.97805    -83.1 9.180e+03 1.234e-09
 54.01740    -83.3 9.240e+03 1.405e-09
 54.05675    -83.9 9.353e+03 1.826e-09
 54.09610    -84.5 9.518e+03 2.406e-09
 54.13544    -85.1 9.618e+03 2.760e-09
 54.16823    -85.6 9.596e+03 2.802e-09
 54.18790    -85.8 9.390e+03 2.260e-09
 54.21184    -85.9 9.240e+03 1.815e-09
 54.23151    -86.6 9.231e+03 1.591e-09
 54.25348    -86.4 9.082e+03 1.039e-09
 54.29283    -86.0 8.982e+03 7.429e-10
 54.33218    -85.5 8.917e+03 6.546e-10
 54.37153    -84.7 8.903e+03 6.477e-10
 54.41087    -83.9 8.889e+03 6.785e-10
 54.45022    -83.1 8.850e+03 7.306e-10
 54.48957    -82.2 8.797e+03 7.674e-10
 54.52892    -81.3 8.766e+03 7.796e-10
 54.56826    -80.3 8.762e+03 7.759e-10
 54.58815    -79.3 8.775e+03 7.673e-10
 54.60782    -79.6 8.696e+03 6.792e-10
 54.64696    -78.8 8.710e+03 6.692e-10
 54.68631    -78.1 8.804e+03 6.833e-10
 54.72565    -77.8 8.966e+03 7.871e-10
 54.75776    -77.6 9.094e+03 1.013e-09
 54.77743    -77.6 9.159e+03 1.242e-09
 54.80435    -77.3 9.320e+03 1.578e-09
 54.84369    -77.1 9.487e+03 1.842e-09
 54.88304    -77.0 9.559e+03 1.917e-09
 54.92239    -76.8 9.603e+03 1.806e-09
 54.96174    -76.3 9.595e+03 1.543e-09
 54.98839    -75.6 9.601e+03 1.325e-09
 55.00807    -76.2 9.486e+03 9.765e-10
 55.04043    -75.3 9.515e+03 9.606e-10
 55.07978    -74.5 9.646e+03 1.032e-09
 55.11913    -73.7 9.745e+03 1.178e-09
 55.15847    -72.9 9.857e+03 1.303e-09
 55.19782    -72.2 9.966e+03 1.428e-09
 55.23717    -71.6 1.009e+04 1.636e-09
 55.27651    -71.1 1.026e+04 2.002e-09
 55.30367    -70.7 1.042e+04 2.510e-09
 55.32335    -70.7 1.053e+04 2.738e-09
 55.35521    -70.6 1.070e+04 3.056e-09
 55.38864    -70.6 1.076e+04 3.127e-09
 55.40831    -70.8 1.057e+04 2.712e-09
 55.43390    -71.0 1.061e+04 2.622e-09
 55.47325    -71.1 1.068e+04 2.300e-09
 55.51260    -71.1 1.077e+04 1.891e-09
 55.55195    -71.1 1.086e+04 1.547e-09
 55.59129    -71.0 1.101e+04 1.315e-09
 55.63064    -71.1 1.114e+04 1.241e-09
 55.66999    -71.6 1.150e+04 1.477e-09
 55.70934    -72.4 1.174e+04 2.381e-09
 55.74868    -73.4 1.196e+04 3.510e-09
 55.78803    -74.5 1.212e+04 4.069e-09
 55.80856    -75.9 1.219e+04 3.946e-09
 55.82823    -77.0 1.215e+04 3.165e-09
 55.84959    -78.0 1.227e+04 2.634e-09
 55.86927    -77.4 1.226e+04 2.576e-09
 55.90607    -78.2 1.235e+04 2.357e-09
 55.94542    -78.8 1.253e+04 2.381e-09
 55.98477    -79.4 1.293e+04 2.782e-09
 56.02411    -79.8 1.333e+04 3.296e-09
 56.05353    -80.1 1.355e+04 3.568e-09
 56.07310    -80.3 1.358e+04 3.645e-09
 56.09278    -80.6 1.359e+04 3.727e-09
 56.11245    -80.8 1.355e+04 3.703e-09
 56.13212    -80.5 1.359e+04 3.630e-09
 56.15180    -80.6 1.355e+04 3.630e-09
 56.17147    -80.7 1.349e+04 3.603e-09
 56.19114    -80.7 1.343e+04 3.554e-09
 56.20861    -80.7 1.340e+04 3.484e-09
 56.21844    -80.3 1.343e+04 3.312e-09
 56.23049    -80.2 1.336e+04 3.460e-09
 56.25017    -80.2 1.324e+04 3.661e-09
 56.26984    -80.2 1.312e+04 3.955e-09
 56.29945    -80.3 1.305e+04 4.263e-09
 56.33889    -80.6 1.286e+04 4.601e-09
 56.37584    -81.6 1.271e+04 4.621e-09
 56.39551    -82.0 1.259e+04 4.170e-09
 56.41759    -82.8 1.223e+04 3.534e-09
 56.45693    -83.1 1.196e+04 2.573e-09
 56.49628    -83.1 1.175e+04 1.650e-09
 56.53563    -82.2 1.156e+04 1.031e-09
 56.57498    -80.8 1.136e+04 7.173e-10
 56.60905    -79.1 1.130e+04 5.665e-10
 56.62872    -79.0 1.128e+04 5.388e-10
 56.65367    -77.0 1.122e+04 5.006e-10
 56.69302    -75.0 1.118e+04 4.961e-10
 56.73237    -73.0 1.113e+04 5.032e-10
 56.77171    -71.0 1.108e+04 5.100e-10
 56.81106    -68.9 1.099e+04 5.146e-10
 56.85041    -66.7 1.092e+04 5.077e-10
 56.88975    -64.6 1.087e+04 4.955e-10
 56.92176    -62.4 1.084e+04 4.899e-10
 56.94143    -61.6 1.093e+04 4.385e-10
 56.96845    -59.6 1.094e+04 4.518e-10
 57.00780    -57.7 1.093e+04 5.264e-10
 57.02897    -55.9 1.095e+04 6.521e-10
 57.04864    -55.7 1.083e+04 7.315e-10
 57.08649    -53.8 1.075e+04 9.502e-10
 57.12584    -51.9 1.070e+04 1.137e-09
 57.16519    -50.1 1.068e+04 1.227e-09
 57.20453    -48.2 1.066e+04 1.243e-09
 57.24388    -46.3 1.064e+04 1.167e-09
 57.28323    -44.3 1.059e+04 1.023e-09
 57.32258    -42.1 1.054e+04 8.554e-10
 57.36192    -39.8 1.050e+04 6.934e-10
 57.40127    -37.4 1.049e+04 5.764e-10
 57.42921    -34.9 1.051e+04 5.263e-10
 57.44889    -34.4 1.046e+04 5.088e-10
 57.46768    -32.3 1.062e+04 5.131e-10
 57.48735    -31.8 1.070e+04 5.565e-10
 57.51931    -30.8 1.102e+04 8.155e-10
 57.55866    -30.0 1.095e+04 1.986e-09
 57.59801    -28.8 1.130e+04 4.388e-09
 57.63735    -28.1 1.177e+04 6.227e-09
 57.67670    -28.3 1.188e+04 6.220e-09
 57.71605    -28.2 1.194e+04 4.169e-09
 57.75540    -28.0 1.191e+04 3.022e-09
 57.79474    -26.7 1.184e+04 2.651e-09
 57.82946    -25.1 1.184e+04 2.541e-09
 57.84913    -24.3 1.169e+04 2.192e-09
 57.87344    -22.4 1.172e+04 2.167e-09
 57.91279    -20.5 1.174e+04 2.012e-09
 57.95213    -18.6 1.183e+04 1.807e-09
 57.99148    -16.8 1.193e+04 1.632e-09
 58.01360    -15.0 1.202e+04 1.533e-09
 58.03327    -13.9 1.201e+04 1.888e-09
 58.07017    -12.3 1.212e+04 1.832e-09
 58.10952    -10.7 1.218e+04 1.900e-09
 58.14887     -9.1 1.234e+04 1.819e-09
 58.18822     -8.0 1.264e+04 1.493e-09
 58.22756     -7.4 1.274e+04 1.355e-09
 58.24938     -6.6 1.269e+04 1.430e-09
 58.26905     -6.2 1.271e+04 2.598e-09
 58.30626     -5.3 1.271e+04 2.141e-09
 58.34561     -4.2 1.278e+04 1.543e-09
 58.38495     -2.9 1.273e+04 1.235e-09
 58.42430     -1.5 1.282e+04 1.038e-09
 58.46365      0.2 1.286e+04 9.672e-10
 58.50299      2.1 1.292e+04 8.594e-10
 58.53984      4.1 1.309e+04 6.768e-10
 58.55952      4.3 1.336e+04 8.655e-10
 58.58169      5.8 1.364e+04 7.029e-10
 58.62104      7.6 1.351e+04 7.255e-10
 58.64962      9.6 1.362e+04 6.936e-10
 58.66930      8.8 1.362e+04 9.467e-10
 58.69973     10.6 1.366e+04 9.862e-10
 58.73908     12.3 1.367e+04 1.223e-09
 58.77843     14.1 1.368e+04 1.533e-09
 58.81777     15.9 1.395e+04 1.647e-09
 58.85712     17.5 1.421e+04 1.671e-09
 58.89647     18.9 1.430e+04 1.735e-09
 58.93582     20.2 1.424e+04 1.979e-09
 58.97516     21.5 1.415e+04 2.362e-09
 59.01451     22.9 1.412e+04 2.633e-09
 59.04987     24.3 1.408e+04 2.804e-09
 59.06954     24.6 1.408e+04 3.453e-09
 59.08576     26.0 1.405e+04 3.744e-09
 59.10544     26.1 1.415e+04 5.818e-09
 59.13255     27.0 1.414e+04 5.937e-09
 59.17190     28.1 1.406e+04 5.412e-09
 59.21125     29.4 1.395e+04 4.081e-09
 59.25059     30.9 1.392e+04 2.706e-09
 59.28994     32.5 1.385e+04 1.870e-09
 59.32929     34.2 1.380e+04 1.442e-09
 59.36864     36.0 1.379e+04 1.206e-09
 59.40798     37.8 1.382e+04 1.033e-09
 59.44733     39.4 1.381e+04 9.240e-10
 59.46979     40.9 1.372e+04 9.066e-10
 59.48946     40.2 1.387e+04 1.091e-09
 59.52602     41.6 1.368e+04 1.223e-09
 59.56537     43.0 1.348e+04 1.457e-09
 59.60472     44.6 1.337e+04 1.722e-09
 59.63168     46.2 1.334e+04 1.979e-09
 59.65136     46.2 1.337e+04 2.049e-09
 59.68341     47.8 1.346e+04 2.215e-09
 59.72276     49.4 1.381e+04 2.513e-09
 59.75217     49.8 1.388e+04 2.851e-09
 59.77175     50.5 1.387e+04 3.404e-09
 59.79142     51.2 1.393e+04 4.325e-09
 59.81110     51.9 1.405e+04 5.645e-09
 59.83077     52.4 1.421e+04 7.407e-09
 59.85045     52.8 1.439e+04 9.508e-09
 59.86984     53.0 1.456e+04 1.179e-08
 59.87968     51.9 1.446e+04 1.076e-08
 59.88979     51.7 1.452e+04 1.239e-08
 59.90445     51.3 1.448e+04 1.399e-08
 59.91428     50.7 1.405e+04 1.181e-08
 59.92914     49.6 1.390e+04 1.224e-08
 59.94881     48.3 1.376e+04 1.200e-08
 59.96849     47.1 1.337e+04 1.090e-08
 59.98816     46.0 1.302e+04 9.047e-09
 60.00783     45.0 1.282e+04 7.281e-09
 60.02751     43.8 1.273e+04 5.977e-09
 60.04718     42.5 1.263e+04 5.108e-09
 60.06686     41.5 1.246e+04 4.537e-09
 60.07980     40.9 1.218e+04 4.198e-09
 60.08964     39.9 1.203e+04 4.521e-09
 60.10620     39.8 1.182e+04 4.125e-09
 60.12588     39.9 1.167e+04 3.695e-09
 60.14555     40.2 1.152e+04 3.282e-09
 60.16522     40.3 1.146e+04 2.986e-09
 60.17750     41.8 1.134e+04 2.752e-09
 60.19727     41.1 1.133e+04 2.893e-09
 60.23428     42.6 1.115e+04 2.571e-09
 60.27028     43.8 1.105e+04 2.375e-09
 60.28995     43.0 1.066e+04 1.806e-09
 60.31297     44.4 1.054e+04 1.762e-09
 60.35232     45.6 1.051e+04 1.811e-09
 60.39167     46.8 1.051e+04 1.902e-09
 60.43101     48.0 1.050e+04 1.903e-09
 60.47036     49.2 1.049e+04 1.909e-09
 60.50971     50.7 1.045e+04 1.982e-09
 60.54906     52.4 1.040e+04 2.143e-09
 60.58840     54.2 1.038e+04 2.426e-09
 60.61782     55.8 1.020e+04 2.527e-09
 60.63739     56.3 1.020e+04 2.675e-09
 60.65706     57.5 1.035e+04 3.483e-09
 60.67674     58.1 1.045e+04 3.962e-09
 60.69010     59.7 1.087e+04 6.502e-09
 60.70728     60.4 1.023e+04 4.037e-09
 60.72352     59.5 1.015e+04 4.045e-09
 60.74579     61.0 1.037e+04 5.509e-09
 60.78514     62.2 1.054e+04 6.930e-09
 60.82449     63.0 1.049e+04 7.174e-09
 60.86383     63.9 1.020e+04 6.290e-09
 60.90318     64.9 9.700e+03 4.539e-09
 60.94253     65.8 9.210e+03 3.127e-09
 60.98188     66.9 8.804e+03 2.370e-09
 61.02122     68.2 8.505e+03 2.201e-09
 61.06057     69.6 8.470e+03 2.194e-09
 61.09045     70.9 8.508e+03 2.283e-09
 61.11012     71.6 9.329e+03 4.171e-09
 61.13926     72.4 9.392e+03 4.548e-09
 61.17861     73.4 9.426e+03 4.826e-09
 61.21796     74.2 9.351e+03 4.679e-09
 61.24977     75.0 9.133e+03 4.192e-09
 61.26944     74.2 9.026e+03 4.089e-09
 61.29665     75.3 8.599e+03 3.162e-09
 61.33600     76.6 8.140e+03 2.183e-09
 61.37535     78.0 7.690e+03 1.498e-09
 61.41470     79.4 7.413e+03 1.264e-09
 61.45404     81.2 7.394e+03 1.270e-09
 61.49069     83.1 7.380e+03 1.338e-09
 61.51036     83.1 7.228e+03 1.165e-09
 61.53274     84.9 7.311e+03 1.389e-09
 61.57209     86.7 7.636e+03 1.827e-09
 61.61143     88.4 8.115e+03 2.526e-09
 61.65078     89.4 8.500e+03 3.339e-09
 61.68019     89.6 8.670e+03 3.917e-09
 61.69977     89.9 8.859e+03 4.640e-09
 61.71029     90.4 9.090e+03 5.546e-09
 61.72013     90.5 9.098e+03 5.605e-09
 61.73912     90.9 9.334e+03 6.544e-09
 61.75879     90.9 9.502e+03 7.274e-09
 61.77846     90.9 9.593e+03 7.774e-09
 61.79549     90.8 9.618e+03 8.058e-09
 61.80533     90.2 9.815e+03 9.005e-09
 61.81781     90.0 9.843e+03 9.316e-09
 61.83748     89.8 9.851e+03 9.461e-09
 61.85716     89.4 9.859e+03 9.534e-09
 61.87683     88.9 9.866e+03 9.551e-09
 61.89651     88.2 9.863e+03 9.497e-09
 61.91041     87.2 9.864e+03 9.383e-09
 61.92025     87.5 9.850e+03 9.281e-09
 61.93585     86.2 9.862e+03 9.229e-09
 61.95553     84.4 9.933e+03 9.440e-09
 61.97520     82.2 1.017e+04 1.030e-08
 61.99487     79.7 1.044e+04 1.155e-08
 62.01455     76.9 1.066e+04 1.252e-08
 62.03422     73.0 1.105e+04 1.354e-08
 62.05389     66.2 1.225e+04 1.688e-08
 62.06845     58.6 1.352e+04 2.656e-08
 62.07829     53.9 1.431e+04 4.286e-08
 62.09324     50.6 1.403e+04 4.381e-08
 62.11054     49.0 1.332e+04 3.419e-08
 62.12037     50.2 1.350e+04 3.812e-08
 62.13259     48.9 1.258e+04 2.254e-08
 62.15226     46.2 1.151e+04 1.084e-08
 62.17194     42.7 1.019e+04 5.769e-09
 62.19161     41.1 9.437e+03 4.510e-09
 62.21128     41.1 9.409e+03 4.424e-09
 62.23096     41.4 9.433e+03 4.453e-09
 62.25063     41.7 9.522e+03 4.539e-09
 62.27030     41.9 9.646e+03 4.834e-09
 62.28998     42.1 9.839e+03 5.489e-09
 62.30965     42.3 1.011e+04 6.713e-09
 62.32050     42.6 1.044e+04 8.509e-09
 62.33033     43.6 1.018e+04 7.109e-09
 62.34141     44.1 1.037e+04 7.930e-09
 62.35125     44.2 1.017e+04 6.651e-09
 62.36867     44.7 1.027e+04 6.952e-09
 62.38835     45.1 1.040e+04 6.817e-09
 62.40802     45.2 1.045e+04 6.675e-09
 62.42769     45.0 1.057e+04 6.845e-09
 62.44737     43.8 1.131e+04 8.355e-09
 62.46704     41.1 1.256e+04 1.336e-08
 62.48672     37.9 1.386e+04 2.898e-08
 62.50639     36.3 1.454e+04 4.840e-08
 62.52062     35.2 1.470e+04 4.851e-08
 62.53046     36.9 1.442e+04 4.540e-08
 62.54574     35.4 1.453e+04 4.147e-08
 62.56541     32.9 1.444e+04 3.041e-08
 62.58508     29.7 1.386e+04 2.104e-08
 62.60453     27.4 1.297e+04 1.647e-08
 62.61437     26.6 1.298e+04 1.751e-08
 62.62443     25.7 1.251e+04 1.556e-08
 62.64410     25.3 1.240e+04 1.341e-08
 62.66378     24.6 1.239e+04 1.162e-08
 62.68345     23.8 1.234e+04 1.056e-08
 62.70313     23.0 1.225e+04 9.947e-09
 62.72074     22.5 1.211e+04 9.505e-09
 62.73058     22.9 1.296e+04 1.555e-08
 62.74247     22.7 1.263e+04 1.451e-08
 62.76215     22.6 1.224e+04 1.334e-08
 62.78182     22.6 1.196e+04 1.269e-08
 62.80149     22.7 1.168e+04 1.140e-08
 62.82117     22.9 1.113e+04 8.990e-09
 62.84084     22.6 1.107e+04 8.149e-09
 62.86051     23.3 1.067e+04 6.235e-09
 62.87749     23.1 1.049e+04 4.679e-09
 62.88733     22.6 1.005e+04 4.377e-09
 62.89986     22.2 9.709e+03 3.736e-09
 62.91954     22.2 9.669e+03 3.665e-09
 62.93070     22.2 9.746e+03 3.739e-09
 62.94054     22.5 9.965e+03 5.043e-09
 62.95888     22.6 1.009e+04 5.321e-09
 62.97856     22.8 1.019e+04 5.469e-09
 62.99823     23.1 1.014e+04 5.331e-09
 63.01790     23.2 1.002e+04 5.065e-09
 63.03758     23.1 9.957e+03 5.140e-09
 63.05725     23.0 9.951e+03 5.339e-09
 63.07692     22.9 1.008e+04 5.668e-09
 63.09660     22.8 1.032e+04 6.265e-09
 63.11627     22.0 1.086e+04 7.590e-09
 63.13083     19.8 1.208e+04 1.320e-08
 63.14066     21.5 1.113e+04 8.075e-09
 63.15045     17.1 1.313e+04 1.772e-08
 63.16029     14.6 1.415e+04 2.745e-08
 63.17529     13.4 1.590e+04 7.703e-08
 63.19497     13.1 1.721e+04 1.420e-07
 63.21464     11.3 1.796e+04 1.502e-07
 63.23431      8.2 1.795e+04 1.239e-07
 63.25399      4.6 1.810e+04 7.555e-08
 63.27366      1.0 1.887e+04 3.131e-08
 63.29334     -3.3 1.605e+04 1.541e-08
 63.31301     -6.8 1.269e+04 9.414e-09
 63.33095     -8.4 1.157e+04 7.579e-09
 63.34079     -8.4 1.467e+04 1.084e-08
 63.35236     -9.9 1.170e+04 8.493e-09
 63.37203     -9.2 1.167e+04 9.479e-09
 63.39170     -8.5 1.150e+04 9.169e-09
 63.41367     -6.9 1.122e+04 6.997e-09
 63.43344     -8.1 1.097e+04 6.127e-09
 63.46076     -5.9 1.055e+04 3.814e-09
 63.50010     -4.2 1.033e+04 2.237e-09
 63.53127     -2.9 1.009e+04 1.640e-09
 63.55094     -3.4 1.069e+04 4.045e-09
 63.57880     -1.4 1.037e+04 3.585e-09
 63.61815      0.8 1.027e+04 3.320e-09
 63.65749      2.9 1.022e+04 3.244e-09
 63.69684      5.5 1.008e+04 2.713e-09
 63.73619      7.6 1.016e+04 1.883e-09
 63.77554      9.5 1.022e+04 1.709e-09
 63.81488     11.2 1.053e+04 2.114e-09
 63.84430     11.7 1.076e+04 2.714e-09
 63.86387     12.9 1.076e+04 3.209e-09
 63.88354     13.9 1.114e+04 3.856e-09
 63.90322     13.9 1.167e+04 4.858e-09
 63.92289     12.4 1.312e+04 8.068e-09
 63.94115     10.1 1.400e+04 1.914e-08
 63.95099      9.8 1.414e+04 2.035e-08
 63.95949     10.7 1.504e+04 6.183e-08
 63.96933     11.3 1.518e+04 7.291e-08
 63.98191     10.9 1.631e+04 1.035e-07
 64.00159      7.8 1.771e+04 1.422e-07
 64.02126      5.0 1.701e+04 1.737e-07
 64.04093      6.0 1.622e+04 1.199e-07
 64.06061      6.4 1.546e+04 5.306e-08
 64.08028      4.1 1.514e+04 2.311e-08
 64.09996      1.0 1.316e+04 1.295e-08
 64.11963      0.8 1.189e+04 1.113e-08
 64.13930      1.6 1.154e+04 9.533e-09
 64.16891      1.2 1.141e+04 7.878e-09
 64.20836      1.1 1.130e+04 7.126e-09
 64.24770     -0.8 1.180e+04 9.992e-09
 64.28705      0.0 1.187e+04 1.863e-08
 64.32640      2.2 1.116e+04 1.060e-08
 64.35143      1.8 1.080e+04 2.374e-09
 64.37111      1.8 1.148e+04 3.327e-09
 64.40509     -1.9 1.046e+04 1.369e-09
 64.44444     -2.2 9.561e+03 1.762e-09
 64.48379     -1.5 9.310e+03 2.319e-09
 64.50561     -0.8 9.348e+03 2.611e-09
 64.52528     -0.9 9.026e+03 1.850e-09
 64.56248     -0.6 8.923e+03 1.575e-09
 64.60183     -0.2 8.948e+03 1.729e-09
 64.64118     -0.6 9.051e+03 3.170e-09
 64.68052      0.1 9.566e+03 5.924e-09
 64.71987      1.5 9.849e+03 9.353e-09
 64.75168      2.9 9.645e+03 8.625e-09
 64.77135      2.8 9.183e+03 6.706e-09
 64.79857      4.4 8.646e+03 4.518e-09
 64.83791      5.0 8.123e+03 2.976e-09
 64.87726      6.0 7.616e+03 2.116e-09
 64.91661      7.3 7.322e+03 1.424e-09
 64.95595      8.1 7.109e+03 1.128e-09
 64.99530      9.3 6.957e+03 1.120e-09
 65.03185     10.4 6.990e+03 1.283e-09
 65.05153     10.2 7.071e+03 1.334e-09
 65.07400     11.7 7.043e+03 1.373e-09
 65.11334     13.4 7.004e+03 1.329e-09
 65.15192     14.9 6.939e+03 1.176e-09
 65.17160     16.2 7.012e+03 1.192e-09
 65.19204     18.0 7.116e+03 1.225e-09
 65.23139     18.8 7.520e+03 1.604e-09
 65.27073     19.7 8.476e+03 3.214e-09
 65.31008     20.5 9.503e+03 5.931e-09
 65.33949     20.3 9.809e+03 7.318e-09
 65.35907     18.6 1.078e+04 8.932e-09
 65.37152     10.7 1.355e+04 1.744e-08
 65.38136     14.2 1.340e+04 1.535e-08
 65.39842      6.3 1.413e+04 2.783e-08
 65.41809     -5.1 1.804e+04 4.405e-08
 65.43776    -23.4 2.263e+04 6.006e-08
 65.45744    -42.1 1.857e+04 6.133e-08
 65.47711    -50.7 1.524e+04 4.426e-08
 65.49678    -55.0 1.370e+04 2.184e-08
 65.51646    -59.8 1.139e+04 8.135e-09
 65.53613    -64.0 8.359e+03 3.764e-09
 65.55581    -65.0 7.455e+03 3.010e-09
 65.57165    -64.3 7.355e+03 2.907e-09
 65.58148    -66.8 7.400e+03 2.893e-09
 65.58741    -66.4 7.633e+03 3.192e-09
 65.59725    -66.9 7.726e+03 3.369e-09
 65.61483    -66.4 8.169e+03 4.289e-09
 65.63450    -65.5 8.608e+03 5.413e-09
 65.65417    -64.4 8.976e+03 6.553e-09
 65.67385    -63.4 9.255e+03 7.570e-09
 65.69352    -62.7 9.517e+03 8.321e-09
 65.71320    -62.5 9.722e+03 8.810e-09
 65.73287    -62.3 9.831e+03 9.198e-09
 65.75254    -61.8 9.895e+03 9.459e-09
 65.77177    -61.1 9.980e+03 9.547e-09
 65.78161    -63.5 1.093e+04 1.205e-08
 65.79189    -62.8 1.119e+04 1.239e-08
 65.81156    -61.9 1.154e+04 1.315e-08
 65.83124    -61.0 1.185e+04 1.423e-08
 65.85054    -60.1 1.209e+04 1.533e-08
 65.86037    -61.5 1.439e+04 2.668e-08
 65.87058    -60.3 1.444e+04 2.740e-08
 65.89026    -59.2 1.448e+04 2.745e-08
 65.90993    -58.2 1.445e+04 2.645e-08
 65.92961    -57.4 1.431e+04 2.446e-08
 65.94928    -56.6 1.413e+04 2.206e-08
 65.96895    -55.9 1.388e+04 1.977e-08
 65.98173    -55.2 1.356e+04 1.751e-08
 65.99157    -56.7 1.310e+04 1.532e-08
 66.00830    -56.3 1.284e+04 1.343e-08
 66.02797    -56.2 1.275e+04 1.294e-08
 66.04765    -56.6 1.306e+04 1.331e-08
 66.06732    -58.0 1.383e+04 1.857e-08
 66.08699    -59.0 1.450e+04 3.061e-08
 66.10667    -59.6 1.524e+04 5.042e-08
 66.12350    -60.0 1.590e+04 7.348e-08
 66.13333    -60.4 1.596e+04 7.541e-08
 66.14602    -60.9 1.598e+04 7.619e-08
 66.16569    -61.6 1.551e+04 6.071e-08
 66.18185    -62.2 1.455e+04 3.842e-08
 66.19169    -62.2 1.397e+04 2.763e-08
 66.20504    -62.8 1.295e+04 1.638e-08
 66.22471    -63.3 1.212e+04 9.890e-09
 66.24438    -63.6 1.152e+04 6.407e-09
 66.26406    -63.7 1.112e+04 4.583e-09
 66.28373    -63.6 1.088e+04 3.781e-09
 66.30340    -63.5 1.077e+04 3.572e-09
 66.32308    -63.1 1.073e+04 3.556e-09
 66.34275    -62.7 1.066e+04 3.913e-09
 66.36243    -62.1 1.062e+04 4.635e-09
 66.38197    -61.2 1.059e+04 5.289e-09
 66.39181    -60.8 1.059e+04 5.224e-09
 66.39646    -59.8 1.051e+04 5.770e-09
 66.40629    -59.1 1.029e+04 3.679e-09
 66.42145    -58.0 1.032e+04 4.177e-09
 66.44112    -57.0 1.033e+04 4.383e-09
 66.46079    -56.1 1.027e+04 4.333e-09
 66.48047    -55.3 1.019e+04 4.093e-09
 66.50014    -54.5 1.008e+04 3.720e-09
 66.51982    -53.8 9.979e+03 3.377e-09
 66.53949    -53.2 9.883e+03 3.109e-09
 66.55916    -52.4 9.818e+03 2.894e-09
 66.57884    -51.5 9.794e+03 2.717e-09
 66.59193    -50.5 9.780e+03 2.556e-09
 66.60177    -50.9 9.757e+03 2.413e-09
 66.61818    -49.8 9.716e+03 2.220e-09
 66.63786    -48.6 9.706e+03 2.116e-09
 66.65753    -47.4 9.791e+03 2.135e-09
 66.66951    -46.0 9.894e+03 2.278e-09
 66.68928    -44.8 9.887e+03 2.009e-09
 66.72658    -42.4 9.809e+03 1.760e-09
 66.76593    -39.2 9.635e+03 1.518e-09
 66.79225    -35.7 9.636e+03 1.486e-09
 66.81193    -36.1 9.611e+03 1.440e-09
 66.84463    -33.2 9.929e+03 1.547e-09
 66.88397    -31.3 1.015e+04 2.394e-09
 66.92332    -29.8 1.075e+04 4.641e-09
 66.95273    -27.4 1.157e+04 7.779e-09
 66.97231    -27.4 1.150e+04 8.541e-09
 66.99198    -26.3 1.200e+04 1.102e-08
 67.00202    -26.1 1.234e+04 1.227e-08
 67.01185    -27.4 1.264e+04 1.509e-08
 67.03133    -27.3 1.279e+04 1.650e-08
 67.05100    -27.4 1.275e+04 1.679e-08
 67.07068    -27.5 1.266e+04 1.614e-08
 67.09035    -27.5 1.262e+04 1.539e-08
 67.11002    -27.4 1.256e+04 1.465e-08
 67.12970    -27.2 1.241e+04 1.375e-08
 67.14937    -26.6 1.225e+04 1.275e-08
 67.16905    -25.8 1.214e+04 1.108e-08
 67.18872    -25.3 1.215e+04 9.460e-09
 67.20214    -25.1 1.210e+04 8.021e-09
 67.20908    -25.1 1.170e+04 6.074e-09
 67.21533    -23.8 1.197e+04 7.870e-09
 67.22807    -23.6 1.198e+04 6.765e-09
 67.24774    -23.3 1.206e+04 6.126e-09
 67.26741    -23.1 1.225e+04 5.729e-09
 67.28709    -23.3 1.256e+04 5.550e-09
 67.30676    -25.1 1.349e+04 6.505e-09
 67.32644    -28.9 1.378e+04 1.259e-08
 67.34611    -32.2 1.470e+04 3.295e-08
 67.36578    -34.6 1.710e+04 7.518e-08
 67.38546    -38.6 1.886e+04 1.137e-07
 67.40226    -45.2 1.886e+04 1.153e-07
 67.41210    -39.9 1.933e+04 1.163e-07
 67.42480    -47.3 1.827e+04 9.847e-08
 67.44448    -56.6 1.848e+04 7.529e-08
 67.45918    -67.5 2.082e+04 4.620e-08
 67.46897    -75.9 2.140e+04 5.304e-08
 67.47836    -83.5 2.056e+04 6.946e-08
 67.48825    -86.9 1.864e+04 1.172e-07
 67.50350    -90.0 1.735e+04 1.297e-07
 67.52317    -90.9 1.700e+04 1.154e-07
 67.54285    -91.6 1.657e+04 8.689e-08
 67.56252    -93.1 1.547e+04 4.654e-08
 67.58219    -95.3 1.353e+04 2.205e-08
 67.60187    -97.5 1.097e+04 1.069e-08
 67.61222    -98.8 9.293e+03 6.735e-09
 67.62206   -101.4 8.631e+03 5.012e-09
 67.64121   -100.6 8.396e+03 4.431e-09
 67.66089    -99.8 8.229e+03 4.020e-09
 67.68056    -99.1 8.060e+03 3.689e-09
 67.70023    -98.3 7.908e+03 3.399e-09
 67.71991    -97.5 7.791e+03 3.168e-09
 67.73958    -96.7 7.720e+03 3.034e-09
 67.75142    -95.8 7.684e+03 2.985e-09
 67.76125    -97.2 7.726e+03 3.248e-09
 67.77893    -96.3 7.695e+03 3.237e-09
 67.79860    -95.4 7.664e+03 3.240e-09
 67.81235    -94.4 7.680e+03 3.329e-09
 67.82218    -95.2 7.477e+03 2.826e-09
 67.83795    -94.5 7.504e+03 2.902e-09
 67.85762    -94.0 7.687e+03 3.275e-09
 67.87730    -93.8 8.077e+03 4.098e-09
 67.89697    -93.7 8.785e+03 5.695e-09
 67.91664    -93.7 9.615e+03 8.276e-09
 67.93632    -93.7 1.048e+04 1.215e-08
 67.95599    -93.5 1.132e+04 1.736e-08
 67.97567    -93.1 1.208e+04 2.344e-08
 67.99534    -92.7 1.272e+04 2.954e-08
 68.01247    -92.3 1.318e+04 3.472e-08
 68.02183    -92.2 1.257e+04 2.835e-08
 68.02438    -93.0 1.204e+04 2.368e-08
 68.03469    -92.4 1.205e+04 2.305e-08
 68.05436    -91.8 1.206e+04 2.246e-08
 68.07403    -91.2 1.212e+04 2.240e-08
 68.09371    -90.5 1.226e+04 2.341e-08
 68.11338    -89.6 1.251e+04 2.544e-08
 68.13305    -88.7 1.282e+04 2.822e-08
 68.15273    -88.0 1.319e+04 3.200e-08
 68.17240    -87.5 1.360e+04 3.754e-08
 68.19208    -87.3 1.408e+04 4.628e-08
 68.21175    -87.2 1.461e+04 5.939e-08
 68.22243    -87.2 1.518e+04 7.752e-08
 68.23226    -87.3 1.498e+04 6.497e-08
 68.25110    -87.1 1.565e+04 9.390e-08
 68.27077    -86.9 1.606e+04 1.146e-07
 68.28750    -87.1 1.615e+04 1.196e-07
 68.29734    -87.0 1.534e+04 7.723e-08
 68.31012    -86.7 1.549e+04 8.460e-08
 68.32979    -86.3 1.525e+04 7.560e-08
 68.34947    -85.9 1.473e+04 5.911e-08
 68.36914    -85.6 1.426e+04 4.807e-08
 68.38881    -85.4 1.389e+04 4.148e-08
 68.40849    -85.2 1.363e+04 3.621e-08
 68.42255    -84.8 1.337e+04 3.100e-08
 68.43239    -84.3 1.369e+04 3.891e-08
 68.44783    -84.0 1.347e+04 3.370e-08
 68.46751    -83.8 1.306e+04 2.602e-08
 68.48718    -83.7 1.254e+04 1.877e-08
 68.50685    -83.7 1.207e+04 1.386e-08
 68.52653    -83.7 1.180e+04 1.130e-08
 68.54620    -83.4 1.167e+04 1.018e-08
 68.56046    -82.8 1.167e+04 9.640e-09
 68.57030    -83.0 1.164e+04 9.653e-09
 68.58555    -82.5 1.167e+04 9.371e-09
 68.60522    -82.0 1.175e+04 8.945e-09
 68.62267    -81.6 1.183e+04 8.495e-09
 68.63251    -81.6 1.188e+04 9.216e-09
 68.64457    -81.1 1.207e+04 9.210e-09
 68.66424    -80.8 1.215e+04 8.707e-09
 68.69385    -80.4 1.229e+04 8.168e-09
 68.73330    -79.8 1.270e+04 8.609e-09
 68.77264    -79.5 1.305e+04 1.018e-08
 68.81199    -79.6 1.336e+04 1.318e-08
 68.83283    -79.6 1.351e+04 1.531e-08
 68.83468    -81.0 1.372e+04 1.934e-08
 68.85319    -81.7 1.328e+04 1.435e-08
 68.89069    -81.3 1.300e+04 1.262e-08
 68.93003    -80.7 1.266e+04 9.859e-09
 68.96938    -79.7 1.235e+04 7.546e-09
 69.00873    -78.5 1.196e+04 5.442e-09
 69.04808    -77.1 1.172e+04 3.938e-09
 69.08742    -75.6 1.163e+04 3.081e-09
 69.12677    -74.3 1.168e+04 2.564e-09
 69.16612    -72.8 1.182e+04 2.442e-09
 69.20546    -71.3 1.189e+04 2.236e-09
 69.23307    -69.9 1.195e+04 2.141e-09
 69.25275    -69.8 1.168e+04 1.662e-09
 69.28416    -68.3 1.169e+04 1.677e-09
 69.32351    -66.7 1.164e+04 1.548e-09
 69.35986    -65.0 1.150e+04 1.307e-09
 69.37953    -65.7 1.157e+04 1.108e-09
 69.40220    -63.9 1.148e+04 9.556e-10
 69.44155    -62.0 1.142e+04 8.865e-10
 69.48090    -60.1 1.142e+04 8.776e-10
 69.52024    -58.6 1.142e+04 1.044e-09
 69.55959    -57.2 1.130e+04 1.622e-09
 69.59894    -55.6 1.130e+04 2.497e-09
 69.63332    -54.4 1.141e+04 3.417e-09
 69.65299    -54.3 1.152e+04 4.161e-09
 69.67763    -53.7 1.164e+04 4.747e-09
 69.71698    -53.3 1.155e+04 4.701e-09
 69.75633    -52.5 1.132e+04 3.696e-09
 69.79567    -51.8 1.114e+04 3.202e-09
 69.83502    -50.8 1.109e+04 3.164e-09
 69.86443    -50.0 1.103e+04 3.256e-09
 69.88401    -49.9 1.108e+04 3.570e-09
 69.90568    -49.4 1.122e+04 4.562e-09
 69.92535    -49.2 1.119e+04 4.384e-09
 69.94303    -48.8 1.123e+04 4.680e-09
 69.96271    -48.7 1.122e+04 4.836e-09
 69.99231    -48.2 1.124e+04 5.273e-09
 70.03176    -47.2 1.116e+04 5.730e-09
 70.05324    -46.3 1.103e+04 6.197e-09
 70.07291    -46.1 1.094e+04 5.813e-09
 70.11045    -45.3 1.091e+04 5.880e-09
 70.14980    -44.4 1.082e+04 5.799e-09
 70.18915    -43.5 1.083e+04 5.883e-09
 70.22849    -43.0 1.107e+04 7.511e-09
 70.26784    -42.6 1.153e+04 1.137e-08
 70.29725    -42.2 1.202e+04 1.661e-08
 70.31683    -41.6 1.232e+04 1.977e-08
 70.33650    -40.7 1.249e+04 2.128e-08
 70.35618    -39.8 1.241e+04 2.026e-08
 70.37585    -38.6 1.210e+04 1.661e-08
 70.39553    -37.4 1.170e+04 1.239e-08
 70.42513    -35.6 1.098e+04 7.255e-09
 70.45170    -32.7 1.072e+04 4.747e-09
 70.46018    -34.5 1.250e+04 1.042e-08
 70.46313    -34.6 1.256e+04 1.206e-08
 70.47422    -33.8 1.403e+04 1.285e-08
 70.49389    -33.8 1.613e+04 2.094e-08
 70.51357    -33.9 1.750e+04 4.125e-08
 70.53324    -34.1 1.825e+04 8.428e-08
 70.54795    -33.0 1.818e+04 1.021e-07
 70.55774    -32.5 1.831e+04 1.561e-07
 70.56309    -32.1 1.837e+04 2.209e-07
 70.56801    -32.2 1.849e+04 2.527e-07
 70.57741    -30.9 1.858e+04 3.695e-07
 70.58725    -29.5 1.870e+04 4.937e-07
 70.59280    -28.1 1.887e+04 6.040e-07
 70.59772    -29.8 1.908e+04 6.065e-07
 70.60692    -29.7 1.973e+04 6.090e-07
 70.61676    -30.8 2.054e+04 4.790e-07
 70.62659    -33.3 2.105e+04 3.055e-07
 70.63643    -37.1 2.108e+04 1.671e-07
 70.64627    -41.7 1.982e+04 8.784e-08
 70.65610    -46.2 1.741e+04 5.771e-08
 70.66315    -49.5 1.596e+04 4.757e-08
 70.66807    -51.1 1.543e+04 4.550e-08
 70.67578    -53.7 1.532e+04 4.463e-08
 70.68561    -57.0 1.571e+04 4.822e-08
 70.69545    -60.4 1.641e+04 5.966e-08
 70.70529    -64.6 1.647e+04 7.649e-08
 70.71512    -67.1 1.666e+04 1.009e-07
 70.72436    -68.7 1.667e+04 1.185e-07
 70.72928    -67.6 1.618e+04 9.142e-08
 70.73480    -68.3 1.621e+04 1.025e-07
 70.74464    -68.7 1.622e+04 1.053e-07
 70.75447    -69.0 1.608e+04 9.024e-08
 70.76321    -69.7 1.569e+04 6.410e-08
 70.76813    -70.6 1.504e+04 5.141e-08
 70.77415    -71.3 1.432e+04 3.872e-08
 70.78895    -71.0 1.381e+04 3.060e-08
 70.80867    -71.8 1.256e+04 1.589e-08
 70.82835    -73.2 1.119e+04 8.134e-09
 70.84802    -73.6 1.068e+04 6.360e-09
 70.86337    -72.9 1.051e+04 5.721e-09
 70.87321    -72.7 1.049e+04 5.715e-09
 70.88737    -71.5 1.049e+04 5.383e-09
 70.90704    -70.5 1.052e+04 5.244e-09
 70.92671    -69.6 1.059e+04 5.260e-09
 70.94639    -68.7 1.066e+04 5.362e-09
 70.96606    -67.8 1.074e+04 5.604e-09
 70.98574    -66.9 1.083e+04 5.928e-09
 70.99742    -65.9 1.092e+04 6.168e-09
 71.00726    -65.7 1.071e+04 5.054e-09
 71.02508    -64.8 1.079e+04 5.150e-09
 71.04476    -63.9 1.083e+04 5.165e-09
 71.06349    -63.0 1.087e+04 5.111e-09
 71.07333    -62.8 1.077e+04 4.641e-09
 71.08410    -61.9 1.085e+04 4.619e-09
 71.10378    -61.1 1.099e+04 4.740e-09
 71.12345    -60.4 1.112e+04 5.083e-09
 71.14312    -59.6 1.129e+04 5.703e-09
 71.16280    -59.0 1.150e+04 6.652e-09
 71.18247    -58.4 1.173e+04 7.880e-09
 71.20215    -57.8 1.201e+04 9.338e-09
 71.22182    -57.3 1.229e+04 1.083e-08
 71.24149    -56.8 1.250e+04 1.207e-08
 71.26054    -56.4 1.268e+04 1.316e-08
 71.27038    -56.3 1.239e+04 1.090e-08
 71.27345    -56.1 1.266e+04 1.302e-08
 71.28329    -55.4 1.264e+04 1.293e-08
 71.30051    -55.2 1.296e+04 1.596e-08
 71.32019    -55.1 1.326e+04 1.870e-08
 71.33986    -55.2 1.351e+04 2.053e-08
 71.35953    -55.7 1.354e+04 2.039e-08
 71.37921    -56.2 1.327e+04 1.714e-08
 71.39888    -56.7 1.291e+04 1.365e-08
 71.41856    -57.2 1.260e+04 1.151e-08
 71.43823    -57.4 1.243e+04 1.030e-08
 71.45790    -57.5 1.233e+04 9.450e-09
 71.47358    -57.4 1.226e+04 8.861e-09
 71.48341    -57.3 1.223e+04 8.303e-09
 71.49725    -57.0 1.219e+04 7.689e-09
 71.51692    -56.6 1.218e+04 7.222e-09
 71.53350    -56.1 1.219e+04 6.799e-09
 71.54334    -56.2 1.220e+04 6.021e-09
 71.55627    -55.7 1.221e+04 5.562e-09
 71.57595    -55.1 1.223e+04 5.175e-09
 71.59562    -54.4 1.229e+04 4.932e-09
 71.61529    -53.8 1.235e+04 4.809e-09
 71.63497    -53.2 1.241e+04 4.772e-09
 71.65464    -52.6 1.248e+04 4.836e-09
 71.67370    -51.9 1.252e+04 4.949e-09
 71.68354    -51.4 1.245e+04 4.349e-09
 71.69399    -50.6 1.243e+04 4.415e-09
 71.71366    -49.9 1.243e+04 4.393e-09
 71.73333    -49.1 1.241e+04 4.300e-09
 71.75301    -48.2 1.237e+04 4.200e-09
 71.77268    -47.3 1.238e+04 4.089e-09
 71.79236    -46.4 1.238e+04 3.946e-09
 71.80646    -45.5 1.242e+04 3.789e-09
 71.81630    -45.5 1.249e+04 3.312e-09
 71.83170    -44.7 1.254e+04 3.120e-09
 71.85138    -44.0 1.252e+04 3.037e-09
 71.87105    -43.1 1.253e+04 3.048e-09
 71.88366    -42.1 1.248e+04 3.199e-09
 71.89350    -41.6 1.246e+04 3.039e-09
 71.91040    -40.7 1.234e+04 3.274e-09
 71.93007    -39.8 1.210e+04 3.522e-09
 71.94974    -38.7 1.217e+04 3.901e-09
 71.96942    -38.6 1.210e+04 4.060e-09
 71.98909    -37.2 1.224e+04 5.617e-09
 72.00877    -37.2 1.221e+04 6.203e-09
 72.03837    -36.2 1.235e+04 7.838e-09
 72.06978    -34.7 1.232e+04 8.416e-09
 72.08578    -33.9 1.236e+04 8.558e-09
 72.09381    -32.7 1.236e+04 8.362e-09
 72.11717    -31.1 1.241e+04 9.039e-09
 72.15651    -29.5 1.221e+04 7.941e-09
 72.19586    -27.6 1.192e+04 4.820e-09
 72.23521    -25.9 1.178e+04 2.536e-09
 72.27456    -24.2 1.175e+04 1.570e-09
 72.31390    -22.1 1.175e+04 1.164e-09
 72.35325    -19.4 1.128e+04 1.186e-09
 72.39260    -16.7 1.131e+04 1.102e-09
 72.43194    -14.2 1.167e+04 9.873e-10
 72.47129    -11.7 1.159e+04 1.236e-09
 72.49406     -9.2 1.153e+04 1.807e-09
 72.51373     -9.4 1.163e+04 2.737e-09
 72.54999     -6.7 1.182e+04 4.183e-09
 72.58933     -4.4 1.217e+04 6.309e-09
 72.61570     -2.5 1.259e+04 1.018e-08
 72.63537     -3.3 1.279e+04 1.167e-08
 72.66803     -2.5 1.326e+04 1.628e-08
 72.69409     -1.7 1.344e+04 1.824e-08
 72.70382     -1.9 1.337e+04 1.679e-08
 72.71702     -1.5 1.335e+04 1.549e-08
 72.73669     -1.1 1.333e+04 1.319e-08
 72.75636     -0.8 1.336e+04 1.140e-08
 72.77604     -0.6 1.335e+04 1.001e-08
 72.79571     -0.3 1.329e+04 9.437e-09
 72.81539      0.4 1.332e+04 9.486e-09
 72.83506      0.7 1.348e+04 9.887e-09
 72.85473      2.0 1.334e+04 9.208e-09
 72.87441      2.0 1.345e+04 8.934e-09
 72.89421      3.7 1.306e+04 7.199e-09
 72.91398      3.5 1.318e+04 6.046e-09
 72.94346      5.4 1.304e+04 4.286e-09
 72.98281      7.7 1.297e+04 3.946e-09
 73.02215     10.0 1.302e+04 4.178e-09
 73.06150     11.9 1.326e+04 5.200e-09
 73.09091     13.1 1.355e+04 6.536e-09
 73.10407     13.4 1.375e+04 7.829e-09
 73.11391     12.8 1.356e+04 7.370e-09
 73.13016     12.6 1.375e+04 9.406e-09
 73.14984     12.1 1.394e+04 1.015e-08
 73.16142     10.8 1.460e+04 1.630e-08
 73.17126     10.2 1.574e+04 3.861e-08
 73.18919      9.8 1.570e+04 4.436e-08
 73.20886     10.0 1.534e+04 3.629e-08
 73.22853      9.6 1.506e+04 2.634e-08
 73.24821      9.7 1.472e+04 1.889e-08
 73.26788      9.7 1.454e+04 1.502e-08
 73.28755     10.4 1.424e+04 1.266e-08
 73.30419     11.0 1.413e+04 1.158e-08
 73.31403     11.2 1.389e+04 1.007e-08
 73.33684     12.3 1.375e+04 9.856e-09
 73.37628     13.9 1.360e+04 9.500e-09
 73.41563     15.4 1.362e+04 9.497e-09
 73.45497     16.7 1.373e+04 9.049e-09
 73.49432     17.7 1.384e+04 8.450e-09
 73.53367     18.6 1.389e+04 7.942e-09
 73.57302     19.6 1.388e+04 7.312e-09
 73.61236     20.9 1.378e+04 6.371e-09
 73.65171     22.5 1.370e+04 4.914e-09
 73.68787     24.4 1.363e+04 3.563e-09
 73.70754     25.0 1.378e+04 3.077e-09
 73.71447     27.1 1.386e+04 2.412e-09
 73.73414     26.9 1.375e+04 2.338e-09
 73.76975     29.5 1.380e+04 2.296e-09
 73.80910     32.2 1.385e+04 2.392e-09
 73.84845     34.8 1.396e+04 2.785e-09
 73.88780     37.3 1.400e+04 3.448e-09
 73.92714     39.6 1.409e+04 4.259e-09
 73.96649     41.6 1.423e+04 5.342e-09
 74.00584     43.2 1.441e+04 6.593e-09
 74.04518     44.2 1.457e+04 8.097e-09
 74.07460     44.2 1.494e+04 1.340e-08
 74.09417     44.0 1.504e+04 1.397e-08
 74.11385     43.6 1.531e+04 1.651e-08
 74.12436     43.0 1.541e+04 1.645e-08
 74.13419     42.3 1.551e+04 2.400e-08
 74.15319     41.2 1.547e+04 2.072e-08
 74.17287     40.0 1.533e+04 1.507e-08
 74.19254     38.4 1.521e+04 1.032e-08
 74.21222     36.7 1.497e+04 8.267e-09
 74.23189     35.8 1.486e+04 8.730e-09
 74.24343     35.4 1.472e+04 8.010e-09
 74.25326     34.0 1.491e+04 8.351e-09
 74.27124     34.1 1.491e+04 8.118e-09
 74.29091     34.2 1.480e+04 6.665e-09
 74.32052     33.7 1.516e+04 5.996e-09
 74.35996     34.6 1.512e+04 4.834e-09
 74.39931     36.1 1.489e+04 5.417e-09
 74.43866     38.0 1.461e+04 6.519e-09
 74.47800     40.1 1.450e+04 7.433e-09
 74.51496     42.3 1.466e+04 8.043e-09
 74.53464     41.5 1.492e+04 8.528e-09
 74.54677     42.4 1.506e+04 9.202e-09
 74.56634     43.1 1.520e+04 9.783e-09
 74.58601     43.9 1.530e+04 1.044e-08
 74.60569     44.6 1.534e+04 1.097e-08
 74.62536     45.4 1.533e+04 1.139e-08
 74.64504     46.1 1.526e+04 1.160e-08
 74.66471     46.8 1.517e+04 1.143e-08
 74.68438     47.6 1.505e+04 1.094e-08
 74.70406     48.4 1.490e+04 1.008e-08
 74.72373     49.4 1.475e+04 9.079e-09
 74.73456     50.5 1.464e+04 8.057e-09
 74.74440     50.1 1.445e+04 6.677e-09
 74.76308     51.0 1.437e+04 5.978e-09
 74.77951     52.2 1.420e+04 5.262e-09
 74.78935     52.2 1.416e+04 5.002e-09
 74.80242     52.9 1.413e+04 4.618e-09
 74.83203     55.1 1.407e+04 4.563e-09
 74.87148     58.0 1.398e+04 3.705e-09
 74.91083     60.5 1.394e+04 3.167e-09
 74.93488     62.8 1.383e+04 2.925e-09
 74.95455     62.5 1.385e+04 2.083e-09
 74.98952     65.0 1.372e+04 1.983e-09
 75.02887     67.5 1.368e+04 1.977e-09
 75.06821     70.0 1.370e+04 2.031e-09
 75.10756     72.3 1.372e+04 2.180e-09
 75.14691     74.6 1.355e+04 2.365e-09
 75.18626     77.0 1.343e+04 2.427e-09
 75.22560     79.3 1.330e+04 2.384e-09
 75.26495     81.7 1.324e+04 2.192e-09
 75.30430     84.0 1.324e+04 1.954e-09
 75.32562     86.2 1.327e+04 1.776e-09
 75.33678     86.8 1.335e+04 1.705e-09
 75.35480     87.4 1.350e+04 2.332e-09
 75.38299     89.7 1.348e+04 2.461e-09
 75.42234     91.7 1.357e+04 2.558e-09
 75.46169     93.6 1.363e+04 2.660e-09
 75.50104     95.4 1.364e+04 2.648e-09
 75.54038     97.0 1.363e+04 2.566e-09
 75.57973     98.7 1.359e+04 2.417e-09
 75.61908    100.4 1.354e+04 2.274e-09
 75.65842    102.1 1.351e+04 2.124e-09
 75.69777    103.9 1.346e+04 1.995e-09
 75.73537    105.7 1.339e+04 1.882e-09
 75.75505    105.7 1.344e+04 2.162e-09
 75.77647    107.7 1.337e+04 1.982e-09
 75.81581    109.7 1.329e+04 1.866e-09
 75.85187    111.8 1.322e+04 1.794e-09
 75.87154    112.0 1.319e+04 1.654e-09
 75.89451    114.2 1.313e+04 1.492e-09
 75.93386    116.3 1.308e+04 1.333e-09
 75.97320    118.5 1.303e+04 1.179e-09
 76.01255    120.6 1.298e+04 1.044e-09
 76.05190    122.7 1.292e+04 9.324e-10
 76.09124    124.8 1.287e+04 8.458e-10
 76.13059    126.9 1.280e+04 7.897e-10
 76.15529    129.1 1.273e+04 7.636e-10
 76.17497    129.3 1.287e+04 7.832e-10
 76.20929    131.4 1.271e+04 7.676e-10
 76.24863    133.6 1.264e+04 7.814e-10
 76.28798    135.8 1.256e+04 8.261e-10
 76.32733    138.0 1.249e+04 8.970e-10
 76.36668    140.1 1.245e+04 1.026e-09
 76.39779    142.2 1.242e+04 1.245e-09
 76.41746    142.3 1.240e+04 1.369e-09
 76.44537    144.3 1.238e+04 1.660e-09
 76.48472    146.0 1.235e+04 1.884e-09
 76.52407    147.6 1.229e+04 1.946e-09
 76.55554    149.2 1.226e+04 1.928e-09
 76.57521    149.8 1.231e+04 1.925e-09
 76.60276    151.3 1.225e+04 1.927e-09
 76.64211    152.9 1.216e+04 1.884e-09
 76.68145    154.5 1.209e+04 1.852e-09
 76.72080    156.3 1.206e+04 1.871e-09
 76.76015    158.2 1.204e+04 1.996e-09
 76.79950    160.2 1.206e+04 2.279e-09
 76.83884    162.2 1.215e+04 2.740e-09
 76.87819    164.1 1.231e+04 3.327e-09
 76.91754    165.8 1.247e+04 3.798e-09
 76.94371    167.4 1.252e+04 3.851e-09
 76.96228    167.7 1.245e+04 3.158e-09
 76.97546    167.6 1.270e+04 4.025e-09
 76.99623    169.3 1.270e+04 3.975e-09
 77.03558    171.1 1.275e+04 4.011e-09
 77.06499    171.8 1.276e+04 3.997e-09
 77.08457    172.3 1.280e+04 4.065e-09
 77.10424    172.5 1.290e+04 4.357e-09
 77.12392    172.7 1.298e+04 4.989e-09
 77.14359    172.9 1.307e+04 5.761e-09
 77.16326    173.1 1.314e+04 6.302e-09
 77.17538    173.2 1.315e+04 6.358e-09
 77.18522    173.0 1.329e+04 7.558e-09
 77.20261    173.0 1.327e+04 7.404e-09
 77.21647    173.2 1.320e+04 6.849e-09
 77.22631    173.1 1.323e+04 6.620e-09
 77.24196    173.4 1.311e+04 5.866e-09
 77.26163    173.9 1.298e+04 5.030e-09
 77.28131    174.4 1.289e+04 4.264e-09
 77.30098    175.0 1.282e+04 3.667e-09
 77.32065    175.6 1.268e+04 3.298e-09
 77.34033    176.3 1.243e+04 3.176e-09
 77.36000    177.1 1.233e+04 3.185e-09
 77.37551    178.0 1.232e+04 3.200e-09
 77.38534    177.7 1.220e+04 3.181e-09
 77.39935    178.5 1.216e+04 3.251e-09
 77.41902    179.3 1.214e+04 3.450e-09
 77.43870    180.0 1.214e+04 3.804e-09
 77.45837    180.6 1.215e+04 4.312e-09
 77.47804    181.3 1.218e+04 4.935e-09
 77.48943    181.9 1.219e+04 5.530e-09
 77.49927    181.7 1.200e+04 4.673e-09
 77.51739    182.4 1.201e+04 4.868e-09
 77.53706    183.0 1.201e+04 4.865e-09
 77.55674    183.6 1.200e+04 4.820e-09
 77.57563    184.3 1.197e+04 4.645e-09
 77.58547    184.2 1.191e+04 4.342e-09
 77.59608    184.9 1.189e+04 4.103e-09
 77.61576    185.7 1.186e+04 3.760e-09
 77.63543    186.4 1.183e+04 3.405e-09
 77.65511    187.1 1.177e+04 3.050e-09
 77.67478    187.8 1.172e+04 2.851e-09
 77.69445    188.7 1.172e+04 2.731e-09
 77.71413    189.6 1.174e+04 2.731e-09
 77.73380    190.6 1.178e+04 2.790e-09
 77.75255    191.6 1.186e+04 2.925e-09
 77.76239    191.6 1.172e+04 2.904e-09
 77.77315    192.6 1.187e+04 3.235e-09
 77.78559    193.4 1.200e+04 3.605e-09
 77.79543    193.5 1.196e+04 3.562e-09
 77.81249    194.2 1.208e+04 3.948e-09
 77.83217    194.9 1.216e+04 4.331e-09
 77.85184    195.7 1.222e+04 4.732e-09
 77.87152    196.4 1.224e+04 5.219e-09
 77.89119    197.1 1.227e+04 5.902e-09
 77.91086    197.8 1.232e+04 6.968e-09
 77.93054    198.6 1.246e+04 8.607e-09
 77.95021    199.4 1.267e+04 1.098e-08
 77.96988    200.2 1.295e+04 1.409e-08
 77.98571    201.0 1.327e+04 1.745e-08
 77.99555    201.1 1.318e+04 1.628e-08
 78.00923    201.8 1.349e+04 1.902e-08
 78.02551    202.2 1.375e+04 2.045e-08
 78.03535    201.8 1.336e+04 1.926e-08
 78.04858    202.2 1.333e+04 1.894e-08
 78.06825    202.7 1.320e+04 1.784e-08
 78.08793    203.4 1.303e+04 1.616e-08
 78.10760    204.3 1.282e+04 1.432e-08
 78.12727    205.3 1.262e+04 1.258e-08
 78.14695    206.4 1.247e+04 1.122e-08
 78.16662    207.7 1.246e+04 1.047e-08
 78.18584    209.0 1.248e+04 1.044e-08
 78.19567    209.3 1.231e+04 9.094e-09
 78.20597    210.7 1.233e+04 9.144e-09
 78.22564    212.1 1.237e+04 9.399e-09
 78.24532    213.4 1.252e+04 1.034e-08
 78.26499    214.6 1.299e+04 1.274e-08
 78.28466    215.6 1.378e+04 1.739e-08
 78.29847    216.0 1.454e+04 2.427e-08
 78.30831    216.9 1.345e+04 1.619e-08
 78.32401    217.2 1.437e+04 2.420e-08
 78.33872    217.0 1.483e+04 3.019e-08
 78.34850    217.0 1.515e+04 3.433e-08
 78.35834    217.0 1.581e+04 4.282e-08
 78.36818    216.7 1.665e+04 5.690e-08
 78.37801    216.3 1.743e+04 7.633e-08
 78.38785    215.7 1.809e+04 1.016e-07
 78.39570    214.9 1.865e+04 1.351e-07
 78.40062    215.6 1.840e+04 1.235e-07
 78.40753    214.6 1.892e+04 1.661e-07
 78.41736    213.4 1.930e+04 2.219e-07
 78.42720    212.2 1.956e+04 2.871e-07
 78.43486    210.7 1.982e+04 3.436e-07
 78.43977    213.0 1.960e+04 3.299e-07
 78.44687    211.5 1.991e+04 4.155e-07
 78.45671    209.4 2.033e+04 4.413e-07
 78.46655    206.9 2.054e+04 4.125e-07
 78.47638    204.4 2.065e+04 3.280e-07
 78.48622    202.1 2.038e+04 2.322e-07
 78.49576    200.1 1.965e+04 1.690e-07
 78.50068    201.3 1.983e+04 1.822e-07
 78.50589    199.5 1.902e+04 1.473e-07
 78.52070    198.3 1.803e+04 1.121e-07
 78.54042    198.0 1.720e+04 9.906e-08
 78.56009    198.3 1.685e+04 9.479e-08
 78.57143    199.0 1.683e+04 9.498e-08
 78.58127    197.3 1.676e+04 9.476e-08
 78.59592    198.4 1.679e+04 1.047e-07
 78.60575    199.4 1.639e+04 8.274e-08
 78.61911    200.5 1.662e+04 1.006e-07
 78.63879    201.6 1.718e+04 1.273e-07
 78.65846    202.1 1.769e+04 1.482e-07
 78.67814    202.2 1.781e+04 1.496e-07
 78.69781    202.4 1.771e+04 1.397e-07
 78.71748    203.0 1.721e+04 1.099e-07
 78.73716    204.0 1.636e+04 7.261e-08
 78.75683    205.0 1.533e+04 4.253e-08
 78.77650    205.8 1.418e+04 2.377e-08
 78.79604    206.1 1.302e+04 1.418e-08
 78.80588    207.3 1.299e+04 1.412e-08
 78.81585    207.5 1.198e+04 9.339e-09
 78.83456    208.0 1.137e+04 7.334e-09
 78.84439    207.5 1.078e+04 5.452e-09
 78.85520    208.1 1.068e+04 5.182e-09
 78.88481    210.3 1.080e+04 5.597e-09
 78.92425    213.6 1.054e+04 4.786e-09
 78.96360    217.2 1.027e+04 4.055e-09
 78.99636    221.1 1.003e+04 3.304e-09
 79.01593    221.6 1.018e+04 4.077e-09
 79.03226    222.9 1.010e+04 3.795e-09
 79.05194    224.3 9.823e+03 3.507e-09
 79.07161    225.5 9.898e+03 3.341e-09
 79.09128    226.6 1.036e+04 3.782e-09
 79.10752    226.7 1.158e+04 5.569e-09
 79.11735    224.9 1.470e+04 2.395e-08
 79.13063    225.0 1.616e+04 4.723e-08
 79.15030    224.9 1.729e+04 8.701e-08
 79.16998    224.5 1.816e+04 1.337e-07
 79.18965    223.2 1.869e+04 1.660e-07
 79.20612    221.6 1.872e+04 1.621e-07
 79.21596    221.7 1.885e+04 1.695e-07
 79.22900    220.0 1.854e+04 1.424e-07
 79.24867    218.7 1.791e+04 1.001e-07
 79.26835    217.5 1.677e+04 5.707e-08
 79.28802    216.0 1.522e+04 3.128e-08
 79.30769    214.4 1.365e+04 1.985e-08
 79.32737    213.6 1.265e+04 1.550e-08
 79.34704    213.5 1.225e+04 1.377e-08
 79.36671    213.4 1.209e+04 1.281e-08
 79.38047    213.2 1.230e+04 1.237e-08
 79.39031    210.7 1.218e+04 1.126e-08
 79.40606    209.2 1.295e+04 1.425e-08
 79.41608    207.5 1.372e+04 2.069e-08
 79.42592    208.0 1.356e+04 1.763e-08
 79.44541    206.6 1.421e+04 2.568e-08
 79.46011    206.5 1.449e+04 2.912e-08
 79.46990    205.7 1.527e+04 3.718e-08
 79.47974    203.9 1.647e+04 5.906e-08
 79.48958    202.3 1.745e+04 1.021e-07
 79.49941    201.1 1.814e+04 1.695e-07
 79.50925    200.2 1.877e+04 2.553e-07
 79.51605    198.8 1.923e+04 3.137e-07
 79.51873    199.3 1.901e+04 2.573e-07
 79.52178    197.5 1.861e+04 1.974e-07
 79.52892    195.5 1.862e+04 1.927e-07
 79.53876    193.3 1.857e+04 1.723e-07
 79.54860    191.2 1.829e+04 1.399e-07
 79.55843    189.2 1.783e+04 1.083e-07
 79.56827    187.2 1.735e+04 8.451e-08
 79.57811    185.0 1.688e+04 7.040e-08
 79.58794    182.8 1.649e+04 6.505e-08
 79.59778    180.9 1.631e+04 6.430e-08
 79.60762    179.3 1.625e+04 6.438e-08
 79.61611    177.9 1.616e+04 6.511e-08
 79.62103    178.9 1.637e+04 6.570e-08
 79.62729    177.3 1.634e+04 6.775e-08
 79.63713    175.7 1.626e+04 6.817e-08
 79.64697    174.6 1.610e+04 6.779e-08
 79.65334    173.6 1.608e+04 6.731e-08
 79.65826    174.0 1.587e+04 6.419e-08
 79.66664    173.1 1.593e+04 6.540e-08
 79.68144    171.9 1.615e+04 6.795e-08
 79.70117    169.3 1.649e+04 7.071e-08
 79.72084    166.0 1.658e+04 7.053e-08
 79.74051    162.5 1.652e+04 6.520e-08
 79.76019    159.4 1.594e+04 5.052e-08
 79.77986    157.0 1.488e+04 3.415e-08
 79.79953    155.2 1.356e+04 2.197e-08
 79.81633    153.8 1.240e+04 1.565e-08
 79.82616    154.2 1.221e+04 1.510e-08
 79.83888    154.2 1.218e+04 1.510e-08
 79.85856    154.3 1.221e+04 1.526e-08
 79.87823    154.7 1.231e+04 1.575e-08
 79.89790    155.1 1.251e+04 1.676e-08
 79.91656    155.5 1.282e+04 1.863e-08
 79.92639    157.5 1.245e+04 1.675e-08
 79.93725    157.8 1.292e+04 1.944e-08
 79.95692    157.9 1.347e+04 2.385e-08
 79.97660    158.0 1.411e+04 2.955e-08
 79.99627    158.1 1.472e+04 3.594e-08
 80.01594    158.0 1.529e+04 4.316e-08
 80.02629    157.8 1.580e+04 4.863e-08
 80.03612    159.1 1.571e+04 4.924e-08
 80.05529    158.9 1.607e+04 5.172e-08
 80.07497    158.5 1.627e+04 5.129e-08
 80.09464    158.2 1.636e+04 5.073e-08
 80.11431    157.9 1.640e+04 5.091e-08
 80.13399    157.8 1.648e+04 5.319e-08
 80.15366    157.8 1.664e+04 5.966e-08
 80.17333    157.9 1.688e+04 6.919e-08
 80.18952    158.1 1.716e+04 7.844e-08
 80.19935    159.6 1.742e+04 9.031e-08
 80.21268    159.5 1.765e+04 9.837e-08
 80.22641    159.0 1.766e+04 9.829e-08
 80.23625    159.7 1.765e+04 8.693e-08
 80.25203    159.3 1.743e+04 7.971e-08
 80.27170    159.4 1.706e+04 6.906e-08
 80.29138    159.7 1.664e+04 5.885e-08
 80.31105    159.9 1.624e+04 5.163e-08
 80.33072    160.3 1.594e+04 4.870e-08
 80.35040    161.0 1.585e+04 4.862e-08
 80.37007    161.8 1.583e+04 4.897e-08
 80.38974    162.4 1.580e+04 4.919e-08
 80.40942    162.8 1.574e+04 4.886e-08
 80.42653    163.3 1.555e+04 4.708e-08
 80.43637    164.2 1.532e+04 4.261e-08
 80.44876    164.7 1.509e+04 4.032e-08
 80.46248    165.0 1.479e+04 3.697e-08
 80.47231    165.8 1.497e+04 3.905e-08
 80.48811    165.8 1.470e+04 3.550e-08
 80.50779    165.5 1.467e+04 3.513e-08
 80.52746    164.9 1.479e+04 3.619e-08
 80.54713    163.9 1.522e+04 4.009e-08
 80.56681    162.7 1.577e+04 4.727e-08
 80.58648    161.2 1.633e+04 5.733e-08
 80.60615    159.4 1.682e+04 6.820e-08
 80.62583    157.2 1.727e+04 7.848e-08
 80.63649    154.0 1.774e+04 8.920e-08
 80.64136    154.8 1.718e+04 6.458e-08
 80.65032    153.4 1.736e+04 6.818e-08
 80.66016    150.1 1.794e+04 8.202e-08
 80.67000    148.2 1.816e+04 9.094e-08
 80.67983    144.3 1.876e+04 1.202e-07
 80.68967    142.1 1.892e+04 1.377e-07
 80.69951    138.0 1.936e+04 1.707e-07
 80.70934    135.6 1.956e+04 1.861e-07
 80.71918    131.1 1.982e+04 1.961e-07
 80.72902    128.0 1.990e+04 1.943e-07
 80.73539    119.5 2.019e+04 1.689e-07
 80.74527    123.7 1.998e+04 1.761e-07
 80.76354    115.1 2.013e+04 1.327e-07
 80.78322    106.0 1.934e+04 8.605e-08
 80.80289     98.0 1.729e+04 5.743e-08
 80.82256     92.5 1.533e+04 4.392e-08
 80.83662     89.1 1.436e+04 3.624e-08
 80.84645     86.7 1.410e+04 3.320e-08
 80.86191     84.0 1.411e+04 3.005e-08
 80.88159     81.0 1.435e+04 3.142e-08
 80.90126     76.6 1.544e+04 4.030e-08
 80.92093     72.3 1.671e+04 6.769e-08
 80.94061     68.9 1.778e+04 1.152e-07
 80.96028     65.8 1.844e+04 1.801e-07
 80.97499     62.7 1.874e+04 2.656e-07
 80.98477     61.7 1.868e+04 2.506e-07
 80.99461     60.0 1.853e+04 1.690e-07
 81.00338     58.9 1.848e+04 1.528e-07
 81.00830     58.2 1.927e+04 1.873e-07
 81.01428     55.6 1.968e+04 1.445e-07
 81.02412     52.1 2.003e+04 1.475e-07
 81.03396     45.8 2.123e+04 1.769e-07
 81.04156     37.8 2.132e+04 3.245e-07
 81.04648     34.4 2.135e+04 3.055e-07
 81.05363     26.6 2.065e+04 4.945e-07
 81.06347     18.2 2.043e+04 5.754e-07
 81.07331     10.4 2.028e+04 5.129e-07
 81.08314      4.4 2.007e+04 3.013e-07
 81.09298     -2.0 1.894e+04 1.249e-07
 81.10282     -7.4 1.634e+04 6.852e-08
 81.11265    -11.6 1.480e+04 3.731e-08
 81.12249    -12.8 1.439e+04 3.405e-08
 81.13729    -16.8 1.342e+04 2.137e-08
 81.15702    -19.6 1.187e+04 1.754e-08
 81.17669    -19.3 1.175e+04 1.643e-08
 81.19636    -18.5 1.139e+04 1.354e-08
 81.21604    -17.3 1.068e+04 1.010e-08
 81.23571    -16.7 1.002e+04 5.964e-09
 81.24670    -16.6 9.149e+03 4.103e-09
 81.25654    -16.2 9.472e+03 5.158e-09
 81.27152    -16.2 8.873e+03 2.812e-09
 81.28136    -16.2 8.938e+03 2.697e-09
 81.29473    -15.8 8.539e+03 2.361e-09
 81.32434    -15.8 8.254e+03 1.768e-09
 81.36379    -14.6 7.900e+03 1.547e-09
 81.40313    -13.3 7.941e+03 1.645e-09
 81.43718    -12.6 8.326e+03 2.052e-09
 81.45685    -13.8 8.877e+03 2.792e-09
 81.47189    -14.4 8.907e+03 3.016e-09
 81.49147    -14.0 9.213e+03 4.065e-09
 81.51114    -13.4 9.598e+03 5.610e-09
 81.53082    -12.9 9.940e+03 6.784e-09
 81.54448    -12.9 1.020e+04 7.639e-09
 81.55431    -12.5 1.037e+04 8.243e-09
 81.57016    -13.4 1.090e+04 9.292e-09
 81.58984    -15.3 1.155e+04 1.199e-08
 81.60951    -17.4 1.201e+04 1.615e-08
 81.62918    -18.4 1.272e+04 2.379e-08
 81.64694    -19.3 1.327e+04 2.745e-08
 81.65678    -18.9 1.282e+04 2.261e-08
 81.66853    -19.6 1.224e+04 1.899e-08
 81.68821    -20.3 1.155e+04 1.277e-08
 81.70788    -21.8 1.046e+04 7.601e-09
 81.72755    -22.3 9.834e+03 5.404e-09
 81.74723    -22.9 9.441e+03 3.414e-09
 81.76690    -22.9 9.262e+03 3.039e-09
 81.79651    -24.2 8.937e+03 2.530e-09
 81.81763    -24.0 8.505e+03 2.274e-09
 81.83731    -22.4 8.362e+03 1.873e-09
 81.85710    -21.2 8.307e+03 1.862e-09
 81.87677    -20.7 8.240e+03 1.653e-09
 81.91465    -19.9 8.304e+03 1.575e-09
 81.95399    -19.3 8.277e+03 1.682e-09
 81.99334    -18.2 8.230e+03 1.814e-09
 82.03269    -17.2 8.186e+03 1.555e-09
 82.07204    -16.6 8.022e+03 1.308e-09
 82.11138    -15.7 7.880e+03 1.123e-09
 82.15073    -15.1 7.928e+03 1.002e-09
 82.19008    -14.8 8.164e+03 1.245e-09
 82.22943    -14.0 8.469e+03 1.926e-09
 82.25725    -12.0 8.522e+03 2.261e-09
 82.26699    -12.0 8.569e+03 2.172e-09
 82.27841    -12.0 8.853e+03 2.310e-09
 82.29809    -12.0 9.003e+03 2.948e-09
 82.31776    -12.1 9.470e+03 3.703e-09
 82.33744    -12.4 9.697e+03 5.109e-09
 82.35352    -12.5 1.016e+04 6.223e-09
 82.36336    -10.7 9.667e+03 3.577e-09
 82.37678    -10.3 9.469e+03 5.327e-09
 82.39646     -9.3 9.601e+03 5.725e-09
 82.41613     -8.5 1.001e+04 5.603e-09
 82.43580     -7.7 9.860e+03 5.367e-09
 82.46541     -6.8 9.866e+03 4.210e-09
 82.50486     -5.8 9.637e+03 3.556e-09
 82.54420     -4.3 9.630e+03 3.584e-09
 82.58355     -3.0 9.959e+03 4.223e-09
 82.62290     -1.9 1.058e+04 6.867e-09
 82.65759     -0.7 1.141e+04 1.047e-08
 82.67726     -0.5 1.134e+04 9.672e-09
 82.70159      0.2 1.182e+04 1.038e-08
 82.74094      0.3 1.160e+04 8.815e-09
 82.78029      0.1 1.103e+04 7.595e-09
 82.81964      0.3 1.070e+04 6.124e-09
 82.84905      0.7 1.068e+04 5.740e-09
 82.86735      1.2 1.074e+04 5.785e-09
 82.87719      1.1 1.087e+04 6.401e-09
 82.88830      1.5 1.095e+04 6.844e-09
 82.89944      1.9 1.095e+04 7.042e-09
 82.90928      2.3 1.059e+04 5.687e-09
 82.92765      2.5 1.086e+04 7.382e-09
 82.94732      3.1 1.106e+04 8.726e-09
 82.96699      3.5 1.133e+04 1.061e-08
 82.98667      4.2 1.143e+04 1.166e-08
 83.00634      4.5 1.162e+04 1.189e-08
 83.02601      4.6 1.165e+04 1.182e-08
 83.04569      4.9 1.149e+04 1.097e-08
 83.06536      5.8 1.111e+04 8.509e-09
 83.07731      6.5 1.092e+04 6.041e-09
 83.08715      6.4 1.072e+04 5.881e-09
 83.10471      6.6 1.077e+04 4.399e-09
 83.12438      7.1 1.052e+04 3.202e-09
 83.14406      7.8 1.033e+04 2.400e-09
 83.17366      8.2 1.034e+04 2.428e-09
 83.21311      9.4 1.040e+04 2.397e-09
 83.24252      9.4 1.045e+04 2.737e-09
 83.26210     10.9 1.028e+04 2.925e-09
 83.29171     10.0 1.081e+04 3.346e-09
 83.33115      8.7 1.156e+04 6.597e-09
 83.37050      7.6 1.227e+04 1.238e-08
 83.40985      7.2 1.253e+04 1.615e-08
 83.43572      6.8 1.222e+04 1.356e-08
 83.44546      8.0 1.270e+04 1.909e-08
 83.45883      8.4 1.222e+04 1.722e-08
 83.47766      8.1 1.238e+04 1.610e-08
 83.49743      9.1 1.205e+04 1.440e-08
 83.52789     10.5 1.109e+04 7.496e-09
 83.56723     10.8 1.051e+04 3.268e-09
 83.60658     11.2 1.015e+04 2.470e-09
 83.64593     12.3 1.020e+04 2.765e-09
 83.68528     13.7 1.034e+04 3.261e-09
 83.72462     15.0 1.049e+04 3.429e-09
 83.76397     15.9 1.062e+04 3.478e-09
 83.80332     16.8 1.065e+04 3.424e-09
 83.84267     17.9 1.058e+04 3.292e-09
 83.87800     19.2 1.050e+04 2.953e-09
 83.89767     19.9 1.032e+04 2.108e-09
 83.92136     21.1 1.033e+04 2.018e-09
 83.96071     22.3 1.044e+04 1.853e-09
 83.98164     23.7 1.050e+04 1.878e-09
 84.00131     24.4 1.047e+04 1.573e-09
 84.03940     25.7 1.051e+04 1.954e-09
 84.07875     27.1 1.058e+04 2.525e-09
 84.11810     28.5 1.073e+04 3.193e-09
 84.15744     29.8 1.101e+04 3.703e-09
 84.19679     30.8 1.120e+04 3.760e-09
 84.23614     31.6 1.115e+04 3.541e-09
 84.27549     32.5 1.105e+04 3.673e-09
 84.29792     33.6 1.089e+04 4.017e-09
 84.31759     34.3 1.090e+04 4.364e-09
 84.35418     35.6 1.081e+04 4.929e-09
 84.39353     37.1 1.081e+04 5.515e-09
 84.43288     38.8 1.082e+04 5.997e-09
 84.47222     40.7 1.081e+04 6.369e-09
 84.50788     42.5 1.076e+04 6.415e-09
 84.52756     43.6 1.077e+04 6.476e-09
 84.55092     45.4 1.089e+04 6.459e-09
 84.59027     47.3 1.088e+04 6.457e-09
 84.62961     49.2 1.106e+04 7.057e-09
 84.65903     49.9 1.111e+04 7.526e-09
 84.67860     50.7 1.109e+04 7.969e-09
 84.69797     51.8 1.113e+04 8.781e-09
 84.70781     52.4 1.093e+04 7.331e-09
 84.71795     53.4 1.111e+04 8.141e-09
 84.73762     54.3 1.131e+04 9.311e-09
 84.75730     55.2 1.153e+04 1.104e-08
 84.77697     56.0 1.187e+04 1.392e-08
 84.79048     56.4 1.234e+04 1.923e-08
 84.80032     57.3 1.198e+04 1.223e-08
 84.81632     57.9 1.252e+04 1.782e-08
 84.83599     58.5 1.330e+04 2.868e-08
 84.85566     59.0 1.422e+04 4.805e-08
 84.87534     59.5 1.491e+04 7.319e-08
 84.89501     60.0 1.539e+04 9.314e-08
 84.90793     60.4 1.563e+04 1.040e-07
 84.91777     60.7 1.513e+04 8.023e-08
 84.93436     61.2 1.516e+04 8.368e-08
 84.95403     61.8 1.507e+04 8.073e-08
 84.97371     62.7 1.465e+04 6.685e-08
 84.99338     63.7 1.394e+04 4.709e-08
 85.01305     64.3 1.312e+04 3.073e-08
 85.03273     64.6 1.222e+04 2.015e-08
 85.05370     64.2 1.096e+04 1.005e-08
 85.07347     65.1 1.188e+04 1.468e-08
 85.09841     66.1 1.113e+04 1.007e-08
 85.11809     67.7 1.154e+04 1.223e-08
 85.14113     68.9 1.107e+04 9.684e-09
 85.18047     70.4 1.065e+04 8.067e-09
 85.21982     72.1 1.027e+04 6.805e-09
 85.25917     73.9 9.934e+03 5.655e-09
 85.29852     75.7 9.629e+03 4.674e-09
 85.33786     77.4 9.373e+03 4.012e-09
 85.37721     79.2 9.229e+03 3.841e-09
 85.41656     80.9 9.229e+03 3.875e-09
 85.45591     82.3 9.303e+03 4.088e-09
 85.49525     83.5 9.501e+03 4.554e-09
 85.51833     84.5 9.721e+03 5.042e-09
 85.53800     85.8 9.753e+03 5.293e-09
 85.57395     86.6 9.993e+03 6.149e-09
 85.59972     87.5 1.030e+04 7.388e-09
 85.61939     89.3 1.056e+04 7.849e-09
 85.65264     90.1 1.087e+04 9.325e-09
 85.68206     90.0 1.109e+04 9.953e-09
 85.70163     90.0 1.109e+04 1.022e-08
 85.71826     90.2 1.109e+04 1.050e-08
 85.72810     90.8 1.122e+04 1.060e-08
 85.74098     91.0 1.127e+04 1.104e-08
 85.76065     91.3 1.136e+04 1.213e-08
 85.78033     91.6 1.156e+04 1.420e-08
 85.80000     91.9 1.189e+04 1.725e-08
 85.81967     92.2 1.229e+04 2.132e-08
 85.83935     92.6 1.270e+04 2.660e-08
 85.85902     93.1 1.299e+04 2.682e-08
 85.87248     93.6 1.296e+04 2.512e-08
 85.88232     94.1 1.329e+04 3.361e-08
 85.89837     94.7 1.325e+04 3.111e-08
 85.91804     95.3 1.296e+04 2.373e-08
 85.92822     95.5 1.225e+04 1.480e-08
 85.93805     97.0 1.332e+04 2.871e-08
 85.95739     97.3 1.248e+04 1.623e-08
 85.97706     97.2 1.120e+04 7.732e-09
 85.99674     96.5 9.504e+03 3.593e-09
 86.01641     95.6 8.360e+03 2.203e-09
 86.03608     95.7 8.170e+03 1.913e-09
 86.05576     96.1 8.101e+03 1.843e-09
 86.07543     97.1 8.049e+03 1.804e-09
 86.09510     98.0 8.050e+03 1.805e-09
 86.12471     99.4 8.193e+03 1.857e-09
 86.14564    101.1 8.231e+03 1.846e-09
 86.15538    100.7 8.175e+03 1.884e-09
 86.17380    101.6 8.141e+03 1.861e-09
 86.19347    102.7 8.117e+03 1.853e-09
 86.21315    103.8 8.130e+03 1.885e-09
 86.23282    104.8 8.197e+03 2.016e-09
 86.25249    105.7 8.344e+03 2.318e-09
 86.27217    106.6 8.599e+03 2.814e-09
 86.29184    107.4 8.970e+03 3.730e-09
 86.31151    108.3 9.442e+03 5.295e-09
 86.32846    109.3 9.987e+03 7.580e-09
 86.33830    109.8 1.086e+04 1.072e-08
 86.35086    111.0 1.155e+04 1.496e-08
 86.37054    112.1 1.224e+04 1.876e-08
 86.39021    112.5 1.247e+04 1.923e-08
 86.40857    112.5 1.237e+04 1.816e-08
 86.41835    112.7 1.270e+04 2.019e-08
 86.42951    112.3 1.385e+04 2.391e-08
 86.44923    111.4 1.353e+04 2.040e-08
 86.46890    110.2 1.285e+04 1.712e-08
 86.48858    108.6 1.217e+04 1.608e-08
 86.50825    107.0 1.226e+04 1.771e-08
 86.52793    106.6 1.260e+04 2.404e-08
 86.53842    107.0 1.318e+04 3.225e-08
 86.54826    107.0 1.384e+04 3.891e-08
 86.56727    107.4 1.383e+04 3.924e-08
 86.58695    108.1 1.368e+04 3.703e-08
 86.60662    108.7 1.313e+04 2.866e-08
 86.62629    108.8 1.231e+04 1.878e-08
 86.64597    108.0 1.138e+04 1.194e-08
 86.66564    106.5 1.061e+04 9.120e-09
 86.68153    105.1 1.048e+04 9.041e-09
 86.69136    107.4 1.091e+04 1.135e-08
 86.70499    106.1 1.093e+04 1.156e-08
 86.72466    104.7 1.116e+04 1.291e-08
 86.73855    103.1 1.163e+04 1.523e-08
 86.74838    104.2 1.188e+04 1.616e-08
 86.76401    102.0 1.230e+04 1.868e-08
 86.78368     97.2 1.385e+04 2.378e-08
 86.79839     93.3 1.475e+04 2.673e-08
 86.80818     90.0 1.547e+04 3.112e-08
 86.81791     84.5 1.701e+04 4.480e-08
 86.82283     87.4 1.688e+04 4.492e-08
 86.82785     82.5 1.762e+04 6.762e-08
 86.83769     77.6 1.847e+04 1.035e-07
 86.84343     73.8 1.910e+04 1.346e-07
 86.84835     73.1 1.926e+04 1.311e-07
 86.85736     68.6 2.018e+04 1.541e-07
 86.86720     62.8 2.112e+04 1.735e-07
 86.87703     56.1 2.136e+04 1.870e-07
 86.88687     49.6 2.071e+04 1.929e-07
 86.89671     42.5 2.059e+04 1.885e-07
 86.90655     35.7 2.095e+04 1.579e-07
 86.91638     28.3 2.146e+04 1.110e-07
 86.92622     21.0 1.991e+04 6.529e-08
 86.93606     13.2 1.621e+04 4.100e-08
 86.94349      9.8 1.511e+04 3.668e-08
 86.94841     10.1 1.556e+04 4.236e-08
 86.95439      5.8 1.499e+04 3.314e-08
 86.95931      7.2 1.536e+04 3.865e-08
 86.96557      5.8 1.568e+04 3.862e-08
 86.98037      1.3 1.511e+04 3.385e-08
 87.00009     -4.7 1.434e+04 2.739e-08
 87.01977     -9.2 1.362e+04 2.338e-08
 87.03944    -12.1 1.297e+04 1.928e-08
 87.05911    -14.5 1.234e+04 1.431e-08
 87.07879    -17.7 1.169e+04 9.887e-09
 87.09846    -21.6 1.107e+04 7.643e-09
 87.11813    -25.1 1.072e+04 7.127e-09
 87.13781    -27.6 1.057e+04 7.283e-09
 87.14863    -29.4 1.052e+04 7.613e-09
 87.15847    -29.4 1.086e+04 8.429e-09
 87.17716    -31.0 1.071e+04 8.322e-09
 87.19683    -32.8 1.049e+04 7.255e-09
 87.21650    -35.9 1.047e+04 6.599e-09
 87.22745    -40.6 1.088e+04 6.596e-09
 87.23728    -39.6 1.058e+04 6.122e-09
 87.25585    -45.6 1.180e+04 8.162e-09
 87.27552    -50.5 1.277e+04 1.471e-08
 87.29520    -53.5 1.338e+04 2.295e-08
 87.31487    -55.7 1.359e+04 2.644e-08
 87.33455    -58.0 1.351e+04 2.625e-08
 87.34875    -60.2 1.273e+04 1.955e-08
 87.35859    -62.4 1.217e+04 1.538e-08
 87.37389    -64.6 1.102e+04 9.980e-09
 87.39357    -66.3 1.018e+04 7.121e-09
 87.41324    -67.3 9.800e+03 5.891e-09
 87.43291    -68.0 9.719e+03 5.602e-09
 87.45259    -68.8 9.748e+03 5.615e-09
 87.47226    -70.7 1.028e+04 6.805e-09
 87.49057    -72.3 1.157e+04 1.203e-08
 87.50041    -72.7 1.168e+04 1.221e-08
 87.51161    -73.2 1.321e+04 2.320e-08
 87.53128    -73.2 1.456e+04 4.010e-08
 87.54887    -73.2 1.543e+04 5.608e-08
 87.55871    -74.5 1.505e+04 4.390e-08
 87.56566    -74.2 1.512e+04 4.704e-08
 87.57545    -74.3 1.517e+04 4.773e-08
 87.58529    -74.6 1.520e+04 4.817e-08
 87.59512    -74.8 1.512e+04 4.737e-08
 87.60496    -75.3 1.490e+04 4.433e-08
 87.61480    -75.6 1.479e+04 4.250e-08
 87.62463    -76.4 1.458e+04 3.930e-08
 87.63187    -76.7 1.454e+04 3.843e-08
 87.63679    -77.3 1.480e+04 4.155e-08
 87.64431    -78.0 1.469e+04 4.007e-08
 87.65376    -78.4 1.468e+04 3.973e-08
 87.65867    -78.7 1.470e+04 4.100e-08
 87.66398    -79.4 1.461e+04 4.043e-08
 87.67382    -79.8 1.464e+04 4.084e-08
 87.68365    -80.3 1.461e+04 4.089e-08
 87.69349    -80.6 1.465e+04 4.119e-08
 87.70333    -80.9 1.461e+04 4.114e-08
 87.71317    -81.1 1.464e+04 4.122e-08
 87.72300    -81.4 1.462e+04 4.068e-08
 87.73284    -81.6 1.465e+04 4.030e-08
 87.74764    -81.7 1.450e+04 3.701e-08
 87.75883    -82.6 1.469e+04 3.660e-08
 87.76483    -81.8 1.445e+04 3.433e-08
 87.77332    -83.7 1.528e+04 4.349e-08
 87.78699    -84.8 1.531e+04 4.412e-08
 87.80671    -85.4 1.528e+04 4.173e-08
 87.82639    -85.6 1.510e+04 3.917e-08
 87.84606    -85.5 1.499e+04 3.867e-08
 87.86573    -85.0 1.492e+04 3.523e-08
 87.88541    -84.5 1.472e+04 2.740e-08
 87.90508    -84.1 1.431e+04 1.849e-08
 87.92475    -84.1 1.353e+04 1.174e-08
 87.94443    -84.2 1.249e+04 8.798e-09
 87.95896    -84.1 1.195e+04 7.366e-09
 87.96879    -83.3 1.209e+04 7.436e-09
 87.98378    -82.9 1.168e+04 6.377e-09
 88.00345    -82.2 1.133e+04 5.921e-09
 88.02312    -81.4 1.114e+04 5.830e-09
 88.03649    -80.7 1.105e+04 5.833e-09
 88.04632    -81.5 1.144e+04 7.525e-09
 88.06247    -81.1 1.134e+04 7.318e-09
 88.08214    -80.9 1.125e+04 7.104e-09
 88.10182    -80.9 1.122e+04 7.013e-09
 88.12149    -80.9 1.123e+04 7.085e-09
 88.14117    -81.1 1.127e+04 7.698e-09
 88.15908    -81.3 1.137e+04 8.926e-09
 88.16892    -80.8 1.149e+04 9.720e-09
 88.18051    -80.9 1.159e+04 1.107e-08
 88.20019    -80.7 1.176e+04 1.258e-08
 88.21986    -80.4 1.193e+04 1.394e-08
 88.23953    -80.2 1.205e+04 1.468e-08
 88.25921    -80.1 1.213e+04 1.512e-08
 88.27888    -80.2 1.221e+04 1.581e-08
 88.29855    -80.9 1.251e+04 1.817e-08
 88.30945    -81.8 1.317e+04 2.420e-08
 88.31928    -81.9 1.310e+04 2.333e-08
 88.33790    -82.4 1.414e+04 3.622e-08
 88.35758    -82.5 1.528e+04 5.706e-08
 88.36904    -82.7 1.608e+04 7.901e-08
 88.37888    -82.3 1.580e+04 7.204e-08
 88.39692    -82.8 1.618e+04 8.429e-08
 88.41660    -83.6 1.618e+04 8.525e-08
 88.43627    -84.2 1.568e+04 7.163e-08
 88.45594    -85.0 1.490e+04 5.199e-08
 88.47562    -86.1 1.414e+04 3.793e-08
 88.49529    -87.5 1.351e+04 2.950e-08
 88.51496    -88.8 1.301e+04 2.447e-08
 88.53464    -90.1 1.260e+04 2.046e-08
 88.55431    -91.3 1.214e+04 1.713e-08
 88.56916    -92.6 1.173e+04 1.468e-08
 88.57758    -92.6 1.199e+04 1.637e-08
 88.58241    -92.7 1.190e+04 1.609e-08
 88.59366    -93.8 1.162e+04 1.459e-08
 88.61333    -94.8 1.146e+04 1.363e-08
 88.63301    -95.7 1.136e+04 1.311e-08
 88.65268    -96.6 1.131e+04 1.286e-08
 88.67235    -97.4 1.125e+04 1.271e-08
 88.69203    -98.1 1.116e+04 1.252e-08
 88.71170    -98.4 1.105e+04 1.227e-08
 88.73137    -98.5 1.091e+04 1.188e-08
 88.75105    -98.3 1.075e+04 1.128e-08
 88.76928    -97.8 1.057e+04 1.065e-08
 88.77912    -97.9 1.086e+04 1.231e-08
 88.79040    -97.5 1.065e+04 1.122e-08
 88.81007    -97.2 1.051e+04 1.063e-08
 88.82974    -96.7 1.043e+04 1.043e-08
 88.84553    -96.1 1.039e+04 1.039e-08
 88.85537    -95.8 1.047e+04 1.093e-08
 88.86909    -95.1 1.047e+04 1.094e-08
 88.88876    -94.4 1.050e+04 1.105e-08
 88.90844    -93.7 1.051e+04 1.111e-08
 88.92811    -93.0 1.052e+04 1.112e-08
 88.94779    -92.3 1.052e+04 1.101e-08
 88.96746    -91.7 1.049e+04 1.068e-08
 88.97924    -91.2 1.047e+04 1.043e-08
 88.98908    -91.7 1.045e+04 1.028e-08
 89.00681    -91.4 1.044e+04 1.006e-08
 89.02648    -91.2 1.044e+04 1.003e-08
 89.04615    -91.3 1.051e+04 1.012e-08
 89.06583    -91.8 1.078e+04 1.115e-08
 89.08550    -92.2 1.106e+04 1.284e-08
 89.10517    -92.6 1.129e+04 1.472e-08
 89.11849    -92.7 1.146e+04 1.616e-08
 89.12833    -93.1 1.185e+04 1.927e-08
 89.14452    -93.3 1.190e+04 1.960e-08
 89.16420    -93.4 1.181e+04 1.839e-08
 89.17937    -93.4 1.158e+04 1.566e-08
 89.18920    -94.3 1.152e+04 1.471e-08
 89.20354    -94.5 1.118e+04 1.179e-08
 89.22322    -94.7 1.086e+04 9.802e-09
 89.24289    -94.7 1.055e+04 8.452e-09
 89.26256    -94.2 1.030e+04 7.487e-09
 89.28224    -93.6 1.017e+04 6.740e-09
 89.30191    -93.1 1.012e+04 6.101e-09
 89.32158    -92.6 1.009e+04 5.615e-09
 89.34126    -91.9 1.012e+04 5.425e-09
 89.36093    -91.2 1.018e+04 5.409e-09
 89.37949    -90.5 1.023e+04 5.677e-09
 89.38933    -90.9 9.853e+03 5.739e-09
 89.39145    -90.0 9.931e+03 6.077e-09
 89.40129    -90.8 9.859e+03 6.086e-09
 89.41995    -89.9 9.867e+03 5.859e-09
 89.43963    -88.9 9.869e+03 5.400e-09
 89.45930    -88.0 9.871e+03 4.772e-09
 89.47897    -87.0 9.855e+03 4.131e-09
 89.49865    -86.1 9.834e+03 3.616e-09
 89.51832    -85.3 9.883e+03 3.289e-09
 89.53799    -84.5 9.892e+03 3.191e-09
 89.55767    -83.7 1.002e+04 3.164e-09
 89.57734    -83.0 1.012e+04 3.234e-09
 89.58945    -82.1 1.019e+04 3.473e-09
 89.59929    -83.2 1.051e+04 5.259e-09
 89.61669    -82.1 1.063e+04 5.882e-09
 89.63636    -81.0 1.075e+04 6.473e-09
 89.65457    -79.8 1.086e+04 6.926e-09
 89.66441    -80.4 1.142e+04 9.451e-09
 89.67571    -79.2 1.153e+04 9.670e-09
 89.69538    -77.8 1.163e+04 9.829e-09
 89.71506    -76.3 1.173e+04 1.005e-08
 89.73473    -74.8 1.186e+04 1.037e-08
 89.75440    -74.0 1.206e+04 1.102e-08
 89.77408    -74.3 1.343e+04 1.445e-08
 89.78957    -76.0 1.568e+04 2.722e-08
 89.79941    -79.3 1.721e+04 6.249e-08
 89.81343    -80.8 1.830e+04 1.263e-07
 89.82813    -81.0 1.869e+04 1.785e-07
 89.83792    -82.0 1.913e+04 2.484e-07
 89.84776    -82.8 1.936e+04 3.177e-07
 89.85759    -83.6 1.942e+04 3.506e-07
 89.86743    -84.3 1.934e+04 3.159e-07
 89.87727    -84.8 1.917e+04 2.593e-07
 89.88710    -85.3 1.879e+04 1.820e-07
 89.89445    -86.1 1.814e+04 1.165e-07
 89.89937    -87.5 1.701e+04 8.138e-08
 89.90678    -88.3 1.584e+04 5.112e-08
 89.91661    -89.1 1.467e+04 3.413e-08
 89.92645    -89.4 1.393e+04 2.655e-08
 89.93235    -89.1 1.371e+04 2.330e-08
 89.93732    -91.0 1.343e+04 1.963e-08
 89.95114    -90.6 1.252e+04 1.218e-08
 89.97082    -90.0 1.158e+04 8.014e-09
 89.98970    -89.0 1.105e+04 6.179e-09
 89.99953    -89.2 1.064e+04 5.148e-09
 90.01016    -87.8 1.058e+04 4.485e-09
 90.02984    -86.7 1.051e+04 3.923e-09
 90.04951    -85.5 1.044e+04 3.508e-09
 90.06918    -84.4 1.040e+04 3.283e-09
 90.08886    -83.3 1.042e+04 3.193e-09
 90.10853    -82.4 1.044e+04 3.171e-09
 90.12820    -81.4 1.045e+04 3.187e-09
 90.14788    -80.5 1.047e+04 3.191e-09
 90.17749    -79.9 1.053e+04 3.125e-09
 90.21693    -78.4 1.055e+04 2.945e-09
 90.25628    -76.7 1.037e+04 2.540e-09
 90.29563    -74.9 1.021e+04 2.106e-09
 90.33497    -73.0 1.009e+04 1.816e-09
 90.37432    -71.3 1.007e+04 1.754e-09
 90.39997    -70.1 1.018e+04 1.848e-09
 90.41965    -70.6 1.015e+04 1.542e-09
 90.45302    -70.1 1.056e+04 2.442e-09
 90.47355    -69.9 1.083e+04 4.055e-09
 90.48329    -71.0 1.115e+04 5.157e-09
 90.50200    -71.5 1.202e+04 8.581e-09
 90.52168    -72.6 1.298e+04 1.474e-08
 90.54135    -73.8 1.366e+04 2.340e-08
 90.56102    -74.6 1.393e+04 3.017e-08
 90.58070    -75.0 1.393e+04 3.175e-08
 90.59990    -75.0 1.359e+04 2.915e-08
 90.60974    -75.6 1.328e+04 2.508e-08
 90.62005    -75.5 1.264e+04 1.496e-08
 90.63972    -75.7 1.216e+04 8.906e-09
 90.65939    -75.9 1.173e+04 5.761e-09
 90.67907    -75.6 1.137e+04 4.218e-09
 90.69874    -74.9 1.114e+04 3.330e-09
 90.71841    -74.2 1.100e+04 2.750e-09
 90.73657    -73.6 1.090e+04 2.495e-09
 90.74641    -73.9 1.085e+04 2.398e-09
 90.76770    -72.3 1.085e+04 2.325e-09
 90.80022    -70.4 1.071e+04 2.173e-09
 90.81989    -71.0 1.050e+04 1.988e-09
 90.84649    -68.7 1.045e+04 1.954e-09
 90.88584    -66.5 1.045e+04 1.956e-09
 90.92518    -64.5 1.050e+04 2.243e-09
 90.96453    -62.6 1.054e+04 2.985e-09
 90.99989    -60.8 1.056e+04 4.082e-09
 91.01957    -61.8 1.034e+04 3.845e-09
 91.04322    -60.1 1.027e+04 4.366e-09
 91.08257    -58.4 1.022e+04 4.483e-09
 91.12192    -56.9 9.954e+03 3.902e-09
 91.16127    -55.5 9.805e+03 3.181e-09
 91.20046    -54.4 9.726e+03 2.730e-09
 91.23981    -53.8 9.888e+03 2.695e-09
 91.27931    -53.1 9.854e+03 2.688e-09
 91.31866    -52.6 9.772e+03 2.605e-09
 91.35800    -52.5 9.904e+03 2.616e-09
 91.39735    -53.1 1.033e+04 2.765e-09
 91.43670    -54.4 1.090e+04 4.481e-09
 91.47605    -55.5 1.150e+04 7.543e-09
 91.51539    -56.7 1.180e+04 9.147e-09
 91.54581    -58.5 1.153e+04 8.196e-09
 91.56548    -60.9 1.081e+04 4.910e-09
 91.59409    -62.1 1.019e+04 2.652e-09
 91.62038    -63.7 9.986e+03 2.075e-09
 91.64006    -64.0 1.001e+04 2.115e-09
 91.67278    -65.9 1.010e+04 2.388e-09
 91.71213    -68.0 1.067e+04 5.394e-09
 91.75148    -69.5 1.135e+04 1.026e-08
 91.79082    -71.3 1.170e+04 1.222e-08
 91.83017    -73.5 1.153e+04 1.082e-08
 91.86952    -75.3 1.083e+04 7.134e-09
 91.89893    -76.5 1.020e+04 5.205e-09
 91.91851    -76.8 1.015e+04 5.047e-09
 91.93818    -77.4 1.002e+04 4.920e-09
 91.95785    -77.7 9.967e+03 4.871e-09
 91.97753    -78.3 9.824e+03 4.724e-09
 91.99720    -78.5 9.755e+03 4.519e-09
 92.02053    -79.2 9.515e+03 4.007e-09
 92.04030    -79.4 9.746e+03 4.782e-09
 92.06626    -80.0 9.465e+03 4.324e-09
 92.09173    -80.5 9.409e+03 4.279e-09
 92.11140    -79.5 8.416e+03 1.612e-09
 92.14495    -79.7 8.387e+03 1.782e-09
 92.18430    -79.7 8.500e+03 2.661e-09
 92.22364    -79.2 8.569e+03 3.419e-09
 92.26299    -78.4 8.542e+03 3.556e-09
 92.30234    -77.3 8.222e+03 3.013e-09
 92.34169    -76.2 7.890e+03 2.131e-09
 92.38103    -75.3 7.711e+03 1.673e-09
 92.42038    -74.3 7.601e+03 1.522e-09
 92.44055    -73.1 7.537e+03 1.481e-09
 92.46022    -73.1 7.511e+03 1.473e-09
 92.49908    -71.7 7.492e+03 1.452e-09
 92.53842    -70.3 7.521e+03 1.462e-09
 92.57777    -69.6 7.806e+03 1.630e-09
 92.61712    -69.4 8.229e+03 2.298e-09
 92.63765    -69.5 8.735e+03 3.739e-09
 92.65732    -68.4 8.305e+03 2.244e-09
 92.69581    -68.6 8.858e+03 3.924e-09
 92.73516    -68.8 9.636e+03 6.879e-09
 92.77451    -68.9 1.050e+04 1.116e-08
 92.81385    -69.1 1.116e+04 1.534e-08
 92.84070    -69.1 1.133e+04 1.649e-08
 92.86037    -69.0 1.098e+04 1.409e-08
 92.88261    -69.3 1.113e+04 1.535e-08
 92.90058    -68.6 1.081e+04 1.214e-08
 92.91041    -67.9 1.069e+04 1.263e-08
 92.92186    -67.5 1.036e+04 1.004e-08
 92.94154    -67.1 1.016e+04 7.652e-09
 92.96121    -66.9 9.846e+03 5.987e-09
 92.98088    -66.6 9.584e+03 4.932e-09
 93.01049    -66.4 9.340e+03 4.046e-09
 93.04994    -64.7 9.100e+03 3.272e-09
 93.08929    -63.2 9.076e+03 3.005e-09
 93.12863    -62.1 9.321e+03 3.238e-09
 93.16389    -61.0 9.745e+03 3.993e-09
 93.18357    -59.1 9.699e+03 3.621e-09
 93.20733    -58.0 9.754e+03 3.339e-09
 93.24104    -56.8 9.687e+03 2.914e-09
 93.26071    -56.5 9.710e+03 3.178e-09
 93.28602    -55.3 9.590e+03 2.533e-09
 93.32537    -54.3 9.518e+03 1.932e-09
 93.36472    -54.2 9.871e+03 1.801e-09
 93.40406    -54.6 1.092e+04 3.028e-09
 93.44341    -53.9 1.138e+04 7.311e-09
 93.48276    -51.9 1.152e+04 1.170e-08
 93.52211    -49.8 1.148e+04 1.244e-08
 93.56145    -47.8 1.116e+04 1.079e-08
 93.60080    -45.5 1.069e+04 8.598e-09
 93.64015    -43.2 1.041e+04 7.170e-09
 93.66096    -41.1 1.052e+04 6.850e-09
 93.68063    -42.1 1.017e+04 5.825e-09
 93.70891    -39.4 1.010e+04 6.234e-09
 93.71946    -38.3 1.041e+04 6.910e-09
 93.72939    -36.8 9.890e+03 5.491e-09
 93.74826    -35.6 1.028e+04 7.023e-09
 93.76783    -34.5 1.096e+04 8.207e-09
 93.78750    -34.3 1.308e+04 1.098e-08
 93.80718    -36.3 1.699e+04 2.381e-08
 93.82685    -39.1 1.881e+04 8.268e-08
 93.84156    -41.2 1.879e+04 2.554e-07
 93.85092    -41.0 1.831e+04 5.995e-07
 93.85584    -40.6 1.856e+04 6.803e-07
 93.86079    -39.2 1.792e+04 2.073e-06
 93.86571    -37.5 1.765e+04 3.917e-06
 93.87102    -37.4 1.723e+04 7.364e-06
 93.88086    -41.4 1.727e+04 7.599e-06
 93.89069    -44.3 1.817e+04 2.936e-06
 93.90053    -45.4 1.938e+04 6.673e-07
 93.91037    -47.3 1.922e+04 2.483e-07
 93.92020    -48.5 1.832e+04 1.540e-07
 93.93004    -48.9 1.756e+04 1.128e-07
 93.93988    -49.0 1.688e+04 8.843e-08
 93.94971    -48.9 1.626e+04 7.383e-08
 93.95955    -48.5 1.576e+04 6.517e-08
 93.96577    -48.1 1.541e+04 5.898e-08
 93.97069    -48.3 1.517e+04 5.532e-08
 93.98253    -48.3 1.478e+04 4.918e-08
 93.99242    -46.5 1.644e+04 8.856e-08
 94.00392    -46.3 1.524e+04 6.077e-08
 94.02359    -46.4 1.488e+04 5.547e-08
 94.04326    -46.2 1.499e+04 5.951e-08
 94.06101    -46.3 1.553e+04 7.186e-08
 94.07085    -46.6 1.577e+04 8.008e-08
 94.08261    -46.8 1.614e+04 9.228e-08
 94.10228    -46.9 1.627e+04 9.756e-08
 94.12196    -46.9 1.600e+04 9.476e-08
 94.14163    -46.3 1.533e+04 7.655e-08
 94.16130    -45.9 1.439e+04 5.217e-08
 94.18098    -45.8 1.337e+04 3.333e-08
 94.20065    -46.4 1.256e+04 2.347e-08
 94.22033    -47.4 1.226e+04 2.058e-08
 94.24000    -48.4 1.230e+04 2.061e-08
 94.25554    -49.5 1.270e+04 2.517e-08
 94.26537    -47.8 1.268e+04 2.431e-08
 94.27097    -48.5 1.307e+04 3.050e-08
 94.28081    -48.6 1.226e+04 2.163e-08
 94.29902    -49.0 1.241e+04 2.348e-08
 94.31869    -49.4 1.235e+04 2.329e-08
 94.33837    -49.8 1.184e+04 1.917e-08
 94.35804    -50.5 1.118e+04 1.441e-08
 94.37771    -51.5 1.070e+04 1.131e-08
 94.39739    -52.6 1.049e+04 9.927e-09
 94.41706    -53.6 1.044e+04 9.633e-09
 94.43674    -54.3 1.045e+04 9.695e-09
 94.45641    -55.0 1.043e+04 9.841e-09
 94.47109    -55.4 1.036e+04 9.880e-09
 94.48093    -55.0 1.007e+04 8.309e-09
 94.49576    -55.2 9.812e+03 7.883e-09
 94.51543    -55.1 9.536e+03 7.245e-09
 94.52850    -54.8 9.306e+03 6.520e-09
 94.53833    -53.6 9.542e+03 7.247e-09
 94.55478    -53.3 9.380e+03 6.764e-09
 94.57445    -52.9 9.261e+03 6.198e-09
 94.59412    -52.6 9.155e+03 5.671e-09
 94.61380    -52.2 9.084e+03 5.330e-09
 94.63347    -51.9 9.056e+03 5.157e-09
 94.65315    -51.6 9.063e+03 5.117e-09
 94.67121    -51.3 9.158e+03 5.342e-09
 94.68105    -51.2 9.324e+03 5.809e-09
 94.69249    -51.0 9.456e+03 6.381e-09
 94.71217    -50.7 9.589e+03 7.129e-09
 94.73184    -50.1 9.722e+03 7.854e-09
 94.75151    -49.4 9.833e+03 8.360e-09
 94.77119    -48.9 9.887e+03 8.577e-09
 94.79086    -48.5 9.945e+03 8.744e-09
 94.80146    -48.2 1.007e+04 9.086e-09
 94.81129    -47.9 1.022e+04 9.820e-09
 94.83021    -47.7 1.035e+04 1.023e-08
 94.84988    -47.5 1.058e+04 1.120e-08
 94.86956    -47.2 1.084e+04 1.232e-08
 94.88117    -46.8 1.111e+04 1.357e-08
 94.89101    -47.1 1.027e+04 8.688e-09
 94.90890    -46.9 1.038e+04 8.867e-09
 94.92858    -46.7 1.040e+04 8.921e-09
 94.94825    -46.4 1.033e+04 8.770e-09
 94.96792    -46.1 1.012e+04 8.039e-09
 94.98760    -45.8 9.773e+03 6.952e-09
 95.00727    -45.4 9.457e+03 5.894e-09
 95.02695    -45.0 9.205e+03 4.863e-09
 95.04662    -44.5 8.974e+03 4.015e-09
 95.06458    -43.9 8.818e+03 3.484e-09
 95.07442    -43.5 8.837e+03 3.543e-09
 95.08130    -42.9 8.760e+03 3.249e-09
 95.09113    -43.2 8.717e+03 3.143e-09
 95.10564    -42.6 8.679e+03 2.984e-09
 95.12531    -41.9 8.678e+03 2.952e-09
 95.14499    -41.3 8.793e+03 3.032e-09
 95.16466    -41.0 8.929e+03 3.322e-09
 95.18433    -40.6 9.065e+03 3.733e-09
 95.20401    -40.3 9.238e+03 4.257e-09
 95.22368    -39.9 9.446e+03 4.904e-09
 95.24336    -39.6 9.676e+03 5.664e-09
 95.26303    -39.3 9.897e+03 6.462e-09
 95.28142    -39.1 1.010e+04 7.121e-09
 95.29126    -40.3 9.839e+03 5.970e-09
 95.30238    -40.2 9.949e+03 6.212e-09
 95.32205    -40.3 9.984e+03 6.269e-09
 95.33754    -40.4 9.987e+03 6.140e-09
 95.34738    -40.4 9.931e+03 5.957e-09
 95.36140    -40.7 9.915e+03 5.718e-09
 95.38107    -41.2 9.920e+03 5.594e-09
 95.40074    -41.9 9.968e+03 5.617e-09
 95.42042    -42.8 1.006e+04 5.871e-09
 95.44009    -43.7 1.016e+04 6.364e-09
 95.45977    -44.6 1.027e+04 6.980e-09
 95.47944    -45.3 1.037e+04 7.521e-09
 95.49138    -46.1 1.041e+04 7.724e-09
 95.50122    -46.4 1.028e+04 7.132e-09
 95.51879    -46.9 1.022e+04 6.966e-09
 95.53846    -47.5 1.015e+04 6.769e-09
 95.55813    -48.1 1.009e+04 6.689e-09
 95.57781    -48.5 1.005e+04 6.691e-09
 95.59748    -48.8 1.003e+04 6.706e-09
 95.61050    -49.0 9.963e+03 6.594e-09
 95.62034    -49.4 1.029e+04 7.934e-09
 95.63683    -49.6 1.014e+04 7.317e-09
 95.65650    -49.9 1.003e+04 6.897e-09
 95.67618    -50.2 9.973e+03 6.708e-09
 95.69150    -50.4 9.961e+03 6.689e-09
 95.70134    -50.0 9.954e+03 6.626e-09
 95.71552    -50.5 1.012e+04 7.069e-09
 95.73520    -51.1 1.041e+04 8.067e-09
 95.75487    -51.7 1.072e+04 9.337e-09
 95.77454    -52.3 1.096e+04 1.056e-08
 95.79422    -52.8 1.112e+04 1.160e-08
 95.81389    -53.3 1.128e+04 1.266e-08
 95.83357    -53.9 1.150e+04 1.395e-08
 95.85324    -54.5 1.180e+04 1.596e-08
 95.87291    -55.0 1.212e+04 1.871e-08
 95.88346    -55.2 1.242e+04 2.207e-08
 95.89233    -55.1 1.227e+04 1.993e-08
 95.90146    -54.9 1.194e+04 1.667e-08
 95.91226    -54.8 1.220e+04 1.883e-08
 95.93193    -54.7 1.237e+04 2.083e-08
 95.95161    -54.5 1.247e+04 2.222e-08
 95.97128    -54.3 1.253e+04 2.293e-08
 95.99095    -54.0 1.266e+04 2.396e-08
 96.01063    -53.8 1.279e+04 2.524e-08
 96.03030    -53.5 1.281e+04 2.459e-08
 96.04998    -53.2 1.274e+04 2.277e-08
 96.06965    -52.9 1.251e+04 1.976e-08
 96.08932    -52.5 1.213e+04 1.668e-08
 96.10159    -52.0 1.165e+04 1.355e-08
 96.11142    -50.9 1.186e+04 1.524e-08
 96.12867    -50.3 1.138e+04 1.201e-08
 96.14658    -49.6 1.084e+04 9.490e-09
 96.15642    -49.2 1.197e+04 1.579e-08
 96.16802    -48.6 1.146e+04 1.272e-08
 96.18769    -47.8 1.098e+04 1.030e-08
 96.20736    -46.9 1.048e+04 8.290e-09
 96.22704    -45.8 1.002e+04 6.636e-09
 96.24671    -44.9 9.600e+03 5.295e-09
 96.26639    -43.9 9.251e+03 4.298e-09
 96.28606    -42.9 9.015e+03 3.669e-09
 96.30171    -41.8 8.880e+03 3.348e-09
 96.31154    -40.3 9.031e+03 3.626e-09
 96.32541    -39.1 8.826e+03 3.137e-09
 96.34508    -38.0 8.746e+03 2.879e-09
 96.36475    -36.7 8.739e+03 2.691e-09
 96.38443    -35.4 8.712e+03 2.522e-09
 96.40410    -34.0 8.694e+03 2.468e-09
 96.41954    -32.4 8.823e+03 2.526e-09
 96.42938    -33.3 8.868e+03 2.680e-09
 96.44345    -32.1 8.919e+03 2.721e-09
 96.46312    -30.5 9.038e+03 2.866e-09
 96.48280    -29.4 9.074e+03 2.973e-09
 96.50183    -28.1 9.107e+03 3.123e-09
 96.51167    -27.1 9.072e+03 3.069e-09
 96.52214    -25.7 9.169e+03 3.244e-09
 96.54182    -24.4 9.339e+03 3.495e-09
 96.56149    -23.2 9.512e+03 3.786e-09
 96.58116    -22.1 9.604e+03 4.100e-09
 96.60084    -20.8 9.712e+03 4.541e-09
 96.62051    -19.5 9.868e+03 5.174e-09
 96.64019    -18.3 9.937e+03 5.746e-09
 96.65986    -16.9 9.923e+03 6.065e-09
 96.67953    -15.5 9.856e+03 6.149e-09
 96.69250    -13.9 9.701e+03 5.991e-09
 96.70234    -14.5 9.820e+03 6.437e-09
 96.71179    -13.0 9.545e+03 5.551e-09
 96.72163    -12.1 9.473e+03 5.536e-09
 96.73855    -10.2 9.274e+03 4.722e-09
 96.75823     -8.7 9.032e+03 3.829e-09
 96.78784     -7.2 8.702e+03 2.951e-09
 96.82728     -3.6 8.165e+03 1.994e-09
 96.86663      0.0 7.857e+03 1.634e-09
 96.90227      3.6 7.728e+03 1.488e-09
 96.92195      5.3 7.680e+03 1.421e-09
 96.94532      9.1 7.655e+03 1.410e-09
 96.96566     12.1 7.825e+03 1.751e-09
 96.98533     10.6 8.034e+03 2.119e-09
 97.02402     13.7 8.837e+03 3.060e-09
 97.05343     17.2 8.989e+03 3.747e-09
 97.07301     18.2 9.210e+03 4.126e-09
 97.09268     20.2 9.220e+03 4.582e-09
 97.11204     21.6 9.535e+03 5.262e-09
 97.12187     22.2 9.376e+03 4.761e-09
 97.13203     23.5 9.690e+03 5.384e-09
 97.15170     24.8 9.906e+03 5.989e-09
 97.17137     26.0 1.016e+04 6.892e-09
 97.19105     27.3 1.049e+04 8.178e-09
 97.21072     28.2 1.116e+04 1.061e-08
 97.22858     28.5 1.231e+04 1.567e-08
 97.23842     25.6 1.340e+04 2.409e-08
 97.25007     25.5 1.456e+04 3.788e-08
 97.26974     25.5 1.539e+04 5.165e-08
 97.28942     25.4 1.642e+04 7.303e-08
 97.30909     25.8 1.682e+04 8.557e-08
 97.32200     26.4 1.670e+04 7.658e-08
 97.33183     26.4 1.686e+04 8.341e-08
 97.34844     26.8 1.645e+04 6.066e-08
 97.36811     26.3 1.569e+04 3.838e-08
 97.38778     25.0 1.458e+04 2.726e-08
 97.40746     24.7 1.355e+04 2.301e-08
 97.42713     25.3 1.317e+04 2.313e-08
 97.44681     25.8 1.357e+04 2.618e-08
 97.46648     26.1 1.442e+04 3.296e-08
 97.48615     26.2 1.523e+04 4.378e-08
 97.50154     27.3 1.570e+04 5.563e-08
 97.51138     25.3 1.479e+04 4.095e-08
 97.52212     26.1 1.535e+04 4.191e-08
 97.53196     25.9 1.487e+04 3.389e-08
 97.54517     25.6 1.558e+04 3.108e-08
 97.56485     23.2 1.684e+04 3.284e-08
 97.58452     20.2 1.719e+04 4.159e-08
 97.60419     19.5 1.731e+04 6.057e-08
 97.62387     19.8 1.773e+04 7.983e-08
 97.64354     20.1 1.832e+04 8.654e-08
 97.66322     19.4 1.889e+04 8.423e-08
 97.68289     18.5 1.926e+04 7.360e-08
 97.70256     17.3 1.959e+04 6.228e-08
 97.72224     15.9 1.979e+04 5.235e-08
 97.74191     14.1 2.051e+04 6.441e-08
 97.76158     11.6 2.043e+04 5.694e-08
 97.77450      8.5 2.056e+04 4.989e-08
 97.78434     -0.9 1.461e+04 1.704e-08
 97.80093     -5.7 1.339e+04 1.466e-08
 97.82060     -9.7 1.246e+04 1.344e-08
 97.84028    -19.4 2.108e+04 1.353e-08
 97.85498    -46.0 4.549e+04 1.181e-08
 97.86477    -64.5 2.744e+04 2.052e-07
 97.87461    -75.8 2.027e+04 1.616e-06
 97.88445    -88.2 1.889e+04 3.748e-06
 97.89428   -104.5 1.902e+04 3.517e-06
 97.90412   -123.6 2.035e+04 7.005e-07
 97.91088   -140.6 1.904e+04 7.758e-08
 97.91580   -140.6 1.912e+04 8.068e-08
 97.92379   -147.7 1.684e+04 3.244e-08
 97.93210   -152.5 1.537e+04 2.153e-08
 97.93702   -150.1 1.546e+04 2.248e-08
 97.94347   -153.6 1.391e+04 1.558e-08
 97.95827   -156.3 1.317e+04 1.245e-08
 97.97799   -161.1 1.192e+04 9.052e-09
 97.99767   -164.6 1.121e+04 7.933e-09
 98.01734   -166.0 1.139e+04 8.102e-09
 98.03701   -167.1 1.231e+04 1.031e-08
 98.04746   -168.0 1.315e+04 1.396e-08
 98.05730   -166.3 1.190e+04 1.019e-08
 98.07636   -166.8 1.261e+04 1.294e-08
 98.09604   -166.8 1.322e+04 1.699e-08
 98.11571   -166.6 1.370e+04 2.222e-08
 98.13232   -166.0 1.403e+04 2.799e-08
 98.14216   -164.9 1.320e+04 1.833e-08
 98.15506   -164.3 1.362e+04 2.363e-08
 98.17473   -163.3 1.390e+04 2.834e-08
 98.19440   -162.3 1.406e+04 3.109e-08
 98.21408   -161.4 1.411e+04 3.193e-08
 98.23375   -160.5 1.389e+04 3.111e-08
 98.25343   -159.4 1.360e+04 2.672e-08
 98.27310   -158.4 1.323e+04 2.209e-08
 98.29277   -157.5 1.286e+04 1.764e-08
 98.31058   -156.6 1.251e+04 1.401e-08
 98.32042   -155.4 1.402e+04 2.756e-08
 98.33212   -154.3 1.399e+04 2.397e-08
 98.34228   -153.1 1.398e+04 2.099e-08
 98.35212   -153.6 1.492e+04 3.121e-08
 98.37147   -152.2 1.483e+04 2.871e-08
 98.39114   -150.6 1.466e+04 2.527e-08
 98.41081   -148.8 1.439e+04 2.125e-08
 98.43049   -147.0 1.398e+04 1.713e-08
 98.45016   -145.2 1.341e+04 1.355e-08
 98.46984   -143.2 1.280e+04 1.088e-08
 98.48951   -141.2 1.221e+04 9.118e-09
 98.50918   -139.3 1.171e+04 7.998e-09
 98.52886   -137.4 1.133e+04 7.293e-09
 98.54241   -135.3 1.109e+04 6.953e-09
 98.55224   -135.7 1.215e+04 1.163e-08
 98.56820   -133.4 1.209e+04 1.154e-08
 98.58354   -131.4 1.216e+04 1.224e-08
 98.59338   -130.5 1.266e+04 1.737e-08
 98.60755   -128.7 1.273e+04 1.793e-08
 98.62722   -126.9 1.280e+04 1.882e-08
 98.64690   -124.8 1.287e+04 1.995e-08
 98.66657   -122.7 1.307e+04 2.202e-08
 98.68625   -121.0 1.337e+04 2.520e-08
 98.70592   -119.5 1.362e+04 2.906e-08
 98.72559   -117.8 1.382e+04 3.339e-08
 98.74253   -115.8 1.402e+04 3.823e-08
 98.75237   -116.1 1.418e+04 4.182e-08
 98.76494   -114.3 1.423e+04 4.457e-08
 98.78461   -112.4 1.422e+04 4.556e-08
 98.80429   -110.6 1.408e+04 4.518e-08
 98.82396   -108.9 1.382e+04 4.217e-08
 98.84363   -107.1 1.355e+04 3.867e-08
 98.85650   -105.4 1.333e+04 3.534e-08
 98.86634   -104.5 1.379e+04 3.698e-08
 98.88298   -102.9 1.354e+04 3.438e-08
 98.90266   -100.9 1.327e+04 3.146e-08
 98.92233    -98.8 1.304e+04 2.871e-08
 98.94200    -96.9 1.294e+04 2.724e-08
 98.95249    -95.6 1.307e+04 2.736e-08
 98.96233    -95.9 1.302e+04 1.531e-08
 98.98135    -95.9 1.494e+04 1.802e-08
 99.00102   -100.0 2.044e+04 4.247e-08
 99.01573   -102.0 1.966e+04 1.803e-07
 99.02552   -102.4 1.815e+04 7.291e-07
 99.03536   -102.4 1.747e+04 2.080e-06
 99.04519   -102.9 1.721e+04 3.698e-06
 99.05245   -105.1 1.715e+04 4.151e-06
 99.05737   -106.9 1.746e+04 2.581e-06
 99.06487   -108.9 1.747e+04 2.271e-06
 99.07470   -110.1 1.767e+04 1.479e-06
 99.08454   -111.3 1.787e+04 8.533e-07
 99.09438   -112.4 1.810e+04 4.499e-07
 99.10421   -113.0 1.883e+04 1.998e-07
 99.11405   -113.3 2.076e+04 7.745e-08
 99.12389   -113.6 2.280e+04 3.184e-08
 99.12937   -114.5 2.157e+04 1.529e-08
 99.13428   -114.0 1.932e+04 6.137e-08
 99.14356   -114.8 1.951e+04 3.726e-08
 99.15251   -115.4 1.817e+04 2.683e-08
 99.15743   -115.5 1.758e+04 4.163e-08
 99.16323   -115.7 1.665e+04 3.338e-08
 99.17307   -115.7 1.574e+04 2.906e-08
 99.18291   -115.6 1.529e+04 2.762e-08
 99.19274   -114.8 1.521e+04 2.758e-08
 99.20258   -114.2 1.522e+04 3.042e-08
 99.21739   -113.4 1.539e+04 3.316e-08
 99.23711   -111.8 1.535e+04 3.007e-08
 99.25678   -110.3 1.536e+04 2.918e-08
 99.27646   -108.9 1.533e+04 2.870e-08
 99.29613   -107.6 1.524e+04 3.018e-08
 99.31580   -106.3 1.531e+04 3.207e-08
 99.33548   -104.9 1.536e+04 3.453e-08
 99.35273   -103.9 1.550e+04 3.738e-08
 99.36257   -104.2 1.553e+04 3.779e-08
 99.37482   -103.2 1.568e+04 4.035e-08
 99.39259   -102.2 1.597e+04 4.431e-08
 99.40242   -101.9 1.557e+04 3.610e-08
 99.41417   -101.0 1.596e+04 4.013e-08
 99.43384   -100.2 1.647e+04 4.519e-08
 99.45352    -99.3 1.713e+04 5.115e-08
 99.47319    -98.4 1.805e+04 5.805e-08
 99.49287    -97.6 1.914e+04 6.644e-08
 99.51254    -96.9 1.966e+04 7.880e-08
 99.53221    -96.2 1.960e+04 9.107e-08
 99.55189    -95.4 1.932e+04 9.749e-08
 99.56269    -94.6 1.883e+04 9.829e-08
 99.57253    -94.5 2.067e+04 8.625e-08
 99.59123    -93.4 1.981e+04 1.038e-07
 99.61091    -92.3 1.927e+04 1.094e-07
 99.63058    -91.2 1.825e+04 1.104e-07
 99.65025    -90.0 1.812e+04 1.011e-07
 99.66555    -88.7 1.744e+04 1.006e-07
 99.67538    -88.1 1.929e+04 1.664e-07
 99.68960    -87.0 1.884e+04 1.770e-07
 99.70928    -85.9 1.820e+04 1.826e-07
 99.72895    -84.8 1.812e+04 1.806e-07
 99.74862    -83.8 1.797e+04 1.718e-07
 99.76282    -83.4 1.814e+04 1.343e-07
 99.76769    -83.1 1.777e+04 2.187e-07
 99.77312    -82.9 1.786e+04 1.947e-07
 99.78295    -82.9 1.818e+04 1.641e-07
 99.79279    -82.7 1.860e+04 1.449e-07
 99.80193    -82.5 1.939e+04 1.208e-07
 99.80685    -82.5 1.851e+04 2.631e-07
 99.81246    -82.4 1.907e+04 2.410e-07
 99.82230    -82.4 1.966e+04 2.140e-07
 99.83214    -82.5 2.034e+04 1.820e-07
 99.84198    -82.3 2.091e+04 1.475e-07
 99.85181    -81.7 2.118e+04 1.117e-07
 99.86165    -81.4 2.071e+04 8.429e-08
 99.86770    -81.4 1.984e+04 7.343e-08
 99.87262    -80.9 2.116e+04 1.111e-07
 99.88629    -81.1 1.972e+04 7.044e-08
 99.90601    -80.3 1.833e+04 5.243e-08
 99.92569    -79.4 1.727e+04 4.155e-08
 99.93851    -78.7 1.590e+04 3.288e-08
 99.94338    -79.2 2.143e+04 5.141e-08
 99.95018    -78.7 2.129e+04 4.743e-08
 99.96002    -78.3 2.077e+04 4.079e-08
 99.96776    -77.9 1.976e+04 3.519e-08
 99.97273    -77.5 2.103e+04 5.153e-08
 99.98471    -77.0 1.890e+04 3.043e-08
 99.99941    -76.8 1.694e+04 2.260e-08
