# Columns:
#   distance along LOS (in CHIMPs)
#   peculiar velocity  (in km/s)
#   temperature (K)
#   HI number density
# pos=(244.253,54.3082,141.997), angles=(1.7561,3.06273)
  0.00031    -61.3 1.332e+04 1.622e-08
  0.01059    -64.0 1.285e+04 1.344e-08
  0.03052    -65.7 1.279e+04 1.459e-08
  0.05045    -66.8 1.296e+04 1.681e-08
  0.07039    -68.0 1.302e+04 1.744e-08
  0.09032    -69.3 1.296e+04 1.556e-08
  0.10199    -71.1 1.276e+04 1.169e-08
  0.11196    -71.2 1.247e+04 9.200e-09
  0.12759    -72.8 1.213e+04 7.051e-09
  0.13756    -74.1 1.221e+04 8.337e-09
  0.15012    -74.5 1.192e+04 7.181e-09
  0.17005    -74.6 1.187e+04 6.489e-09
  0.18999    -74.4 1.192e+04 5.955e-09
  0.20483    -74.3 1.206e+04 5.649e-09
  0.21479    -73.6 1.188e+04 5.079e-09
  0.22986    -73.5 1.216e+04 5.019e-09
  0.24979    -73.5 1.242e+04 5.365e-09
  0.26972    -73.6 1.273e+04 6.240e-09
  0.28966    -73.5 1.285e+04 8.094e-09
  0.30767    -73.4 1.305e+04 1.072e-08
  0.31763    -73.0 1.287e+04 8.630e-09
  0.32952    -73.0 1.302e+04 1.132e-08
  0.34946    -72.9 1.317e+04 1.453e-08
  0.36939    -72.6 1.328e+04 1.708e-08
  0.38328    -72.1 1.333e+04 1.786e-08
  0.39325    -73.0 1.368e+04 1.978e-08
  0.40926    -72.9 1.341e+04 1.455e-08
  0.42047    -73.0 1.324e+04 1.068e-08
  0.43044    -72.8 1.304e+04 9.222e-09
  0.44912    -73.1 1.292e+04 7.234e-09
  0.46906    -73.2 1.291e+04 6.760e-09
  0.48899    -73.3 1.300e+04 6.721e-09
  0.50892    -73.8 1.335e+04 8.138e-09
  0.52331    -74.0 1.353e+04 1.175e-08
  0.53327    -73.7 1.330e+04 1.042e-08
  0.54879    -73.7 1.357e+04 1.430e-08
  0.56872    -73.5 1.386e+04 1.845e-08
  0.58866    -73.4 1.409e+04 2.157e-08
  0.60859    -73.4 1.415e+04 2.275e-08
  0.62615    -73.4 1.411e+04 2.291e-08
  0.63611    -73.3 1.387e+04 1.753e-08
  0.63898    -73.1 1.379e+04 1.772e-08
  0.64894    -73.6 1.374e+04 1.815e-08
  0.66839    -73.4 1.360e+04 1.615e-08
  0.68832    -73.2 1.343e+04 1.418e-08
  0.70826    -73.0 1.321e+04 1.212e-08
  0.73825    -72.5 1.303e+04 9.999e-09
  0.77822    -71.3 1.259e+04 5.523e-09
  0.81809    -69.7 1.225e+04 3.037e-09
  0.84198    -67.9 1.199e+04 2.275e-09
  0.86192    -68.0 1.200e+04 2.396e-09
  0.88490    -66.1 1.189e+04 2.217e-09
  0.90483    -66.3 1.174e+04 2.232e-09
  0.93769    -64.3 1.175e+04 2.684e-09
  0.97755    -62.1 1.173e+04 3.480e-09
  1.01742    -59.9 1.179e+04 4.070e-09
  1.04766    -57.8 1.182e+04 4.241e-09
  1.06759    -58.5 1.173e+04 3.487e-09
  1.09715    -56.6 1.175e+04 3.352e-09
  1.13702    -54.7 1.184e+04 2.966e-09
  1.17689    -53.1 1.191e+04 2.775e-09
  1.21675    -51.7 1.213e+04 2.960e-09
  1.25333    -50.8 1.225e+04 4.032e-09
  1.27327    -52.3 1.220e+04 4.288e-09
  1.29649    -51.2 1.242e+04 6.087e-09
  1.33635    -50.1 1.256e+04 7.403e-09
  1.37622    -49.4 1.259e+04 6.638e-09
  1.41609    -48.9 1.247e+04 5.121e-09
  1.45595    -49.3 1.224e+04 4.083e-09
  1.47894    -49.5 1.203e+04 4.330e-09
  1.49887    -50.6 1.196e+04 3.258e-09
  1.53569    -50.3 1.206e+04 4.987e-09
  1.57555    -50.4 1.212e+04 5.356e-09
  1.61542    -50.8 1.196e+04 4.155e-09
  1.65529    -51.1 1.167e+04 3.010e-09
  1.68462    -50.8 1.140e+04 2.491e-09
  1.70455    -51.6 1.152e+04 2.837e-09
  1.73502    -51.2 1.139e+04 2.321e-09
  1.77489    -50.8 1.127e+04 1.786e-09
  1.81475    -50.2 1.111e+04 1.548e-09
  1.85462    -49.4 1.100e+04 1.441e-09
  1.88774    -48.4 1.089e+04 1.473e-09
  1.90347    -48.0 1.096e+04 1.561e-09
  1.91022    -48.7 1.094e+04 1.140e-09
  1.93435    -47.3 1.079e+04 1.105e-09
  1.97422    -46.0 1.067e+04 9.938e-10
  2.01409    -44.6 1.065e+04 8.395e-10
  2.05395    -43.5 1.064e+04 7.084e-10
  2.09382    -42.6 1.069e+04 6.757e-10
  2.11590    -42.8 1.088e+04 9.347e-10
  2.13583    -44.1 1.087e+04 9.358e-10
  2.17355    -44.4 1.096e+04 2.373e-09
  2.21342    -44.3 1.137e+04 5.117e-09
  2.24322    -44.3 1.187e+04 6.493e-09
  2.26306    -44.9 1.202e+04 5.665e-09
  2.28299    -46.0 1.150e+04 4.299e-09
  2.30293    -46.1 1.127e+04 3.907e-09
  2.32148    -46.3 1.088e+04 2.848e-09
  2.34151    -46.5 1.081e+04 2.304e-09
  2.37289    -46.3 1.075e+04 1.398e-09
  2.39912    -46.3 1.062e+04 1.029e-09
  2.41905    -46.7 1.067e+04 1.487e-09
  2.45262    -46.2 1.066e+04 1.299e-09
  2.49249    -45.6 1.076e+04 1.270e-09
  2.52725    -45.5 1.084e+04 1.589e-09
  2.54718    -45.2 1.072e+04 1.325e-09
  2.57222    -44.4 1.080e+04 1.823e-09
  2.61209    -43.6 1.126e+04 2.342e-09
  2.63996    -43.5 1.142e+04 2.665e-09
  2.64983    -43.3 1.141e+04 2.354e-09
  2.65462    -45.2 1.231e+04 2.634e-09
  2.66459    -46.4 1.237e+04 2.603e-09
  2.68166    -48.6 1.224e+04 4.526e-09
  2.70159    -50.1 1.245e+04 7.673e-09
  2.72153    -51.3 1.293e+04 1.134e-08
  2.74146    -53.3 1.327e+04 1.333e-08
  2.75266    -56.4 1.287e+04 1.304e-08
  2.76263    -56.2 1.298e+04 1.309e-08
  2.78133    -58.6 1.285e+04 1.092e-08
  2.80126    -60.8 1.248e+04 8.708e-09
  2.82119    -62.4 1.219e+04 7.218e-09
  2.84113    -63.8 1.201e+04 5.891e-09
  2.85550    -64.7 1.188e+04 4.743e-09
  2.86547    -64.3 1.201e+04 5.081e-09
  2.88099    -65.2 1.175e+04 3.789e-09
  2.90034    -65.5 1.156e+04 3.057e-09
  2.91031    -66.2 1.155e+04 2.992e-09
  2.93093    -66.8 1.128e+04 2.524e-09
  2.95853    -66.6 1.106e+04 2.160e-09
  2.97847    -65.8 1.121e+04 2.206e-09
  3.01076    -65.4 1.111e+04 2.229e-09
  3.05062    -65.0 1.114e+04 3.106e-09
  3.09049    -64.4 1.122e+04 3.886e-09
  3.13036    -63.9 1.119e+04 3.896e-09
  3.16421    -63.2 1.097e+04 2.693e-09
  3.18414    -62.5 1.113e+04 3.121e-09
  3.21009    -61.8 1.087e+04 1.771e-09
  3.24996    -60.7 1.070e+04 1.425e-09
  3.28982    -59.0 1.067e+04 1.357e-09
  3.32969    -57.3 1.072e+04 1.359e-09
  3.36956    -55.9 1.078e+04 1.555e-09
  3.38982    -54.3 1.075e+04 1.963e-09
  3.40229    -53.7 1.081e+04 1.896e-09
  3.42189    -53.6 1.082e+04 1.779e-09
  3.44929    -51.5 1.088e+04 2.118e-09
  3.48916    -49.7 1.088e+04 2.056e-09
  3.52902    -47.8 1.109e+04 1.329e-09
  3.56889    -47.0 1.119e+04 9.913e-10
  3.59549    -45.7 1.124e+04 1.110e-09
  3.61543    -44.8 1.137e+04 9.673e-10
  3.64862    -43.5 1.108e+04 1.779e-09
  3.68849    -41.4 1.125e+04 2.853e-09
  3.71829    -39.7 1.158e+04 3.409e-09
  3.73813    -39.8 1.172e+04 3.513e-09
  3.76813    -40.2 1.201e+04 3.992e-09
  3.80117    -42.1 1.250e+04 6.704e-09
  3.82110    -42.2 1.264e+04 8.514e-09
  3.83789    -43.4 1.293e+04 1.427e-08
  3.85773    -44.6 1.334e+04 1.892e-08
  3.87766    -45.8 1.373e+04 2.084e-08
  3.89760    -47.7 1.390e+04 2.111e-08
  3.91315    -49.6 1.378e+04 2.041e-08
  3.91936    -49.7 1.366e+04 1.886e-08
  3.92374    -50.0 1.367e+04 1.669e-08
  3.93746    -50.8 1.348e+04 1.356e-08
  3.96746    -51.6 1.289e+04 9.380e-09
  4.00684    -51.5 1.255e+04 4.472e-09
  4.02678    -51.4 1.263e+04 5.036e-09
  4.04729    -50.6 1.238e+04 3.018e-09
  4.08716    -49.5 1.223e+04 2.580e-09
  4.12703    -48.1 1.224e+04 2.567e-09
  4.16689    -47.6 1.233e+04 3.368e-09
  4.20676    -47.1 1.242e+04 5.708e-09
  4.23245    -46.2 1.264e+04 8.479e-09
  4.25239    -45.9 1.270e+04 8.544e-09
  4.28649    -45.2 1.296e+04 1.010e-08
  4.31630    -44.9 1.279e+04 8.490e-09
  4.33509    -44.6 1.300e+04 6.466e-09
  4.34506    -44.2 1.304e+04 7.880e-09
  4.35606    -44.6 1.329e+04 5.249e-09
  4.37600    -45.4 1.319e+04 4.216e-09
  4.39593    -45.7 1.302e+04 3.965e-09
  4.41457    -45.6 1.308e+04 4.087e-09
  4.42454    -46.1 1.327e+04 3.796e-09
  4.43580    -47.1 1.371e+04 4.478e-09
  4.44790    -49.1 1.390e+04 6.531e-09
  4.45786    -48.6 1.405e+04 7.255e-09
  4.47566    -50.3 1.383e+04 1.386e-08
  4.49560    -50.9 1.432e+04 2.260e-08
  4.51553    -52.8 1.482e+04 2.472e-08
  4.53547    -56.6 1.469e+04 1.773e-08
  4.55074    -60.5 1.423e+04 1.409e-08
  4.56070    -60.6 1.435e+04 1.388e-08
  4.57533    -63.1 1.417e+04 1.211e-08
  4.59527    -64.3 1.402e+04 1.033e-08
  4.61520    -65.1 1.387e+04 7.427e-09
  4.63513    -65.9 1.377e+04 4.871e-09
  4.65357    -66.7 1.373e+04 3.593e-09
  4.66354    -66.6 1.384e+04 3.654e-09
  4.67026    -67.1 1.380e+04 3.425e-09
  4.68023    -66.4 1.385e+04 2.922e-09
  4.69493    -66.8 1.387e+04 2.931e-09
  4.71487    -67.4 1.378e+04 3.459e-09
  4.73480    -67.9 1.361e+04 4.366e-09
  4.75473    -68.2 1.355e+04 5.303e-09
  4.76638    -68.5 1.356e+04 6.070e-09
  4.77634    -68.5 1.365e+04 7.237e-09
  4.80466    -68.8 1.359e+04 7.208e-09
  4.84463    -69.0 1.315e+04 7.314e-09
  4.86941    -68.6 1.300e+04 6.180e-09
  4.88934    -69.2 1.339e+04 7.229e-09
  4.91618    -68.6 1.329e+04 6.348e-09
  4.93612    -67.2 1.345e+04 4.529e-09
  4.96423    -66.9 1.340e+04 4.175e-09
  5.00409    -66.3 1.346e+04 4.150e-09
  5.04396    -66.0 1.357e+04 4.429e-09
  5.07376    -66.0 1.358e+04 4.748e-09
  5.08486    -66.0 1.359e+04 4.712e-09
  5.09482    -66.3 1.367e+04 4.929e-09
  5.11353    -66.2 1.370e+04 4.607e-09
  5.13347    -66.2 1.374e+04 4.171e-09
  5.15340    -66.1 1.378e+04 3.672e-09
  5.17168    -66.0 1.382e+04 3.148e-09
  5.18165    -65.7 1.400e+04 3.240e-09
  5.20333    -65.9 1.387e+04 2.673e-09
  5.24330    -65.6 1.376e+04 2.226e-09
  5.28076    -64.9 1.369e+04 1.959e-09
  5.30069    -65.1 1.360e+04 1.561e-09
  5.32303    -64.4 1.347e+04 1.387e-09
  5.36290    -63.9 1.340e+04 1.316e-09
  5.40276    -63.7 1.349e+04 1.351e-09
  5.42757    -64.0 1.371e+04 1.904e-09
  5.44750    -63.2 1.362e+04 1.920e-09
  5.47243    -63.4 1.339e+04 2.650e-09
  5.49227    -64.6 1.333e+04 3.925e-09
  5.50617    -65.8 1.328e+04 6.207e-09
  5.51614    -64.9 1.319e+04 4.892e-09
  5.53213    -66.0 1.327e+04 6.670e-09
  5.55207    -67.4 1.355e+04 8.743e-09
  5.57200    -69.5 1.382e+04 1.143e-08
  5.59193    -72.0 1.391e+04 1.532e-08
  5.60901    -74.1 1.378e+04 1.857e-08
  5.61898    -72.8 1.358e+04 1.509e-08
  5.63180    -74.6 1.347e+04 1.593e-08
  5.65173    -75.8 1.303e+04 1.353e-08
  5.67167    -76.9 1.250e+04 8.138e-09
  5.68307    -78.0 1.218e+04 4.867e-09
  5.69303    -77.8 1.236e+04 5.772e-09
  5.71153    -78.7 1.194e+04 4.180e-09
  5.72182    -78.9 1.166e+04 3.670e-09
  5.73178    -77.9 1.166e+04 3.713e-09
  5.75140    -77.8 1.152e+04 3.411e-09
  5.77133    -77.4 1.144e+04 3.146e-09
  5.80133    -76.6 1.131e+04 2.893e-09
  5.84130    -75.8 1.097e+04 2.629e-09
  5.88116    -74.5 1.071e+04 2.288e-09
  5.91772    -73.1 1.062e+04 1.874e-09
  5.93564    -71.9 1.063e+04 1.912e-09
  5.93895    -71.7 1.054e+04 1.897e-09
  5.96090    -70.4 1.047e+04 1.526e-09
  6.00076    -69.4 1.037e+04 1.262e-09
  6.04063    -68.4 1.027e+04 1.069e-09
  6.08050    -67.5 1.016e+04 9.656e-10
  6.12036    -66.5 1.011e+04 9.476e-10
  6.14333    -65.5 1.003e+04 1.033e-09
  6.16326    -64.6 1.005e+04 1.130e-09
  6.20010    -63.6 9.972e+03 1.332e-09
  6.23996    -62.4 9.967e+03 1.609e-09
  6.27983    -61.2 9.979e+03 1.861e-09
  6.31970    -60.0 1.001e+04 2.045e-09
  6.34900    -59.1 1.011e+04 2.279e-09
  6.36894    -58.3 1.015e+04 2.468e-09
  6.39943    -58.0 1.045e+04 3.587e-09
  6.43041    -57.9 1.088e+04 6.328e-09
  6.45034    -56.6 1.034e+04 3.152e-09
  6.47916    -56.7 1.073e+04 5.966e-09
  6.51903    -56.9 1.096e+04 8.674e-09
  6.55468    -57.1 1.079e+04 8.660e-09
  6.57461    -56.6 1.088e+04 1.016e-08
  6.58870    -56.6 1.004e+04 5.599e-09
  6.60854    -56.4 9.660e+03 3.416e-09
  6.63853    -55.9 9.240e+03 2.059e-09
  6.67850    -54.9 8.692e+03 7.456e-10
  6.71837    -53.4 8.499e+03 5.041e-10
  6.75823    -51.7 8.419e+03 4.464e-10
  6.78029    -49.8 8.396e+03 4.341e-10
  6.80022    -49.3 8.381e+03 4.293e-10
  6.83797    -47.5 8.387e+03 4.352e-10
  6.87783    -45.9 8.408e+03 4.898e-10
  6.91770    -44.2 8.430e+03 5.859e-10
  6.94179    -42.3 8.427e+03 6.775e-10
  6.96173    -41.0 8.419e+03 6.543e-10
  6.98596    -39.2 8.404e+03 7.174e-10
  7.00590    -38.8 8.390e+03 7.165e-10
  7.03730    -37.1 8.373e+03 7.462e-10
  7.07717    -35.3 8.394e+03 7.456e-10
  7.11703    -33.6 8.467e+03 6.950e-10
  7.15690    -32.1 8.523e+03 6.809e-10
  7.19164    -31.0 8.656e+03 7.608e-10
  7.21157    -30.8 8.667e+03 7.575e-10
  7.23663    -30.0 8.779e+03 1.092e-09
  7.27650    -29.1 9.006e+03 1.762e-09
  7.31637    -28.1 9.225e+03 2.565e-09
  7.35623    -27.1 9.361e+03 2.822e-09
  7.39610    -26.3 9.419e+03 2.156e-09
  7.41725    -25.8 9.456e+03 1.326e-09
  7.43446    -25.8 9.519e+03 1.329e-09
  7.45318    -25.0 9.553e+03 1.374e-09
  7.47583    -25.4 9.488e+03 1.004e-09
  7.51570    -24.4 9.443e+03 9.715e-10
  7.55557    -23.2 9.453e+03 1.058e-09
  7.59543    -22.2 9.665e+03 1.094e-09
  7.62292    -22.1 9.997e+03 1.324e-09
  7.64285    -22.5 1.004e+04 1.636e-09
  7.67517    -22.6 1.015e+04 2.460e-09
  7.71503    -21.9 1.023e+04 3.485e-09
  7.75490    -21.7 1.050e+04 3.334e-09
  7.79477    -21.9 1.068e+04 2.455e-09
  7.82860    -22.7 1.077e+04 2.065e-09
  7.84853    -22.3 1.063e+04 1.816e-09
  7.87450    -22.4 1.070e+04 1.773e-09
  7.91437    -22.2 1.079e+04 1.792e-09
  7.94463    -21.9 1.095e+04 1.871e-09
  7.96456    -20.6 1.105e+04 2.259e-09
  7.99410    -20.1 1.107e+04 2.044e-09
  8.03397    -19.7 1.094e+04 1.989e-09
  8.05420    -19.3 1.114e+04 2.070e-09
  8.07414    -18.3 1.111e+04 2.317e-09
  8.11370    -17.6 1.123e+04 2.927e-09
  8.15357    -17.0 1.148e+04 2.999e-09
  8.18337    -16.4 1.170e+04 3.514e-09
  8.20013    -16.7 1.197e+04 3.762e-09
  8.21009    -15.9 1.194e+04 3.748e-09
  8.22314    -16.1 1.191e+04 5.322e-09
  8.24307    -16.3 1.233e+04 6.745e-09
  8.25968    -16.0 1.212e+04 9.507e-09
  8.26965    -15.3 1.206e+04 9.255e-09
  8.28294    -14.9 1.237e+04 9.753e-09
  8.30287    -15.2 1.279e+04 9.461e-09
  8.32281    -15.7 1.289e+04 8.990e-09
  8.34274    -15.9 1.286e+04 9.528e-09
  8.36252    -15.9 1.298e+04 9.550e-09
  8.37249    -15.4 1.275e+04 9.048e-09
  8.39267    -15.9 1.299e+04 9.921e-09
  8.42257    -15.9 1.349e+04 1.167e-08
  8.44241    -17.4 1.408e+04 1.576e-08
  8.45582    -18.9 1.463e+04 2.835e-08
  8.46579    -18.0 1.525e+04 2.828e-08
  8.47533    -18.8 1.547e+04 6.334e-08
  8.48529    -18.5 1.544e+04 7.329e-08
  8.50221    -17.8 1.540e+04 9.425e-08
  8.52214    -16.0 1.457e+04 5.528e-08
  8.54207    -14.6 1.399e+04 1.461e-08
  8.56201    -17.9 1.311e+04 4.640e-09
  8.57816    -19.7 1.207e+04 2.601e-09
  8.58813    -19.7 1.205e+04 2.572e-09
  8.60187    -19.7 1.178e+04 2.188e-09
  8.62181    -18.8 1.170e+04 2.150e-09
  8.64174    -18.3 1.155e+04 2.454e-09
  8.66167    -17.1 1.155e+04 2.980e-09
  8.68100    -16.6 1.190e+04 3.210e-09
  8.69097    -16.5 1.183e+04 3.567e-09
  8.70154    -15.3 1.138e+04 5.645e-09
  8.72147    -14.4 1.197e+04 6.053e-09
  8.74141    -13.4 1.146e+04 7.348e-09
  8.76134    -12.3 1.160e+04 6.771e-09
  8.78128    -11.6 1.190e+04 5.579e-09
  8.79381    -10.5 1.109e+04 5.897e-09
  8.80377    -10.3 1.105e+04 5.890e-09
  8.82114     -8.3 1.138e+04 3.750e-09
  8.84108     -7.8 1.124e+04 2.975e-09
  8.86101     -6.6 1.106e+04 2.621e-09
  8.88094     -6.2 1.102e+04 2.649e-09
  8.89664     -4.1 1.096e+04 2.571e-09
  8.91667     -3.5 1.088e+04 2.384e-09
  8.94084     -1.4 1.089e+04 2.670e-09
  8.95724     -0.8 1.114e+04 2.990e-09
  8.96730     -1.3 1.082e+04 2.650e-09
  8.99077      1.4 1.098e+04 3.909e-09
  9.03064      4.1 1.118e+04 5.978e-09
  9.07050      6.8 1.149e+04 8.163e-09
  9.10031      9.0 1.165e+04 8.860e-09
  9.11229      9.4 1.177e+04 9.203e-09
  9.12225     10.3 1.179e+04 9.282e-09
  9.14008     11.4 1.164e+04 8.874e-09
  9.16001     12.3 1.172e+04 8.653e-09
  9.17994     13.4 1.168e+04 8.409e-09
  9.19988     14.4 1.170e+04 8.384e-09
  9.21293     15.5 1.169e+04 8.331e-09
  9.21821     15.4 1.159e+04 8.084e-09
  9.22509     15.9 1.157e+04 8.083e-09
  9.23974     17.0 1.157e+04 8.314e-09
  9.25968     18.2 1.156e+04 8.537e-09
  9.27961     19.4 1.162e+04 8.810e-09
  9.29954     20.4 1.162e+04 8.963e-09
  9.31796     21.5 1.160e+04 9.059e-09
  9.32793     22.1 1.159e+04 9.136e-09
  9.33941     23.0 1.165e+04 9.567e-09
  9.35934     23.8 1.179e+04 1.039e-08
  9.37928     24.5 1.193e+04 1.151e-08
  9.39921     25.1 1.204e+04 1.271e-08
  9.41914     25.8 1.210e+04 1.370e-08
  9.43076     26.5 1.214e+04 1.441e-08
  9.44073     26.7 1.234e+04 1.611e-08
  9.45866     27.1 1.235e+04 1.629e-08
  9.46863     26.9 1.218e+04 1.544e-08
  9.47894     27.3 1.222e+04 1.623e-08
  9.49888     27.5 1.228e+04 1.713e-08
  9.51881     27.8 1.227e+04 1.796e-08
  9.53360     28.1 1.227e+04 1.799e-08
  9.54357     28.0 1.211e+04 1.647e-08
  9.55868     28.4 1.189e+04 1.463e-08
  9.57861     28.8 1.166e+04 1.215e-08
  9.59854     28.8 1.142e+04 9.756e-09
  9.61848     28.7 1.119e+04 7.944e-09
  9.63644     28.6 1.096e+04 6.706e-09
  9.64641     28.8 1.072e+04 5.105e-09
  9.65834     28.9 1.054e+04 4.459e-09
  9.67828     29.1 1.043e+04 4.063e-09
  9.69821     29.4 1.038e+04 3.868e-09
  9.71435     29.8 1.038e+04 3.797e-09
  9.72432     29.7 1.042e+04 4.180e-09
  9.73808     30.1 1.044e+04 4.167e-09
  9.74924     30.6 1.046e+04 4.074e-09
  9.75921     31.2 1.040e+04 3.641e-09
  9.77794     31.6 1.043e+04 3.607e-09
  9.79788     31.9 1.044e+04 3.400e-09
  9.81781     32.0 1.045e+04 2.954e-09
  9.83774     31.8 1.046e+04 2.656e-09
  9.86774     32.0 1.048e+04 2.428e-09
  9.90771     31.9 1.049e+04 2.278e-09
  9.94515     32.0 1.054e+04 2.278e-09
  9.96508     33.8 1.050e+04 2.195e-09
  9.97024     33.8 1.064e+04 2.294e-09
  9.99017     34.5 1.058e+04 2.419e-09
 10.01724     33.9 1.070e+04 2.601e-09
 10.03708     33.6 1.081e+04 2.958e-09
 10.05701     33.2 1.090e+04 3.374e-09
 10.06772     32.9 1.092e+04 3.741e-09
 10.07769     33.8 1.087e+04 3.969e-09
 10.09688     33.4 1.082e+04 3.945e-09
 10.11681     33.1 1.067e+04 3.792e-09
 10.13674     32.6 1.056e+04 3.394e-09
 10.15668     31.9 1.051e+04 3.200e-09
 10.17056     31.2 1.052e+04 3.252e-09
 10.18053     32.5 1.033e+04 2.843e-09
 10.19654     31.9 1.040e+04 2.993e-09
 10.21577     31.2 1.058e+04 3.504e-09
 10.22574     30.9 1.073e+04 4.011e-09
 10.23641     30.2 1.093e+04 4.931e-09
 10.25635     29.5 1.114e+04 6.002e-09
 10.27340     28.8 1.136e+04 6.873e-09
 10.28337     30.3 1.128e+04 6.870e-09
 10.29621     29.6 1.154e+04 7.396e-09
 10.31615     28.7 1.159e+04 7.180e-09
 10.33608     27.8 1.159e+04 6.479e-09
 10.35601     26.9 1.146e+04 5.557e-09
 10.37595     26.3 1.137e+04 4.357e-09
 10.38620     25.8 1.136e+04 3.662e-09
 10.39617     27.2 1.125e+04 3.234e-09
 10.42588     27.7 1.116e+04 2.490e-09
 10.46169     28.1 1.090e+04 2.388e-09
 10.48163     26.3 1.131e+04 3.430e-09
 10.50571     27.2 1.109e+04 3.696e-09
 10.54557     27.9 1.109e+04 4.487e-09
 10.58211     28.7 1.120e+04 5.309e-09
 10.60194     30.6 1.154e+04 5.421e-09
 10.61515     30.8 1.166e+04 6.206e-09
 10.63508     31.0 1.180e+04 6.853e-09
 10.65501     31.0 1.200e+04 7.601e-09
 10.67495     30.2 1.240e+04 9.396e-09
 10.69472     29.0 1.302e+04 1.393e-08
 10.70468     28.6 1.356e+04 1.859e-08
 10.71481     27.2 1.439e+04 3.256e-08
 10.72716     25.9 1.509e+04 4.747e-08
 10.73712     24.0 1.600e+04 5.817e-08
 10.75468     22.7 1.638e+04 7.075e-08
 10.77461     21.4 1.630e+04 6.920e-08
 10.79455     19.7 1.620e+04 6.595e-08
 10.80752     18.0 1.603e+04 6.447e-08
 10.81749     16.8 1.591e+04 5.575e-08
 10.83441     16.2 1.599e+04 7.190e-08
 10.85435     16.5 1.603e+04 8.200e-08
 10.87428     17.3 1.595e+04 8.090e-08
 10.89421     18.2 1.580e+04 7.453e-08
 10.91036     19.0 1.561e+04 6.822e-08
 10.92032     19.1 1.618e+04 8.446e-08
 10.93408     20.0 1.596e+04 7.726e-08
 10.95401     21.0 1.575e+04 6.949e-08
 10.97288     22.0 1.557e+04 5.996e-08
 10.98285     20.6 1.449e+04 2.491e-08
 10.99388     21.3 1.408e+04 1.852e-08
 11.01320     22.2 1.360e+04 1.365e-08
 11.02316     22.5 1.491e+04 3.366e-08
 11.03375     23.2 1.486e+04 2.956e-08
 11.05368     23.9 1.462e+04 2.592e-08
 11.07361     24.7 1.432e+04 2.365e-08
 11.09355     25.2 1.411e+04 2.256e-08
 11.11348     25.7 1.381e+04 2.147e-08
 11.12600     25.9 1.345e+04 2.042e-08
 11.13597     26.4 1.515e+04 4.305e-08
 11.15335     26.2 1.480e+04 4.439e-08
 11.17328     26.0 1.450e+04 4.648e-08
 11.19321     26.0 1.435e+04 4.606e-08
 11.21315     25.8 1.429e+04 4.104e-08
 11.22858     25.0 1.431e+04 3.251e-08
 11.23430     23.7 1.325e+04 1.456e-08
 11.23880     24.0 1.415e+04 3.462e-08
 11.25301     22.2 1.400e+04 2.629e-08
 11.27295     20.1 1.353e+04 1.977e-08
 11.29288     18.5 1.285e+04 1.444e-08
 11.31281     16.5 1.234e+04 1.116e-08
 11.33167     14.9 1.199e+04 8.950e-09
 11.34164     16.2 1.253e+04 1.378e-08
 11.35268     13.8 1.234e+04 9.113e-09
 11.37261     10.9 1.221e+04 7.680e-09
 11.39255      6.8 1.230e+04 8.119e-09
 11.41248      3.3 1.211e+04 1.063e-08
 11.43241      0.6 1.204e+04 1.218e-08
 11.44448     -1.7 1.198e+04 1.216e-08
 11.45445     -2.5 1.199e+04 1.412e-08
 11.47228     -5.2 1.229e+04 9.650e-09
 11.48427     -9.9 1.278e+04 6.783e-09
 11.49424     -9.8 1.252e+04 5.714e-09
 11.51215    -12.8 1.241e+04 6.119e-09
 11.54215    -15.7 1.200e+04 1.037e-08
 11.57205    -17.9 1.275e+04 1.485e-08
 11.59188    -18.7 1.288e+04 1.622e-08
 11.61181    -19.6 1.283e+04 1.623e-08
 11.63175    -20.5 1.278e+04 1.618e-08
 11.65015    -22.1 1.311e+04 1.629e-08
 11.66012    -22.6 1.307e+04 1.499e-08
 11.67162    -25.6 1.372e+04 1.836e-08
 11.69155    -28.9 1.403e+04 2.748e-08
 11.71148    -30.8 1.412e+04 3.731e-08
 11.73000    -32.3 1.406e+04 3.847e-08
 11.73996    -32.2 1.402e+04 3.882e-08
 11.75135    -33.8 1.297e+04 2.401e-08
 11.76296    -36.7 1.167e+04 1.175e-08
 11.77292    -37.6 1.145e+04 1.076e-08
 11.79122    -40.0 1.062e+04 7.008e-09
 11.81115    -41.5 1.014e+04 5.508e-09
 11.83108    -42.4 9.876e+03 4.977e-09
 11.85593    -43.2 9.734e+03 4.756e-09
 11.87596    -43.6 9.710e+03 4.575e-09
 11.90104    -44.2 9.310e+03 3.612e-09
 11.94091    -45.3 8.949e+03 2.872e-09
 11.97592    -46.3 8.761e+03 2.575e-09
 11.99585    -45.7 8.510e+03 2.428e-09
 12.02064    -46.8 8.513e+03 2.619e-09
 12.06051    -47.6 8.629e+03 2.929e-09
 12.08163    -48.3 8.758e+03 3.095e-09
 12.10157    -49.4 8.724e+03 2.868e-09
 12.14024    -51.0 8.944e+03 3.135e-09
 12.18011    -53.5 9.680e+03 4.073e-09
 12.21998    -55.8 1.082e+04 8.114e-09
 12.24148    -59.5 1.171e+04 1.400e-08
 12.25135    -58.4 1.162e+04 1.313e-08
 12.26962    -60.1 1.207e+04 1.657e-08
 12.28711    -62.0 1.254e+04 1.969e-08
 12.29708    -63.5 1.234e+04 1.845e-08
 12.30948    -65.6 1.245e+04 1.977e-08
 12.32942    -67.6 1.240e+04 1.972e-08
 12.34935    -69.8 1.215e+04 1.692e-08
 12.36928    -72.4 1.183e+04 1.287e-08
 12.38922    -75.5 1.170e+04 1.112e-08
 12.39992    -78.6 1.171e+04 1.095e-08
 12.40988    -80.5 1.219e+04 1.242e-08
 12.42908    -82.4 1.298e+04 2.162e-08
 12.44902    -82.7 1.368e+04 3.535e-08
 12.46895    -82.7 1.415e+04 4.538e-08
 12.48711    -82.7 1.429e+04 4.810e-08
 12.49707    -82.8 1.502e+04 6.137e-08
 12.50275    -82.8 1.490e+04 5.831e-08
 12.51272    -83.7 1.462e+04 5.285e-08
 12.52875    -83.4 1.422e+04 4.198e-08
 12.54868    -83.2 1.403e+04 3.495e-08
 12.56862    -83.2 1.402e+04 3.231e-08
 12.58855    -83.0 1.439e+04 3.384e-08
 12.60559    -82.5 1.476e+04 3.897e-08
 12.61556    -83.2 1.332e+04 1.770e-08
 12.62842    -82.4 1.353e+04 1.923e-08
 12.64835    -81.8 1.341e+04 1.703e-08
 12.66195    -81.8 1.452e+04 2.147e-08
 12.66688    -82.3 1.341e+04 1.486e-08
 12.67317    -82.5 1.369e+04 1.532e-08
 12.68314    -82.7 1.413e+04 1.667e-08
 12.69310    -83.0 1.444e+04 1.819e-08
 12.70307    -83.4 1.485e+04 2.179e-08
 12.71304    -83.7 1.510e+04 2.545e-08
 12.71830    -84.1 1.530e+04 3.260e-08
 12.72831    -83.3 1.402e+04 1.828e-08
 12.74280    -83.4 1.426e+04 2.610e-08
 12.74773    -84.4 1.529e+04 6.745e-08
 12.75290    -84.1 1.531e+04 7.263e-08
 12.76790    -83.7 1.527e+04 7.668e-08
 12.78788    -82.8 1.525e+04 7.538e-08
 12.80782    -81.7 1.525e+04 7.043e-08
 12.82123    -80.9 1.534e+04 6.295e-08
 12.83120    -80.3 1.517e+04 6.401e-08
 12.84768    -79.6 1.529e+04 6.278e-08
 12.86762    -79.2 1.541e+04 5.374e-08
 12.88755    -79.1 1.530e+04 4.014e-08
 12.90748    -79.7 1.475e+04 2.738e-08
 12.92407    -80.5 1.383e+04 1.858e-08
 12.93404    -78.8 1.459e+04 2.617e-08
 12.94735    -79.8 1.359e+04 1.735e-08
 12.96728    -80.5 1.273e+04 1.306e-08
 12.98722    -80.8 1.244e+04 1.126e-08
 12.99849    -81.0 1.245e+04 1.019e-08
 13.00846    -80.3 1.234e+04 7.415e-09
 13.02691    -80.3 1.239e+04 5.932e-09
 13.03688    -80.3 1.252e+04 7.938e-09
 13.04702    -80.6 1.260e+04 6.734e-09
 13.06695    -80.7 1.257e+04 5.354e-09
 13.09695    -80.7 1.240e+04 3.841e-09
 13.12994    -79.9 1.224e+04 2.985e-09
 13.14988    -80.9 1.237e+04 4.016e-09
 13.17678    -79.5 1.206e+04 2.915e-09
 13.21665    -77.7 1.200e+04 2.457e-09
 13.25651    -76.3 1.198e+04 2.483e-09
 13.29638    -75.5 1.208e+04 2.571e-09
 13.32618    -75.6 1.235e+04 3.070e-09
 13.34539    -75.7 1.257e+04 3.713e-09
 13.35536    -76.2 1.259e+04 3.733e-09
 13.36595    -76.2 1.284e+04 4.559e-09
 13.38589    -76.3 1.305e+04 5.640e-09
 13.40582    -76.4 1.331e+04 7.339e-09
 13.42575    -76.5 1.352e+04 9.793e-09
 13.44569    -76.7 1.370e+04 1.353e-08
 13.45819    -76.5 1.387e+04 1.848e-08
 13.46816    -76.7 1.422e+04 2.413e-08
 13.48555    -76.5 1.444e+04 3.150e-08
 13.49991    -76.2 1.447e+04 3.480e-08
 13.50988    -76.5 1.434e+04 3.363e-08
 13.52542    -76.0 1.385e+04 2.535e-08
 13.54535    -75.6 1.330e+04 1.586e-08
 13.56103    -75.2 1.291e+04 9.864e-09
 13.57100    -75.5 1.305e+04 1.364e-08
 13.58522    -75.0 1.274e+04 8.908e-09
 13.60515    -74.5 1.247e+04 6.340e-09
 13.62509    -73.8 1.223e+04 5.024e-09
 13.65508    -73.2 1.192e+04 3.925e-09
 13.69505    -70.6 1.141e+04 2.576e-09
 13.73492    -68.2 1.123e+04 1.803e-09
 13.76690    -65.9 1.120e+04 1.333e-09
 13.78683    -66.2 1.106e+04 1.255e-09
 13.81465    -63.9 1.107e+04 9.676e-10
 13.85452    -61.5 1.110e+04 8.019e-10
 13.89438    -59.0 1.116e+04 6.891e-10
 13.93425    -56.6 1.123e+04 6.242e-10
 13.97258    -54.2 1.126e+04 6.078e-10
 13.99251    -54.5 1.131e+04 6.701e-10
 14.00153    -52.2 1.139e+04 6.933e-10
 14.02146    -52.1 1.127e+04 6.136e-10
 14.05385    -49.9 1.140e+04 6.474e-10
 14.09372    -47.8 1.138e+04 7.864e-10
 14.13358    -45.6 1.140e+04 1.022e-09
 14.17345    -43.6 1.146e+04 1.312e-09
 14.19818    -41.7 1.153e+04 1.664e-09
 14.21812    -42.3 1.155e+04 1.670e-09
 14.25318    -40.8 1.166e+04 2.087e-09
 14.29305    -39.5 1.184e+04 2.695e-09
 14.33292    -38.4 1.211e+04 3.793e-09
 14.37278    -37.2 1.234e+04 5.376e-09
 14.40386    -36.3 1.243e+04 6.381e-09
 14.42379    -37.3 1.240e+04 7.357e-09
 14.45252    -36.7 1.227e+04 7.283e-09
 14.49238    -36.0 1.211e+04 6.938e-09
 14.51291    -35.2 1.198e+04 6.853e-09
 14.53285    -34.9 1.178e+04 4.818e-09
 14.57212    -33.8 1.159e+04 4.921e-09
 14.60954    -32.2 1.132e+04 3.702e-09
 14.62947    -32.6 1.119e+04 3.679e-09
 14.65185    -30.8 1.093e+04 1.849e-09
 14.69172    -29.3 1.079e+04 1.110e-09
 14.73158    -27.5 1.067e+04 9.594e-10
 14.77145    -25.2 1.058e+04 9.775e-10
 14.81132    -22.9 1.054e+04 1.037e-09
 14.83514    -20.6 1.062e+04 9.811e-10
 14.85508    -20.4 1.052e+04 1.005e-09
 14.89105    -18.2 1.056e+04 1.032e-09
 14.93092    -16.2 1.050e+04 1.012e-09
 14.97078    -14.2 1.043e+04 8.850e-10
 15.00436    -12.3 1.037e+04 7.147e-10
 15.02430    -12.1 1.039e+04 7.235e-10
 15.04082    -10.2 1.031e+04 6.513e-10
 15.06075     -9.8 1.024e+04 7.160e-10
 15.09039     -7.7 1.018e+04 6.880e-10
 15.13025     -5.5 1.017e+04 6.800e-10
 15.17012     -3.2 1.014e+04 6.597e-10
 15.20999     -0.9 1.011e+04 6.253e-10
 15.24649      1.4 1.013e+04 5.828e-10
 15.26643      1.9 1.010e+04 6.068e-10
 15.28972      4.2 1.015e+04 5.921e-10
 15.32959      6.5 1.017e+04 5.653e-10
 15.36945      8.7 1.022e+04 5.429e-10
 15.40932     11.0 1.024e+04 5.531e-10
 15.44919     13.0 1.033e+04 6.155e-10
 15.47210     14.8 1.040e+04 8.324e-10
 15.49204     15.3 1.040e+04 1.076e-09
 15.51575     17.2 1.052e+04 1.573e-09
 15.53568     16.0 1.075e+04 1.677e-09
 15.56879     17.6 1.080e+04 1.966e-09
 15.60865     19.0 1.102e+04 2.256e-09
 15.64852     20.2 1.128e+04 2.631e-09
 15.67768     20.6 1.127e+04 3.071e-09
 15.68755     20.0 1.119e+04 3.375e-09
 15.69816     20.4 1.118e+04 4.089e-09
 15.71809     20.5 1.122e+04 4.975e-09
 15.73802     20.7 1.128e+04 5.956e-09
 15.75796     20.8 1.143e+04 7.007e-09
 15.77125     21.0 1.144e+04 8.206e-09
 15.78121     20.4 1.127e+04 7.147e-09
 15.79039     20.1 1.137e+04 7.462e-09
 15.80035     18.8 1.147e+04 6.874e-09
 15.81776     16.3 1.206e+04 8.522e-09
 15.83769     12.0 1.311e+04 1.673e-08
 15.85762      9.4 1.372e+04 3.554e-08
 15.87756      7.9 1.420e+04 4.742e-08
 15.89322      5.5 1.426e+04 4.316e-08
 15.90319      3.8 1.436e+04 4.219e-08
 15.91743     -0.9 1.476e+04 4.511e-08
 15.93736     -7.3 1.633e+04 7.882e-08
 15.95729    -11.3 1.755e+04 1.922e-07
 15.97219    -12.6 1.787e+04 2.934e-07
 15.98211    -13.0 1.776e+04 2.917e-07
 15.99601    -12.6 1.731e+04 1.840e-07
 16.00603    -13.2 1.748e+04 1.993e-07
 16.01697    -15.3 1.693e+04 8.252e-08
 16.02694    -18.0 1.709e+04 1.350e-07
 16.03703    -20.4 1.628e+04 1.017e-07
 16.05696    -21.3 1.543e+04 9.231e-08
 16.07689    -20.9 1.504e+04 8.428e-08
 16.09683    -20.2 1.462e+04 7.589e-08
 16.10887    -19.6 1.435e+04 6.724e-08
 16.11883    -19.8 1.354e+04 5.198e-08
 16.13669    -19.7 1.335e+04 4.121e-08
 16.15663    -20.0 1.308e+04 3.686e-08
 16.17656    -20.1 1.298e+04 3.119e-08
 16.19649    -19.9 1.301e+04 2.903e-08
 16.21170    -20.2 1.307e+04 2.294e-08
 16.22167    -20.9 1.265e+04 1.861e-08
 16.23636    -22.1 1.269e+04 1.896e-08
 16.25629    -23.3 1.265e+04 1.970e-08
 16.27267    -24.0 1.229e+04 2.195e-08
 16.28263    -24.9 1.160e+04 1.881e-08
 16.29616    -24.9 1.218e+04 2.362e-08
 16.31454    -24.9 1.265e+04 2.797e-08
 16.32451    -25.8 1.261e+04 2.616e-08
 16.33603    -25.5 1.267e+04 3.006e-08
 16.35596    -24.7 1.251e+04 3.293e-08
 16.37589    -23.9 1.238e+04 2.944e-08
 16.39583    -23.6 1.197e+04 2.561e-08
 16.41576    -23.8 1.199e+04 2.246e-08
 16.42735    -23.5 1.196e+04 1.891e-08
 16.43731    -23.2 1.216e+04 1.884e-08
 16.45563    -23.2 1.173e+04 1.326e-08
 16.47556    -23.4 1.078e+04 9.473e-09
 16.49549    -23.9 9.739e+03 6.685e-09
 16.51543    -23.2 9.188e+03 4.893e-09
 16.52836    -22.6 9.033e+03 4.528e-09
 16.53325    -25.4 7.996e+03 3.480e-09
 16.54034    -27.6 7.697e+03 2.716e-09
 16.55539    -26.8 7.872e+03 2.506e-09
 16.57523    -29.0 8.376e+03 3.299e-09
 16.59516    -30.1 8.705e+03 5.331e-09
 16.61509    -30.6 9.203e+03 7.943e-09
 16.63302    -30.1 9.559e+03 1.046e-08
 16.64299    -30.6 9.432e+03 9.633e-09
 16.65496    -30.6 9.540e+03 9.364e-09
 16.67489    -31.2 9.475e+03 7.829e-09
 16.69483    -32.2 9.247e+03 6.353e-09
 16.71476    -33.2 8.899e+03 5.156e-09
 16.73469    -33.8 8.663e+03 4.292e-09
 16.74582    -34.5 8.587e+03 3.506e-09
 16.76586    -35.0 8.557e+03 3.396e-09
 16.80466    -34.9 8.464e+03 2.885e-09
 16.84452    -34.3 8.379e+03 2.402e-09
 16.88439    -33.3 8.273e+03 2.056e-09
 16.92426    -32.0 8.246e+03 1.845e-09
 16.95170    -30.3 8.210e+03 1.641e-09
 16.97163    -30.3 8.039e+03 1.381e-09
 17.00399    -28.7 8.121e+03 1.277e-09
 17.02997    -27.5 8.395e+03 1.380e-09
 17.04991    -26.8 8.315e+03 1.035e-09
 17.08372    -26.0 8.570e+03 1.415e-09
 17.12359    -24.6 8.701e+03 2.137e-09
 17.15737    -22.6 8.874e+03 2.485e-09
 17.17730    -22.3 8.662e+03 2.506e-09
 17.20332    -19.7 8.779e+03 1.768e-09
 17.24319    -18.5 9.091e+03 1.342e-09
 17.28306    -17.2 9.066e+03 1.431e-09
 17.32292    -15.2 9.111e+03 1.468e-09
 17.36279    -13.0 9.175e+03 1.365e-09
 17.38298    -11.1 9.400e+03 1.158e-09
 17.40291    -11.0 9.431e+03 1.146e-09
 17.44252     -9.3 9.645e+03 1.097e-09
 17.48239     -7.6 9.828e+03 1.136e-09
 17.52143     -6.1 9.991e+03 1.315e-09
 17.54136     -5.1 9.845e+03 1.463e-09
 17.56212     -3.5 9.970e+03 1.749e-09
 17.58865     -2.1 1.029e+04 1.793e-09
 17.60859     -2.3 1.030e+04 1.977e-09
 17.64186     -1.4 1.059e+04 1.963e-09
 17.68172     -0.4 1.071e+04 1.672e-09
 17.72159      0.4 1.086e+04 1.228e-09
 17.76146      1.2 1.099e+04 1.119e-09
 17.79433      2.2 1.119e+04 1.182e-09
 17.81426      1.2 1.148e+04 1.373e-09
 17.84119      2.8 1.172e+04 1.629e-09
 17.88106      4.2 1.200e+04 2.117e-09
 17.90704      4.9 1.205e+04 2.694e-09
 17.91690      4.5 1.204e+04 2.790e-09
 17.93070      5.0 1.200e+04 3.547e-09
 17.95063      5.8 1.202e+04 4.322e-09
 17.97056      6.5 1.212e+04 4.855e-09
 17.99050      7.1 1.219e+04 4.969e-09
 18.00978      7.6 1.220e+04 4.767e-09
 18.01974      7.5 1.224e+04 4.327e-09
 18.03036      7.9 1.230e+04 3.654e-09
 18.04258      8.2 1.240e+04 3.096e-09
 18.05255      8.3 1.239e+04 2.981e-09
 18.07023      8.4 1.240e+04 2.675e-09
 18.09016      8.7 1.241e+04 2.672e-09
 18.11010      9.0 1.251e+04 2.844e-09
 18.12258      9.3 1.264e+04 3.402e-09
 18.13255      9.3 1.266e+04 3.310e-09
 18.14996      9.9 1.270e+04 4.260e-09
 18.16990     10.7 1.275e+04 5.255e-09
 18.18983     11.5 1.280e+04 6.182e-09
 18.20976     12.3 1.286e+04 7.110e-09
 18.22542     13.0 1.301e+04 8.306e-09
 18.23538     13.3 1.305e+04 8.652e-09
 18.24963     14.1 1.321e+04 1.004e-08
 18.26956     15.0 1.340e+04 1.206e-08
 18.28831     15.8 1.369e+04 1.520e-08
 18.29828     15.3 1.366e+04 1.350e-08
 18.30943     15.8 1.394e+04 1.647e-08
 18.32826     16.1 1.438e+04 1.815e-08
 18.33822     16.3 1.433e+04 2.031e-08
 18.34930     16.3 1.484e+04 2.239e-08
 18.36923     16.2 1.559e+04 2.184e-08
 18.38916     15.8 1.663e+04 1.898e-08
 18.40910     14.6 1.737e+04 1.456e-08
 18.42903     13.2 1.710e+04 1.142e-08
 18.44106     12.4 1.638e+04 9.580e-09
 18.45103     12.3 1.637e+04 1.866e-08
 18.46890     11.9 1.583e+04 1.465e-08
 18.48883     11.9 1.526e+04 1.252e-08
 18.50876     12.4 1.491e+04 1.210e-08
 18.52870     13.2 1.474e+04 1.219e-08
 18.54390     14.0 1.466e+04 1.258e-08
 18.54923     13.7 1.482e+04 1.378e-08
 18.55397     14.1 1.434e+04 9.368e-09
 18.56856     14.9 1.440e+04 1.038e-08
 18.58850     15.7 1.451e+04 1.159e-08
 18.60843     16.5 1.464e+04 1.315e-08
 18.62836     17.4 1.471e+04 1.514e-08
 18.64673     18.1 1.486e+04 1.804e-08
 18.65670     17.8 1.505e+04 1.633e-08
 18.66823     18.2 1.526e+04 1.977e-08
 18.68816     18.6 1.541e+04 2.640e-08
 18.70810     19.0 1.560e+04 3.726e-08
 18.72803     19.3 1.574e+04 5.098e-08
 18.74796     19.4 1.581e+04 6.458e-08
 18.75954     19.4 1.587e+04 7.726e-08
 18.76951     19.3 1.552e+04 6.003e-08
 18.78783     19.1 1.569e+04 7.426e-08
 18.79970     18.7 1.595e+04 9.052e-08
 18.80966     18.1 1.584e+04 6.021e-08
 18.82770     17.6 1.600e+04 5.486e-08
 18.84763     17.1 1.616e+04 4.136e-08
 18.86238     16.4 1.613e+04 2.912e-08
 18.87234     17.4 1.574e+04 3.414e-08
 18.88750     16.7 1.572e+04 2.370e-08
 18.90743     16.1 1.551e+04 1.931e-08
 18.92737     15.8 1.554e+04 1.932e-08
 18.94730     14.8 1.588e+04 2.124e-08
 18.96521     13.0 1.615e+04 3.179e-08
 18.97518     15.1 1.643e+04 4.367e-08
 18.98717     13.7 1.733e+04 9.825e-08
 19.00710     13.2 1.777e+04 1.540e-07
 19.02703     13.5 1.788e+04 1.284e-07
 19.04542     12.9 1.857e+04 3.911e-08
 19.05539     10.8 1.677e+04 1.294e-08
 19.06690      5.1 1.350e+04 7.787e-09
 19.07802      0.3 1.227e+04 6.700e-09
 19.08799      5.5 1.538e+04 7.844e-09
 19.10677     -1.0 1.268e+04 6.755e-09
 19.12670     -3.8 1.210e+04 6.099e-09
 19.14663     -4.4 1.204e+04 5.656e-09
 19.16657     -4.4 1.215e+04 5.502e-09
 19.18086     -3.7 1.221e+04 5.276e-09
 19.19082     -4.6 1.246e+04 6.423e-09
 19.20643     -3.7 1.255e+04 6.248e-09
 19.22637     -2.3 1.253e+04 5.539e-09
 19.24630     -1.7 1.263e+04 5.510e-09
 19.26623     -0.7 1.262e+04 5.608e-09
 19.28369      0.2 1.264e+04 5.801e-09
 19.29366      0.2 1.284e+04 6.925e-09
 19.30111      1.5 1.277e+04 7.230e-09
 19.31108      1.4 1.242e+04 5.772e-09
 19.32603      2.1 1.252e+04 6.328e-09
 19.35603      2.7 1.278e+04 9.372e-09
 19.39600      3.5 1.293e+04 1.158e-08
 19.42580      3.7 1.315e+04 1.243e-08
 19.44563      4.1 1.299e+04 1.078e-08
 19.46557      4.4 1.273e+04 7.353e-09
 19.48550      3.9 1.242e+04 4.733e-09
 19.49934      3.3 1.211e+04 3.329e-09
 19.50930      2.9 1.213e+04 3.298e-09
 19.52537      2.4 1.193e+04 2.655e-09
 19.54530      2.0 1.202e+04 2.410e-09
 19.55681      1.7 1.199e+04 2.490e-09
 19.56677      0.8 1.231e+04 4.195e-09
 19.58517      0.5 1.243e+04 4.585e-09
 19.60217     -1.1 1.343e+04 6.046e-09
 19.61214     -3.3 1.395e+04 8.303e-09
 19.62503    -10.7 1.624e+04 2.573e-08
 19.63993    -16.7 1.830e+04 6.223e-08
 19.64985    -20.5 1.777e+04 1.689e-07
 19.65848    -19.2 1.712e+04 3.610e-07
 19.66346    -18.5 1.714e+04 2.669e-07
 19.66979    -19.0 1.744e+04 2.728e-07
 19.67957    -18.6 1.758e+04 1.561e-07
 19.68456    -20.1 1.807e+04 1.126e-07
 19.68972    -24.3 1.649e+04 5.314e-08
 19.70472    -28.3 1.518e+04 1.592e-08
 19.71498    -33.0 1.285e+04 3.783e-09
 19.72494    -30.0 1.354e+04 5.277e-09
 19.74463    -32.4 1.213e+04 2.393e-09
 19.76457    -32.9 1.183e+04 1.643e-09
 19.79457    -31.9 1.174e+04 1.253e-09
 19.83453    -31.1 1.171e+04 1.155e-09
 19.87440    -29.8 1.162e+04 1.624e-09
 19.90420    -28.0 1.140e+04 2.576e-09
 19.92065    -27.9 1.149e+04 2.707e-09
 19.93072    -27.6 1.133e+04 2.245e-09
 19.95413    -25.1 1.130e+04 3.126e-09
 19.98393    -24.2 1.152e+04 3.010e-09
 20.00377    -23.9 1.152e+04 2.892e-09
 20.03377    -22.7 1.150e+04 2.609e-09
 20.05842    -21.6 1.134e+04 2.878e-09
 20.07835    -22.1 1.120e+04 2.986e-09
 20.11360    -20.2 1.099e+04 2.850e-09
 20.13649    -18.0 1.097e+04 2.273e-09
 20.15642    -16.7 1.078e+04 1.731e-09
 20.19333    -15.2 1.099e+04 1.465e-09
 20.23320    -14.3 1.108e+04 1.746e-09
 20.27306    -13.4 1.122e+04 2.565e-09
 20.30287    -12.2 1.124e+04 3.189e-09
 20.31392    -12.1 1.128e+04 3.248e-09
 20.32389    -12.1 1.124e+04 3.164e-09
 20.34197    -11.9 1.122e+04 3.944e-09
 20.35194    -11.5 1.120e+04 3.592e-09
 20.36257    -11.4 1.129e+04 3.796e-09
 20.38250    -12.0 1.137e+04 4.847e-09
 20.40244    -11.9 1.125e+04 6.250e-09
 20.42237    -11.6 1.113e+04 7.542e-09
 20.44230    -11.1 1.116e+04 7.414e-09
 20.45477    -10.7 1.122e+04 6.109e-09
 20.46474    -10.8 1.135e+04 6.992e-09
 20.48217    -10.5 1.123e+04 5.393e-09
 20.51217    -11.2 1.056e+04 3.132e-09
 20.54784    -10.2 1.008e+04 2.078e-09
 20.56552     -9.7 1.020e+04 2.419e-09
 20.56971     -9.1 1.043e+04 2.500e-09
 20.59190     -8.4 1.036e+04 2.087e-09
 20.63186     -7.1 1.015e+04 2.184e-09
 20.67173     -5.8 1.015e+04 3.308e-09
 20.70153     -5.1 1.023e+04 4.179e-09
 20.72137     -5.6 1.072e+04 5.630e-09
 20.74130    -10.4 1.304e+04 1.317e-08
 20.76124    -12.3 1.418e+04 4.742e-08
 20.77325    -10.8 1.458e+04 8.491e-08
 20.78322    -10.8 1.436e+04 8.007e-08
 20.80110     -8.4 1.377e+04 6.272e-08
 20.81534     -8.7 1.307e+04 3.573e-08
 20.82530     -8.7 1.330e+04 3.183e-08
 20.84097    -11.7 1.204e+04 1.669e-08
 20.86090    -13.4 1.102e+04 1.226e-08
 20.87609    -13.4 1.085e+04 1.134e-08
 20.88606    -13.4 1.097e+04 1.286e-08
 20.91083    -13.0 1.092e+04 1.213e-08
 20.95080    -12.4 1.106e+04 1.235e-08
 20.97903    -12.4 1.163e+04 1.524e-08
 20.98889    -12.7 1.191e+04 1.732e-08
 21.00044    -13.2 1.254e+04 2.301e-08
 21.02037    -13.7 1.312e+04 3.225e-08
 21.04030    -13.7 1.361e+04 4.347e-08
 21.06024    -13.4 1.389e+04 5.188e-08
 21.07103    -13.7 1.398e+04 5.548e-08
 21.08100    -13.5 1.468e+04 6.987e-08
 21.09173    -14.5 1.477e+04 6.624e-08
 21.10170    -15.3 1.467e+04 6.533e-08
 21.12004    -16.4 1.436e+04 5.994e-08
 21.13997    -16.4 1.381e+04 5.365e-08
 21.15990    -15.4 1.287e+04 3.789e-08
 21.17984    -15.0 1.229e+04 2.080e-08
 21.19457    -16.8 1.215e+04 1.100e-08
 21.20454    -16.8 1.166e+04 9.970e-09
 21.21970    -19.8 1.113e+04 6.481e-09
 21.23964    -21.4 1.035e+04 6.049e-09
 21.25957    -21.1 1.019e+04 6.441e-09
 21.27950    -20.4 9.965e+03 6.414e-09
 21.29741    -19.6 9.982e+03 5.307e-09
 21.30737    -19.4 9.823e+03 4.652e-09
 21.31676    -18.9 9.766e+03 4.047e-09
 21.32672    -19.4 9.882e+03 3.726e-09
 21.33930    -19.5 1.011e+04 2.693e-09
 21.35924    -20.2 1.012e+04 2.418e-09
 21.38924    -20.6 1.006e+04 2.323e-09
 21.41041    -20.1 9.672e+03 3.073e-09
 21.43034    -18.8 9.716e+03 3.030e-09
 21.46907    -18.1 9.589e+03 2.762e-09
 21.50893    -17.2 9.457e+03 2.379e-09
 21.54880    -16.2 9.370e+03 2.013e-09
 21.57265    -15.2 9.442e+03 1.460e-09
 21.59258    -16.3 9.635e+03 1.092e-09
 21.61608    -15.5 9.541e+03 8.845e-10
 21.63602    -14.7 9.611e+03 9.738e-10
 21.66840    -13.6 9.544e+03 7.225e-10
 21.70827    -12.7 9.614e+03 5.586e-10
 21.74813    -11.9 9.653e+03 5.700e-10
 21.78800    -12.1 9.975e+03 7.239e-10
 21.82176    -12.4 1.016e+04 1.548e-09
 21.84169    -12.4 1.019e+04 1.710e-09
 21.86773    -12.3 1.045e+04 3.027e-09
 21.90760    -12.2 1.077e+04 3.630e-09
 21.93446    -13.1 1.135e+04 3.270e-09
 21.94433    -13.2 1.133e+04 3.773e-09
 21.95724    -13.5 1.126e+04 3.641e-09
 21.97717    -13.6 1.136e+04 3.512e-09
 21.99711    -13.6 1.131e+04 3.333e-09
 22.02710    -12.9 1.129e+04 2.964e-09
 22.04737    -12.1 1.145e+04 1.959e-09
 22.06433    -12.1 1.142e+04 2.039e-09
 22.08403    -13.4 1.130e+04 1.459e-09
 22.10693    -12.6 1.126e+04 1.447e-09
 22.14680    -12.5 1.143e+04 1.818e-09
 22.18667    -12.1 1.145e+04 3.014e-09
 22.22654    -11.6 1.144e+04 4.823e-09
 22.25304    -11.1 1.149e+04 6.428e-09
 22.27297    -11.4 1.116e+04 5.207e-09
 22.30627    -10.6 1.105e+04 4.920e-09
 22.34614     -9.4 1.093e+04 3.864e-09
 22.38600     -8.5 1.091e+04 3.400e-09
 22.42587     -7.5 1.099e+04 3.673e-09
 22.45872     -6.3 1.129e+04 4.385e-09
 22.47865     -6.4 1.098e+04 3.698e-09
 22.50560     -5.0 1.122e+04 4.103e-09
 22.54547     -4.1 1.145e+04 4.582e-09
 22.57548     -3.8 1.164e+04 5.572e-09
 22.59542     -4.1 1.197e+04 7.140e-09
 22.62520     -3.9 1.183e+04 9.458e-09
 22.66439     -3.6 1.156e+04 8.693e-09
 22.68432     -3.4 1.121e+04 6.586e-09
 22.70494     -2.7 1.076e+04 4.328e-09
 22.74480     -1.9 1.035e+04 2.343e-09
 22.78467     -1.1 1.010e+04 1.308e-09
 22.82454     -0.1 9.943e+03 7.980e-10
 22.86440      1.0 9.901e+03 5.426e-10
 22.89000      2.3 9.696e+03 4.571e-10
 22.90993      2.0 9.659e+03 4.429e-10
 22.94414      3.5 9.579e+03 4.459e-10
 22.98400      5.0 9.555e+03 4.811e-10
 23.02387      6.5 9.562e+03 5.728e-10
 23.06374      7.9 9.583e+03 7.537e-10
 23.08687      9.3 9.635e+03 1.097e-09
 23.09887      9.2 9.916e+03 1.132e-09
 23.11561      7.8 1.019e+04 1.739e-09
 23.14347      8.1 1.061e+04 2.932e-09
 23.17327      8.5 1.069e+04 3.580e-09
 23.19311      8.4 1.079e+04 5.322e-09
 23.20828      8.8 1.094e+04 7.437e-09
 23.21825      8.0 1.114e+04 8.955e-09
 23.23298      8.2 1.131e+04 9.795e-09
 23.25291      8.1 1.132e+04 9.761e-09
 23.27284      8.0 1.124e+04 9.355e-09
 23.29278      8.0 1.102e+04 8.337e-09
 23.31112      8.0 1.078e+04 7.179e-09
 23.32109      6.9 1.065e+04 6.492e-09
 23.33240      6.8 1.046e+04 5.594e-09
 23.34237      6.8 1.047e+04 5.329e-09
 23.35258      6.7 1.029e+04 4.480e-09
 23.37251      6.6 1.017e+04 3.895e-09
 23.39244      6.4 1.007e+04 3.498e-09
 23.41238      6.2 9.965e+03 3.269e-09
 23.42393      6.0 9.940e+03 3.262e-09
 23.43389      5.0 1.010e+04 3.533e-09
 23.45224      4.7 1.013e+04 3.705e-09
 23.47218      4.1 1.033e+04 4.207e-09
 23.49211      1.6 1.146e+04 6.322e-09
 23.51204     -5.1 1.380e+04 2.524e-08
 23.52676     -7.9 1.478e+04 6.341e-08
 23.53673     -8.5 1.443e+04 5.791e-08
 23.54688     -7.1 1.393e+04 5.176e-08
 23.55680     -7.3 1.379e+04 4.894e-08
 23.57179     -8.3 1.397e+04 3.318e-08
 23.58809    -14.7 1.448e+04 1.691e-08
 23.59806    -16.6 1.376e+04 1.406e-08
 23.61171    -22.5 1.185e+04 1.445e-08
 23.62960    -23.6 1.148e+04 1.616e-08
 23.63957    -23.5 1.117e+04 1.388e-08
 23.65158    -23.6 1.116e+04 1.326e-08
 23.67151    -24.1 1.112e+04 1.006e-08
 23.69144    -25.6 1.090e+04 6.656e-09
 23.71138    -26.8 1.014e+04 5.198e-09
 23.73131    -27.1 9.884e+03 4.142e-09
 23.74241    -26.9 9.563e+03 3.584e-09
 23.75237    -26.6 9.664e+03 3.821e-09
 23.78124    -25.8 9.577e+03 3.497e-09
 23.82121    -24.5 9.338e+03 2.406e-09
 23.86107    -23.7 9.234e+03 1.720e-09
 23.90094    -22.6 9.092e+03 1.566e-09
 23.93831    -20.9 8.961e+03 1.556e-09
 23.95824    -20.6 9.188e+03 2.209e-09
 23.98067    -18.4 9.072e+03 1.929e-09
 24.02054    -16.5 9.056e+03 1.600e-09
 24.06041    -14.8 9.035e+03 1.407e-09
 24.08971    -13.1 9.014e+03 1.385e-09
 24.10964    -13.2 9.151e+03 1.435e-09
 24.14014    -11.6 9.178e+03 1.617e-09
 24.16392     -9.9 9.234e+03 1.907e-09
 24.18385    -10.0 9.265e+03 1.896e-09
 24.21987     -8.6 9.394e+03 2.260e-09
 24.25974     -7.2 9.534e+03 2.769e-09
 24.29961     -5.9 9.731e+03 3.057e-09
 24.33947     -4.9 9.858e+03 3.036e-09
 24.36959     -3.9 9.889e+03 2.948e-09
 24.38953     -4.5 9.883e+03 2.842e-09
 24.41921     -3.4 9.923e+03 2.651e-09
 24.45907     -2.1 9.913e+03 2.498e-09
 24.49894     -0.6 9.996e+03 2.336e-09
 24.53881      0.8 1.004e+04 2.328e-09
 24.57527      2.0 1.019e+04 2.443e-09
 24.59520      1.4 1.011e+04 2.093e-09
 24.60109      2.6 1.022e+04 2.360e-09
 24.62103      2.8 1.033e+04 2.557e-09
 24.65841      4.1 1.045e+04 2.631e-09
 24.69827      5.1 1.049e+04 2.478e-09
 24.73814      6.0 1.056e+04 2.199e-09
 24.77801      6.9 1.061e+04 1.923e-09
 24.80088      7.8 1.063e+04 1.667e-09
 24.82081      7.8 1.053e+04 1.425e-09
 24.85774      8.8 1.062e+04 1.294e-09
 24.89761      9.8 1.066e+04 1.297e-09
 24.93747     10.3 1.083e+04 1.452e-09
 24.97734     10.5 1.102e+04 2.080e-09
 25.00655     10.8 1.117e+04 3.045e-09
 25.02649     10.9 1.105e+04 2.875e-09
 25.05708     11.0 1.132e+04 2.945e-09
 25.09255     11.2 1.139e+04 2.644e-09
 25.11248     12.1 1.143e+04 2.999e-09
 25.13681     12.3 1.159e+04 2.220e-09
 25.17668     12.4 1.175e+04 1.692e-09
 25.21223     12.5 1.180e+04 1.710e-09
 25.23216     13.2 1.173e+04 1.713e-09
 25.25641     13.2 1.187e+04 2.372e-09
 25.29628     13.5 1.180e+04 3.346e-09
 25.33614     13.4 1.172e+04 3.465e-09
 25.37601     13.4 1.153e+04 3.087e-09
 25.41588     13.4 1.134e+04 2.423e-09
 25.43784     13.3 1.112e+04 2.181e-09
 25.45777     13.7 1.124e+04 2.365e-09
 25.49561     13.8 1.115e+04 2.546e-09
 25.53548     14.0 1.099e+04 2.706e-09
 25.57534     14.4 1.090e+04 2.636e-09
 25.60393     14.9 1.072e+04 2.465e-09
 25.62386     15.0 1.067e+04 2.137e-09
 25.64351     15.6 1.053e+04 2.004e-09
 25.66344     15.5 1.057e+04 1.980e-09
 25.69494     16.1 1.045e+04 1.951e-09
 25.73481     16.8 1.045e+04 1.954e-09
 25.77468     17.3 1.049e+04 2.162e-09
 25.81454     17.0 1.064e+04 2.904e-09
 25.84919     16.8 1.080e+04 4.342e-09
 25.86912     17.0 1.075e+04 3.758e-09
 25.89428     16.6 1.084e+04 5.051e-09
 25.93414     16.0 1.078e+04 4.991e-09
 25.97401     15.8 1.053e+04 4.108e-09
 26.01388     15.7 1.019e+04 2.711e-09
 26.05374     15.4 9.839e+03 1.672e-09
 26.07479     15.1 9.676e+03 1.482e-09
 26.09473     16.2 9.615e+03 1.171e-09
 26.11532     15.8 9.602e+03 1.254e-09
 26.13525     16.5 9.543e+03 1.226e-09
 26.17334     16.0 9.502e+03 1.378e-09
 26.21321     15.0 9.377e+03 1.495e-09
 26.25308     13.8 9.304e+03 1.543e-09
 26.28037     12.5 9.397e+03 1.711e-09
 26.29024     12.1 9.477e+03 1.777e-09
 26.30272      8.2 1.010e+04 2.707e-09
 26.32265      1.9 1.162e+04 7.269e-09
 26.33663     -8.4 1.585e+04 3.060e-08
 26.34156     -9.8 1.631e+04 3.475e-08
 26.34747    -15.9 1.857e+04 7.687e-08
 26.35744    -20.7 1.830e+04 1.644e-07
 26.36573    -21.9 1.826e+04 1.718e-07
 26.37072    -18.6 1.810e+04 1.731e-07
 26.38240    -24.5 1.900e+04 1.261e-07
 26.39308    -35.5 1.544e+04 2.780e-08
 26.40305    -39.0 1.385e+04 2.078e-08
 26.42232    -48.7 9.541e+03 6.627e-09
 26.44225    -51.2 8.502e+03 4.483e-09
 26.46218    -52.1 8.203e+03 3.751e-09
 26.48605    -52.5 7.994e+03 3.253e-09
 26.50608    -53.9 7.724e+03 2.831e-09
 26.53215    -53.7 7.522e+03 2.418e-09
 26.57201    -52.8 7.501e+03 2.335e-09
 26.60677    -51.7 7.486e+03 2.253e-09
 26.62670    -51.3 7.574e+03 2.446e-09
 26.65175    -50.3 7.491e+03 2.201e-09
 26.69161    -49.3 7.444e+03 1.971e-09
 26.71175    -48.5 7.473e+03 1.923e-09
 26.73169    -48.8 7.296e+03 1.699e-09
 26.77135    -48.6 7.646e+03 1.922e-09
 26.81121    -49.4 8.209e+03 3.087e-09
 26.85108    -49.8 9.174e+03 5.952e-09
 26.87233    -49.8 9.519e+03 7.415e-09
 26.88220    -49.7 9.489e+03 6.988e-09
 26.90072    -50.6 9.764e+03 8.276e-09
 26.91723    -50.9 9.915e+03 9.560e-09
 26.92720    -50.6 9.674e+03 8.291e-09
 26.94058    -50.9 9.672e+03 8.497e-09
 26.96052    -51.1 9.637e+03 7.728e-09
 26.98045    -51.5 9.507e+03 6.071e-09
 27.00038    -51.9 9.294e+03 4.908e-09
 27.02007    -51.7 9.235e+03 4.265e-09
 27.03004    -51.4 9.256e+03 4.472e-09
 27.05032    -51.9 8.999e+03 3.123e-09
 27.09028    -51.8 8.920e+03 2.439e-09
 27.11816    -50.7 8.941e+03 2.356e-09
 27.13105    -50.2 8.855e+03 2.006e-09
 27.14304    -49.6 8.845e+03 1.992e-09
 27.17001    -48.4 8.895e+03 1.966e-09
 27.20988    -47.3 9.058e+03 2.056e-09
 27.24975    -46.0 9.130e+03 2.118e-09
 27.28961    -44.4 9.187e+03 1.987e-09
 27.32878    -42.7 9.166e+03 1.573e-09
 27.34871    -42.3 9.138e+03 1.580e-09
 27.36935    -40.5 9.162e+03 1.136e-09
 27.40921    -38.8 9.221e+03 8.403e-10
 27.44908    -37.0 9.260e+03 7.093e-10
 27.48895    -35.0 9.292e+03 6.765e-10
 27.52881    -33.0 9.410e+03 6.683e-10
 27.55439    -31.1 9.469e+03 7.213e-10
 27.57432    -30.6 9.417e+03 6.125e-10
 27.60855    -28.9 9.558e+03 6.657e-10
 27.62954    -27.5 9.660e+03 8.452e-10
 27.64947    -27.2 9.734e+03 7.205e-10
 27.68828    -25.5 9.652e+03 1.171e-09
 27.72815    -23.4 9.821e+03 1.528e-09
 27.76006    -21.9 1.000e+04 1.411e-09
 27.78000    -21.5 9.969e+03 1.540e-09
 27.80788    -20.1 1.019e+04 1.133e-09
 27.84775    -20.0 1.051e+04 7.666e-10
 27.88761    -19.8 1.051e+04 7.757e-10
 27.92748    -19.9 1.064e+04 9.613e-10
 27.96574    -19.5 1.068e+04 1.425e-09
 27.98567    -19.4 1.057e+04 1.479e-09
 28.00722    -19.0 1.087e+04 1.581e-09
 28.04708    -18.8 1.094e+04 1.799e-09
 28.08695    -18.5 1.107e+04 1.805e-09
 28.12099    -17.9 1.129e+04 1.457e-09
 28.14093    -17.9 1.147e+04 1.935e-09
 28.16668    -17.5 1.152e+04 1.278e-09
 28.19135    -16.8 1.169e+04 8.218e-10
 28.21128    -16.3 1.180e+04 6.949e-10
 28.24642    -15.9 1.198e+04 5.376e-10
 28.28628    -15.0 1.183e+04 5.351e-10
 28.32615    -13.8 1.161e+04 5.664e-10
 28.36602    -12.3 1.146e+04 5.431e-10
 28.39702    -10.6 1.141e+04 4.751e-10
 28.41695    -10.0 1.147e+04 3.829e-10
 28.44575     -8.5 1.144e+04 3.428e-10
 28.48562     -7.0 1.136e+04 3.309e-10
 28.52548     -5.2 1.127e+04 3.276e-10
 28.56535     -3.2 1.120e+04 3.147e-10
 28.60270     -1.3 1.116e+04 2.938e-10
 28.62263     -0.8 1.115e+04 2.931e-10
 28.63238      1.0 1.111e+04 2.803e-10
 28.65231      1.5 1.097e+04 3.480e-10
 28.68495      3.4 1.095e+04 3.566e-10
 28.72482      5.2 1.093e+04 4.031e-10
 28.76468      7.0 1.088e+04 5.179e-10
 28.80455      9.0 1.087e+04 6.813e-10
 28.82830     11.0 1.093e+04 8.191e-10
 28.84824     11.2 1.094e+04 6.722e-10
 28.88428     12.9 1.104e+04 7.201e-10
 28.92415     14.4 1.105e+04 7.784e-10
 28.96402     15.5 1.116e+04 8.975e-10
 29.00388     16.5 1.125e+04 1.243e-09
 29.03398     17.3 1.138e+04 1.879e-09
 29.05391     17.3 1.134e+04 1.925e-09
 29.08362     17.9 1.147e+04 2.663e-09
 29.12348     18.4 1.162e+04 3.111e-09
 29.14376     18.7 1.187e+04 3.156e-09
 29.16370     19.7 1.167e+04 3.083e-09
 29.20322     20.1 1.184e+04 3.146e-09
 29.23966     20.5 1.185e+04 3.041e-09
 29.25959     20.6 1.175e+04 2.644e-09
 29.28295     21.3 1.174e+04 2.264e-09
 29.32282     21.9 1.177e+04 1.835e-09
 29.36269     22.8 1.185e+04 1.748e-09
 29.40255     23.1 1.200e+04 1.933e-09
 29.44242     22.7 1.227e+04 2.979e-09
 29.46526     22.1 1.246e+04 5.645e-09
 29.48520     21.3 1.241e+04 5.919e-09
 29.52215     21.1 1.241e+04 6.662e-09
 29.55195     21.0 1.244e+04 6.314e-09
 29.56791     20.7 1.233e+04 5.811e-09
 29.57787     20.7 1.217e+04 4.807e-09
 29.60179     20.8 1.199e+04 3.733e-09
 29.63522     20.7 1.188e+04 2.165e-09
 29.65515     21.7 1.180e+04 2.157e-09
 29.67094     21.5 1.169e+04 1.466e-09
 29.69087     22.1 1.166e+04 1.361e-09
 29.72149     22.7 1.149e+04 1.387e-09
 29.76135     23.6 1.131e+04 1.435e-09
 29.80122     24.6 1.127e+04 1.455e-09
 29.84109     25.7 1.120e+04 1.445e-09
 29.87661     26.7 1.114e+04 1.397e-09
 29.89655     27.2 1.126e+04 1.547e-09
 29.92082     28.2 1.117e+04 1.491e-09
 29.96069     29.3 1.106e+04 1.421e-09
 30.00055     30.4 1.095e+04 1.424e-09
 30.04042     31.5 1.093e+04 1.475e-09
 30.08029     32.5 1.090e+04 1.670e-09
 30.10222     33.6 1.090e+04 2.027e-09
 30.12216     33.8 1.100e+04 2.056e-09
 30.14660     34.9 1.101e+04 2.469e-09
 30.16654     35.4 1.106e+04 2.240e-09
 30.19989     36.4 1.111e+04 2.595e-09
 30.23975     37.4 1.115e+04 3.117e-09
 30.27962     38.3 1.123e+04 3.837e-09
 30.30790     39.0 1.128e+04 4.494e-09
 30.32783     39.2 1.161e+04 6.166e-09
 30.35935     39.6 1.175e+04 7.379e-09
 30.39922     39.6 1.178e+04 7.441e-09
 30.43909     39.4 1.175e+04 7.114e-09
 30.47895     39.1 1.170e+04 6.442e-09
 30.51357     38.8 1.170e+04 5.728e-09
 30.53351     38.1 1.190e+04 5.885e-09
 30.55869     37.8 1.181e+04 4.297e-09
 30.59855     37.4 1.182e+04 3.231e-09
 30.63806     37.2 1.174e+04 2.546e-09
 30.65799     36.8 1.206e+04 3.778e-09
 30.67829     36.3 1.188e+04 3.146e-09
 30.71815     35.8 1.186e+04 2.597e-09
 30.73918     35.0 1.202e+04 2.122e-09
 30.75911     34.3 1.219e+04 2.014e-09
 30.79789     32.7 1.231e+04 1.898e-09
 30.83776     31.3 1.253e+04 2.184e-09
 30.86756     29.3 1.283e+04 3.118e-09
 30.88739     27.6 1.286e+04 4.900e-09
 30.90352     26.4 1.301e+04 6.449e-09
 30.91349     25.8 1.304e+04 5.877e-09
 30.92726     24.5 1.318e+04 5.073e-09
 30.94466     23.2 1.341e+04 2.780e-09
 30.96469     22.2 1.334e+04 2.291e-09
 30.99722     19.9 1.343e+04 8.195e-10
 31.03709     18.2 1.292e+04 6.358e-10
 31.07696     17.9 1.284e+04 6.751e-10
 31.11682     18.1 1.256e+04 8.505e-10
 31.14944     18.6 1.225e+04 1.199e-09
 31.16322     19.6 1.243e+04 1.056e-09
 31.17047     19.1 1.237e+04 1.108e-09
 31.19656     19.9 1.236e+04 1.848e-09
 31.23642     19.9 1.245e+04 2.850e-09
 31.26324     19.9 1.225e+04 3.473e-09
 31.27311     19.8 1.224e+04 3.439e-09
 31.28606     19.9 1.216e+04 3.736e-09
 31.30599     20.2 1.213e+04 3.811e-09
 31.32593     20.3 1.213e+04 3.735e-09
 31.34586     20.3 1.212e+04 3.591e-09
 31.36579     20.2 1.210e+04 3.541e-09
 31.37594     20.1 1.208e+04 3.631e-09
 31.38591     20.2 1.209e+04 3.498e-09
 31.40494     20.3 1.205e+04 3.906e-09
 31.41491     20.2 1.231e+04 4.970e-09
 31.42559     19.9 1.246e+04 5.985e-09
 31.44553     19.1 1.293e+04 8.875e-09
 31.46546     18.0 1.358e+04 1.712e-08
 31.47878     17.4 1.427e+04 3.308e-08
 31.48875     17.4 1.456e+04 4.174e-08
 31.50533     17.0 1.509e+04 5.551e-08
 31.52526     16.3 1.508e+04 5.347e-08
 31.54519     15.6 1.473e+04 4.256e-08
 31.56513     14.7 1.422e+04 2.754e-08
 31.58162     13.1 1.361e+04 1.846e-08
 31.59159     12.2 1.356e+04 1.865e-08
 31.60500     11.2 1.348e+04 1.845e-08
 31.62493     10.1 1.371e+04 2.048e-08
 31.64486      8.5 1.438e+04 2.897e-08
 31.66063      6.7 1.528e+04 5.057e-08
 31.67060      7.0 1.574e+04 6.820e-08
 31.68446      5.8 1.630e+04 9.328e-08
 31.69442      4.6 1.609e+04 9.022e-08
 31.70466      4.6 1.552e+04 7.349e-08
 31.72460      5.0 1.456e+04 4.432e-08
 31.74453      4.6 1.369e+04 2.401e-08
 31.76446      3.8 1.298e+04 1.469e-08
 31.78440      3.4 1.242e+04 1.175e-08
 31.79726      3.6 1.215e+04 1.101e-08
 31.80723      3.5 1.196e+04 9.212e-09
 31.82426      4.7 1.182e+04 8.861e-09
 31.84420      5.0 1.187e+04 8.638e-09
 31.87419      5.8 1.177e+04 8.556e-09
 31.91416      6.8 1.175e+04 1.009e-08
 31.95402      7.6 1.180e+04 1.215e-08
 31.99317      7.5 1.185e+04 1.391e-08
 32.01300      7.2 1.188e+04 1.331e-08
 32.03366      6.8 1.155e+04 1.117e-08
 32.07362      6.6 1.117e+04 9.538e-09
 32.11349      6.9 1.059e+04 6.286e-09
 32.15228      7.2 1.012e+04 3.590e-09
 32.17221      6.9 1.040e+04 5.013e-09
 32.19323      7.0 9.846e+03 2.752e-09
 32.21877      7.7 9.584e+03 2.284e-09
 32.23871      7.2 9.639e+03 2.116e-09
 32.27296      7.7 9.820e+03 2.340e-09
 32.31283      7.8 1.018e+04 2.905e-09
 32.34263      7.6 1.031e+04 3.427e-09
 32.36246      7.4 1.042e+04 3.847e-09
 32.38240      7.2 1.055e+04 4.206e-09
 32.40233      6.7 1.065e+04 4.515e-09
 32.41774      5.9 1.065e+04 4.792e-09
 32.42771      5.8 1.051e+04 3.892e-09
 32.43422      4.2 1.077e+04 4.625e-09
 32.44419      3.2 1.099e+04 5.381e-09
 32.46213      1.1 1.138e+04 7.906e-09
 32.48206     -4.2 1.341e+04 1.543e-08
 32.50200    -10.3 1.540e+04 4.843e-08
 32.52193    -13.2 1.523e+04 7.168e-08
 32.53706    -14.0 1.462e+04 5.553e-08
 32.54703    -15.4 1.444e+04 4.624e-08
 32.56180    -19.1 1.369e+04 1.928e-08
 32.58173    -24.2 1.195e+04 1.012e-08
 32.60166    -26.3 1.086e+04 8.243e-09
 32.62160    -26.3 1.058e+04 8.411e-09
 32.63990    -25.9 1.051e+04 7.850e-09
 32.64986    -26.3 1.035e+04 6.473e-09
 32.66146    -26.0 9.993e+03 5.784e-09
 32.67344    -25.8 9.936e+03 4.774e-09
 32.68340    -25.5 1.012e+04 5.284e-09
 32.70133    -25.6 9.807e+03 4.922e-09
 32.72126    -25.4 9.760e+03 4.360e-09
 32.74120    -25.3 9.609e+03 4.126e-09
 32.75270    -25.0 9.364e+03 4.120e-09
 32.76267    -25.1 9.312e+03 3.585e-09
 32.78106    -24.3 9.376e+03 3.416e-09
 32.80100    -24.2 9.311e+03 3.359e-09
 32.83100    -23.0 9.270e+03 3.177e-09
 32.85573    -21.5 8.937e+03 2.279e-09
 32.87567    -21.0 8.821e+03 1.896e-09
 32.91083    -20.2 8.625e+03 1.391e-09
 32.95069    -19.1 8.578e+03 1.434e-09
 32.99056    -17.9 8.577e+03 1.722e-09
 33.03043    -16.3 8.650e+03 2.065e-09
 33.06141    -15.0 8.652e+03 2.134e-09
 33.08134    -15.0 8.811e+03 2.244e-09
 33.11016    -14.0 8.827e+03 2.132e-09
 33.15003    -13.1 8.846e+03 2.072e-09
 33.17505    -12.6 9.079e+03 2.337e-09
 33.19498    -11.7 9.109e+03 2.360e-09
 33.22976    -11.9 9.480e+03 2.870e-09
 33.25956    -13.0 9.834e+03 4.115e-09
 33.27685    -13.6 1.001e+04 5.416e-09
 33.28682    -14.0 1.006e+04 5.330e-09
 33.29933    -14.9 1.036e+04 7.238e-09
 33.31927    -15.8 1.060e+04 8.992e-09
 33.33920    -16.9 1.081e+04 1.040e-08
 33.35913    -18.5 1.096e+04 1.032e-08
 33.37907    -21.7 1.134e+04 1.104e-08
 33.38966    -24.6 1.131e+04 1.365e-08
 33.39963    -25.0 1.119e+04 1.272e-08
 33.41893    -27.1 1.137e+04 1.358e-08
 33.43055    -29.1 1.155e+04 1.430e-08
 33.44051    -28.4 1.196e+04 1.911e-08
 33.45880    -30.9 1.212e+04 1.772e-08
 33.47873    -33.3 1.167e+04 1.573e-08
 33.49250    -36.4 1.159e+04 1.290e-08
 33.50246    -36.4 1.143e+04 1.167e-08
 33.51860    -40.8 1.169e+04 1.123e-08
 33.53853    -46.4 1.241e+04 1.570e-08
 33.55847    -50.4 1.286e+04 2.568e-08
 33.57840    -52.5 1.333e+04 3.208e-08
 33.59533    -55.4 1.349e+04 3.090e-08
 33.60530    -54.6 1.327e+04 2.835e-08
 33.61827    -58.8 1.321e+04 1.995e-08
 33.63820    -64.3 1.308e+04 1.645e-08
 33.65813    -68.7 1.288e+04 1.704e-08
 33.67627    -71.2 1.280e+04 2.010e-08
 33.68624    -71.1 1.265e+04 1.885e-08
 33.69800    -72.7 1.254e+04 1.934e-08
 33.70814    -74.0 1.183e+04 1.344e-08
 33.71811    -72.9 1.217e+04 1.655e-08
 33.73787    -74.4 1.131e+04 8.487e-09
 33.75780    -76.1 1.069e+04 4.461e-09
 33.77773    -77.4 1.027e+04 2.969e-09
 33.79767    -77.9 9.905e+03 2.517e-09
 33.82766    -77.3 9.827e+03 2.536e-09
 33.86763    -76.8 9.636e+03 2.225e-09
 33.90404    -76.1 9.615e+03 2.089e-09
 33.92398    -74.9 9.776e+03 2.353e-09
 33.94736    -74.3 9.773e+03 2.269e-09
 33.98723    -73.6 9.927e+03 2.272e-09
 34.02710    -73.0 1.016e+04 2.589e-09
 34.06696    -72.4 1.040e+04 3.037e-09
 34.10683    -71.6 1.052e+04 3.294e-09
 34.12965    -70.9 1.060e+04 3.125e-09
 34.14958    -69.6 1.067e+04 3.152e-09
 34.17789    -68.8 1.064e+04 2.614e-09
 34.19782    -69.4 1.055e+04 2.447e-09
 34.22643    -68.6 1.045e+04 1.824e-09
 34.26630    -67.8 1.050e+04 1.591e-09
 34.30616    -67.4 1.054e+04 1.564e-09
 34.33533    -67.5 1.091e+04 2.389e-09
 34.35526    -66.7 1.105e+04 2.877e-09
 34.38590    -66.7 1.147e+04 4.964e-09
 34.41570    -66.7 1.191e+04 6.765e-09
 34.43339    -67.4 1.209e+04 7.349e-09
 34.44335    -67.6 1.206e+04 7.325e-09
 34.46553    -67.7 1.217e+04 7.434e-09
 34.49543    -68.2 1.214e+04 6.075e-09
 34.51527    -68.1 1.211e+04 5.382e-09
 34.53520    -68.2 1.194e+04 3.072e-09
 34.55077    -68.1 1.192e+04 2.760e-09
 34.56084    -67.9 1.193e+04 2.822e-09
 34.58523    -67.6 1.171e+04 1.393e-09
 34.62510    -66.9 1.145e+04 9.857e-10
 34.66496    -65.8 1.133e+04 9.093e-10
 34.68927    -64.7 1.130e+04 9.284e-10
 34.70921    -64.5 1.145e+04 9.717e-10
 34.74470    -63.7 1.128e+04 1.305e-09
 34.76661    -62.8 1.106e+04 1.823e-09
 34.78654    -62.1 1.098e+04 1.414e-09
 34.82443    -61.0 1.081e+04 1.778e-09
 34.86430    -59.9 1.065e+04 2.004e-09
 34.90416    -58.9 1.053e+04 2.098e-09
 34.94403    -57.8 1.042e+04 2.040e-09
 34.97228    -56.8 1.028e+04 2.010e-09
 34.99222    -56.2 1.033e+04 2.236e-09
 35.02377    -55.1 1.024e+04 2.310e-09
 35.06363    -54.0 1.017e+04 2.349e-09
 35.10350    -52.7 1.006e+04 2.370e-09
 35.14337    -51.4 9.929e+03 2.341e-09
 35.17796    -49.9 9.795e+03 2.211e-09
 35.19539    -49.4 9.824e+03 2.274e-09
 35.20066    -49.5 1.004e+04 2.764e-09
 35.22310    -47.9 9.902e+03 2.615e-09
 35.26297    -46.1 9.757e+03 2.404e-09
 35.30283    -44.3 9.593e+03 2.113e-09
 35.34270    -42.5 9.395e+03 1.707e-09
 35.38257    -40.6 9.215e+03 1.262e-09
 35.40357    -38.9 9.089e+03 9.118e-10
 35.42350    -38.4 9.208e+03 1.235e-09
 35.46230    -36.7 9.082e+03 9.899e-10
 35.50217    -35.0 8.995e+03 8.740e-10
 35.54203    -33.0 8.953e+03 8.328e-10
 35.58190    -31.0 8.916e+03 8.347e-10
 35.60924    -29.0 8.974e+03 8.858e-10
 35.62918    -28.9 9.005e+03 9.548e-10
 35.66163    -27.1 9.069e+03 1.069e-09
 35.69211    -25.2 9.007e+03 1.360e-09
 35.71205    -25.4 9.241e+03 1.383e-09
 35.74137    -22.9 9.358e+03 1.718e-09
 35.78123    -21.2 9.419e+03 1.794e-09
 35.81492    -19.6 9.400e+03 1.878e-09
 35.83485    -19.3 9.325e+03 1.669e-09
 35.86097    -18.7 9.546e+03 2.472e-09
 35.90083    -18.0 1.004e+04 4.161e-09
 35.94070    -17.1 1.030e+04 5.695e-09
 35.98057    -16.9 1.025e+04 4.756e-09
 36.02043    -17.0 1.006e+04 3.148e-09
 36.06030    -17.3 1.002e+04 1.687e-09
 36.10017    -17.4 9.870e+03 1.748e-09
 36.14003    -17.9 1.003e+04 2.030e-09
 36.17990    -18.2 1.025e+04 3.398e-09
 36.20350    -18.7 1.082e+04 4.858e-09
 36.21337    -18.5 1.078e+04 3.812e-09
 36.22954    -18.6 1.081e+04 3.840e-09
 36.24601    -19.4 1.111e+04 5.065e-09
 36.25597    -19.8 1.107e+04 5.035e-09
 36.26941    -20.2 1.127e+04 5.377e-09
 36.28934    -20.3 1.120e+04 5.925e-09
 36.30927    -20.2 1.130e+04 5.706e-09
 36.33927    -21.0 1.164e+04 5.231e-09
 36.37923    -21.3 1.162e+04 5.730e-09
 36.41910    -21.1 1.163e+04 6.465e-09
 36.45188    -20.8 1.176e+04 5.689e-09
 36.47181    -21.6 1.187e+04 5.900e-09
 36.49884    -21.9 1.207e+04 5.008e-09
 36.53870    -22.2 1.211e+04 5.289e-09
 36.57857    -22.2 1.208e+04 5.262e-09
 36.61844    -21.8 1.198e+04 4.333e-09
 36.65755    -21.5 1.188e+04 2.807e-09
 36.67749    -22.3 1.179e+04 2.517e-09
 36.69495    -22.5 1.175e+04 2.088e-09
 36.71488    -21.3 1.196e+04 2.636e-09
 36.73804    -21.0 1.179e+04 2.471e-09
 36.77790    -20.3 1.183e+04 2.259e-09
 36.81777    -19.8 1.194e+04 1.984e-09
 36.85764    -19.5 1.228e+04 2.123e-09
 36.88306    -19.9 1.228e+04 3.286e-09
 36.89293    -20.9 1.229e+04 4.112e-09
 36.90727    -20.9 1.252e+04 4.512e-09
 36.92721    -20.8 1.247e+04 5.713e-09
 36.94714    -20.5 1.262e+04 5.801e-09
 36.96041    -20.6 1.282e+04 5.310e-09
 36.97038    -20.2 1.301e+04 5.654e-09
 36.98580    -20.4 1.286e+04 5.014e-09
 36.99577    -21.4 1.293e+04 5.028e-09
 37.00694    -21.4 1.267e+04 4.534e-09
 37.02687    -21.0 1.258e+04 4.105e-09
 37.04681    -20.8 1.264e+04 3.528e-09
 37.06674    -20.8 1.254e+04 3.249e-09
 37.08667    -20.6 1.230e+04 3.153e-09
 37.09861    -20.0 1.226e+04 3.188e-09
 37.10857    -20.6 1.240e+04 2.839e-09
 37.13661    -19.7 1.239e+04 2.924e-09
 37.17657    -17.9 1.244e+04 3.008e-09
 37.20634    -16.6 1.239e+04 2.930e-09
 37.22627    -16.0 1.231e+04 2.854e-09
 37.25630    -14.4 1.220e+04 2.529e-09
 37.29451    -12.9 1.202e+04 2.217e-09
 37.31445    -12.9 1.203e+04 1.961e-09
 37.33604    -11.1 1.201e+04 2.080e-09
 37.37590     -9.6 1.229e+04 2.576e-09
 37.40571     -9.0 1.243e+04 3.296e-09
 37.41709     -8.6 1.252e+04 3.617e-09
 37.42705     -8.6 1.257e+04 4.035e-09
 37.44548     -7.7 1.253e+04 4.728e-09
 37.46183     -7.5 1.257e+04 4.844e-09
 37.47180     -7.2 1.254e+04 4.636e-09
 37.49541     -6.5 1.241e+04 4.716e-09
 37.52012     -5.0 1.229e+04 4.228e-09
 37.54005     -4.7 1.224e+04 4.084e-09
 37.57524     -3.2 1.205e+04 2.743e-09
 37.61510     -1.6 1.187e+04 2.341e-09
 37.65497      0.2 1.186e+04 2.520e-09
 37.69484      2.3 1.179e+04 2.856e-09
 37.71772      4.4 1.190e+04 3.608e-09
 37.72875      5.6 1.188e+04 3.479e-09
 37.74573      6.3 1.174e+04 2.227e-09
 37.77457      8.4 1.174e+04 2.614e-09
 37.81444     10.3 1.192e+04 3.605e-09
 37.83850     10.6 1.221e+04 5.083e-09
 37.84837     11.2 1.199e+04 3.916e-09
 37.86408     11.4 1.211e+04 5.139e-09
 37.88401     11.5 1.223e+04 7.515e-09
 37.90394     11.8 1.232e+04 1.090e-08
 37.92388     12.3 1.239e+04 1.320e-08
 37.94124     12.9 1.231e+04 1.265e-08
 37.95121     13.7 1.222e+04 1.157e-08
 37.96325     14.4 1.208e+04 1.036e-08
 37.97322     14.8 1.231e+04 1.256e-08
 37.98368     15.4 1.206e+04 9.828e-09
 38.00361     15.9 1.172e+04 6.568e-09
 38.02354     15.9 1.157e+04 4.211e-09
 38.04348     16.1 1.124e+04 2.748e-09
 38.05405     16.0 1.110e+04 2.532e-09
 38.06401     17.1 1.119e+04 2.878e-09
 38.09341     17.9 1.066e+04 2.071e-09
 38.13337     19.7 1.049e+04 1.852e-09
 38.15708     21.7 1.048e+04 1.812e-09
 38.17701     23.3 1.051e+04 1.809e-09
 38.20917     25.2 1.054e+04 1.840e-09
 38.22911     25.4 1.067e+04 2.163e-09
 38.25297     27.4 1.069e+04 2.424e-09
 38.29284     29.1 1.085e+04 2.964e-09
 38.33271     30.4 1.100e+04 3.481e-09
 38.36251     31.1 1.102e+04 3.695e-09
 38.37253     31.3 1.091e+04 3.833e-09
 38.38249     32.1 1.092e+04 4.170e-09
 38.40228     32.1 1.077e+04 4.220e-09
 38.42221     32.0 1.063e+04 4.288e-09
 38.44214     31.6 1.052e+04 4.492e-09
 38.46208     31.1 1.042e+04 4.951e-09
 38.47464     30.5 1.040e+04 5.500e-09
 38.47796     31.0 1.030e+04 5.669e-09
 38.48533     31.6 1.034e+04 5.516e-09
 38.50194     30.9 1.035e+04 6.264e-09
 38.52188     29.9 1.043e+04 7.180e-09
 38.54181     28.8 1.058e+04 8.426e-09
 38.56174     27.7 1.071e+04 1.007e-08
 38.57820     26.7 1.079e+04 1.162e-08
 38.58817     27.1 1.099e+04 1.183e-08
 38.60161     26.0 1.109e+04 1.321e-08
 38.62154     24.5 1.125e+04 1.457e-08
 38.64148     22.5 1.157e+04 1.671e-08
 38.66141     19.5 1.224e+04 2.128e-08
 38.68104     16.0 1.326e+04 3.150e-08
 38.69100     16.2 1.354e+04 3.420e-08
 38.70128     12.6 1.373e+04 3.706e-08
 38.72036     12.0 1.308e+04 3.045e-08
 38.73033     12.0 1.302e+04 3.152e-08
 38.74115     11.7 1.191e+04 1.650e-08
 38.76108      8.7 1.135e+04 7.168e-09
 38.78101      3.9 1.055e+04 4.311e-09
 38.79384      0.5 1.062e+04 4.510e-09
 38.80381      0.8 1.071e+04 4.467e-09
 38.82088     -2.3 1.147e+04 6.004e-09
 38.84081     -4.0 1.177e+04 1.067e-08
 38.86075     -4.9 1.178e+04 1.410e-08
 38.88068     -5.9 1.177e+04 1.181e-08
 38.89668     -8.0 1.161e+04 8.356e-09
 38.90665     -8.1 1.172e+04 9.306e-09
 38.92055    -11.3 1.129e+04 6.096e-09
 38.94048    -14.0 1.056e+04 5.431e-09
 38.96041    -15.4 1.029e+04 4.913e-09
 38.97606    -16.0 1.006e+04 5.021e-09
 38.98602    -16.8 1.013e+04 5.562e-09
 38.99952    -16.9 9.926e+03 4.298e-09
 39.01955    -16.8 9.645e+03 3.360e-09
 39.05031    -17.0 9.319e+03 2.364e-09
 39.09017    -16.8 9.157e+03 1.534e-09
 39.13004    -16.7 8.977e+03 1.004e-09
 39.16991    -16.4 8.787e+03 7.853e-10
 39.20539    -15.8 8.738e+03 7.224e-10
 39.22532    -15.9 8.722e+03 7.227e-10
 39.23195    -15.5 8.726e+03 8.492e-10
 39.25188    -16.5 8.837e+03 9.428e-10
 39.28951    -15.4 8.893e+03 1.241e-09
 39.32938    -14.4 9.095e+03 1.447e-09
 39.36924    -14.4 9.423e+03 1.674e-09
 39.40911    -15.2 9.781e+03 2.668e-09
 39.43100    -15.9 1.030e+04 4.491e-09
 39.45093    -16.3 9.944e+03 4.366e-09
 39.48884    -16.4 1.002e+04 4.241e-09
 39.52871    -16.9 1.015e+04 2.676e-09
 39.56858    -16.8 1.016e+04 2.434e-09
 39.60844    -16.3 1.011e+04 1.916e-09
 39.63667    -16.1 1.037e+04 1.547e-09
 39.65661    -15.6 1.001e+04 1.260e-09
 39.68818    -15.9 1.024e+04 1.636e-09
 39.72340    -14.9 1.035e+04 2.639e-09
 39.74333    -14.5 1.019e+04 2.124e-09
 39.76791    -13.6 1.052e+04 2.275e-09
 39.80778    -13.2 1.065e+04 2.226e-09
 39.84235    -12.6 1.049e+04 2.182e-09
 39.86228    -12.3 1.035e+04 2.036e-09
 39.88751    -11.3 1.026e+04 1.955e-09
 39.92738    -10.1 1.025e+04 1.739e-09
 39.96724     -9.1 1.031e+04 1.545e-09
 40.00711     -8.3 1.024e+04 1.822e-09
 40.04698     -7.1 1.043e+04 2.317e-09
 40.06796     -6.6 1.091e+04 3.151e-09
 40.08789     -6.8 1.089e+04 3.411e-09
 40.12671     -7.2 1.129e+04 5.532e-09
 40.16658     -7.7 1.144e+04 7.155e-09
 40.20644     -7.8 1.139e+04 5.691e-09
 40.23478     -7.7 1.134e+04 3.781e-09
 40.24465     -7.5 1.135e+04 4.220e-09
 40.25608     -7.5 1.134e+04 4.211e-09
 40.27353     -7.1 1.145e+04 3.642e-09
 40.29356     -8.8 1.143e+04 3.958e-09
 40.32604     -9.2 1.161e+04 3.839e-09
 40.36591     -9.8 1.178e+04 4.285e-09
 40.40578     -9.9 1.193e+04 5.000e-09
 40.44564    -10.0 1.203e+04 4.895e-09
 40.47931     -9.9 1.207e+04 3.681e-09
 40.49924    -11.8 1.196e+04 2.660e-09
 40.52538    -11.1 1.224e+04 2.211e-09
 40.56524    -10.2 1.227e+04 2.098e-09
 40.60511     -9.7 1.250e+04 2.415e-09
 40.64498     -8.7 1.271e+04 3.771e-09
 40.68484     -7.8 1.292e+04 5.889e-09
 40.71465     -6.7 1.301e+04 4.954e-09
 40.73448     -6.0 1.313e+04 5.162e-09
 40.74597     -5.2 1.324e+04 4.961e-09
 40.75594     -4.4 1.318e+04 5.160e-09
 40.77435     -3.5 1.337e+04 4.711e-09
 40.79428     -2.8 1.353e+04 4.178e-09
 40.80756     -2.3 1.360e+04 3.679e-09
 40.81752     -2.6 1.344e+04 3.391e-09
 40.83415     -2.0 1.342e+04 3.451e-09
 40.85408     -1.5 1.336e+04 3.818e-09
 40.87402     -0.9 1.325e+04 4.444e-09
 40.89395     -0.5 1.318e+04 5.569e-09
 40.91039     -0.1 1.306e+04 7.459e-09
 40.92036     -0.1 1.308e+04 6.907e-09
 40.93382      0.6 1.303e+04 8.295e-09
 40.95375      1.1 1.299e+04 8.822e-09
 40.97368      1.8 1.287e+04 8.547e-09
 40.99170      2.6 1.262e+04 7.541e-09
 41.00167      2.9 1.293e+04 9.387e-09
 41.01323      3.7 1.271e+04 8.044e-09
 41.02320      3.6 1.270e+04 7.506e-09
 41.03348      4.5 1.255e+04 6.421e-09
 41.05342      5.4 1.246e+04 5.207e-09
 41.07335      6.2 1.241e+04 4.218e-09
 41.09328      6.8 1.238e+04 3.791e-09
 41.11322      7.6 1.230e+04 3.770e-09
 41.12604      8.5 1.225e+04 3.843e-09
 41.13600      8.4 1.234e+04 4.129e-09
 41.15308      9.2 1.230e+04 4.352e-09
 41.17302      9.9 1.227e+04 4.660e-09
 41.19295     10.4 1.227e+04 5.073e-09
 41.21288     10.8 1.232e+04 5.660e-09
 41.22887     11.1 1.235e+04 6.445e-09
 41.23884     10.6 1.248e+04 6.856e-09
 41.24739     10.9 1.252e+04 7.380e-09
 41.25736     11.2 1.277e+04 7.983e-09
 41.27268     11.6 1.278e+04 8.231e-09
 41.29262     12.1 1.277e+04 7.639e-09
 41.31255     12.4 1.283e+04 6.743e-09
 41.33171     12.5 1.285e+04 6.124e-09
 41.34168     11.8 1.285e+04 4.972e-09
 41.35242     12.0 1.265e+04 4.880e-09
 41.37235     12.5 1.271e+04 5.155e-09
 41.39228     13.1 1.286e+04 6.371e-09
 41.41222     13.6 1.300e+04 8.709e-09
 41.43215     14.3 1.334e+04 1.328e-08
 41.44452     14.9 1.410e+04 2.314e-08
 41.45448     14.3 1.414e+04 2.249e-08
 41.47202     13.9 1.523e+04 4.312e-08
 41.49195     13.1 1.659e+04 8.919e-08
 41.50309     12.1 1.753e+04 1.631e-07
 41.51305     10.7 1.748e+04 1.504e-07
 41.53182      9.3 1.783e+04 1.809e-07
 41.54735      7.8 1.765e+04 1.562e-07
 41.55732      7.8 1.705e+04 9.220e-08
 41.57169      7.0 1.655e+04 4.939e-08
 41.59162      5.8 1.606e+04 2.481e-08
 41.61155      4.7 1.568e+04 1.381e-08
 41.63149      4.0 1.547e+04 8.799e-09
 41.65019      3.7 1.537e+04 6.063e-09
 41.66016      3.4 1.527e+04 4.964e-09
 41.67135      2.7 1.507e+04 3.915e-09
 41.69129      2.2 1.478e+04 3.061e-09
 41.71122      1.2 1.455e+04 2.623e-09
 41.73115     -0.7 1.427e+04 2.500e-09
 41.74881     -2.8 1.434e+04 2.765e-09
 41.75878     -2.4 1.378e+04 2.443e-09
 41.76299     -3.4 1.376e+04 3.068e-09
 41.77296     -2.9 1.377e+04 3.380e-09
 41.79095     -3.8 1.386e+04 4.703e-09
 41.81089     -4.9 1.399e+04 6.916e-09
 41.83082     -5.9 1.391e+04 9.997e-09
 41.85075     -7.1 1.398e+04 1.193e-08
 41.86583     -8.7 1.389e+04 1.215e-08
 41.87580     -8.0 1.385e+04 1.326e-08
 41.89062     -9.3 1.371e+04 1.215e-08
 41.91055    -10.5 1.343e+04 1.040e-08
 41.93049    -11.3 1.302e+04 8.455e-09
 41.95042    -11.7 1.286e+04 6.764e-09
 41.96867    -12.5 1.282e+04 5.817e-09
 41.97864    -11.4 1.276e+04 5.669e-09
 41.99029    -11.9 1.264e+04 5.671e-09
 42.00451    -12.5 1.280e+04 5.880e-09
 42.01447    -11.6 1.280e+04 5.889e-09
 42.03015    -12.0 1.243e+04 7.528e-09
 42.05009    -11.5 1.214e+04 8.598e-09
 42.07002    -10.8 1.221e+04 7.901e-09
 42.08147    -10.6 1.200e+04 7.041e-09
 42.09144     -9.5 1.201e+04 6.877e-09
 42.10989     -9.2 1.211e+04 5.944e-09
 42.12982     -9.3 1.204e+04 5.695e-09
 42.14975     -9.2 1.211e+04 5.181e-09
 42.16969     -9.2 1.224e+04 5.210e-09
 42.18431     -9.6 1.223e+04 6.501e-09
 42.19428     -8.8 1.236e+04 7.444e-09
 42.20955     -8.9 1.258e+04 8.859e-09
 42.22949     -9.0 1.282e+04 1.290e-08
 42.24942     -9.1 1.311e+04 1.633e-08
 42.26020     -9.1 1.321e+04 1.990e-08
 42.28023     -9.9 1.304e+04 1.830e-08
 42.31938     -9.5 1.257e+04 1.395e-08
 42.35925     -9.4 1.186e+04 8.234e-09
 42.39018     -8.7 1.117e+04 5.263e-09
 42.41012     -8.2 1.149e+04 6.068e-09
 42.43898     -7.0 1.096e+04 4.944e-09
 42.47885     -4.8 1.065e+04 4.057e-09
 42.51872     -2.5 1.053e+04 3.498e-09
 42.55858     -0.2 1.053e+04 3.445e-09
 42.58839      1.9 1.056e+04 3.942e-09
 42.60563      2.0 1.061e+04 4.028e-09
 42.61569      1.8 1.067e+04 4.270e-09
 42.63832      4.1 1.060e+04 4.727e-09
 42.67818      6.6 1.046e+04 4.974e-09
 42.71805      9.2 1.029e+04 4.879e-09
 42.75185     11.5 1.014e+04 4.475e-09
 42.77178     11.9 1.018e+04 4.484e-09
 42.78772     13.2 9.982e+03 4.191e-09
 42.80755     14.1 1.000e+04 4.256e-09
 42.82127     14.7 1.010e+04 4.599e-09
 42.83124     14.8 1.017e+04 4.546e-09
 42.84742     15.4 1.026e+04 5.182e-09
 42.86735     16.1 1.051e+04 6.455e-09
 42.88729     16.6 1.083e+04 8.492e-09
 42.90722     17.3 1.111e+04 1.050e-08
 42.92411     17.9 1.136e+04 1.214e-08
 42.93408     18.1 1.119e+04 1.063e-08
 42.94709     18.5 1.128e+04 1.099e-08
 42.96702     18.8 1.126e+04 1.088e-08
 42.98695     19.2 1.113e+04 1.050e-08
 43.00689     19.7 1.092e+04 9.675e-09
 43.01731     20.2 1.070e+04 8.495e-09
 43.02728     20.5 1.041e+04 6.662e-09
 43.03691     21.0 1.025e+04 5.984e-09
 43.04688     21.2 1.016e+04 5.249e-09
 43.06669     21.7 1.001e+04 4.725e-09
 43.08662     22.3 9.892e+03 4.291e-09
 43.10656     23.1 9.760e+03 3.768e-09
 43.12649     23.6 9.728e+03 3.544e-09
 43.15649     24.7 9.639e+03 3.196e-09
 43.19645     26.3 9.460e+03 2.908e-09
 43.23282     28.3 9.287e+03 2.575e-09
 43.25275     29.4 9.181e+03 2.270e-09
 43.26323     31.6 9.025e+03 2.049e-09
 43.28316     32.4 9.238e+03 2.257e-09
 43.31605     34.6 9.177e+03 2.160e-09
 43.35592     36.9 9.126e+03 2.135e-09
 43.39578     39.2 9.134e+03 2.152e-09
 43.43565     41.5 9.197e+03 2.234e-09
 43.45842     43.5 9.337e+03 2.467e-09
 43.47836     44.8 9.405e+03 2.416e-09
 43.51538     46.4 9.529e+03 2.733e-09
 43.54519     47.6 9.571e+03 3.281e-09
 43.56107     48.8 9.831e+03 4.133e-09
 43.57103     49.3 9.835e+03 4.021e-09
 43.58496     50.3 1.016e+04 5.124e-09
 43.60489     51.0 1.048e+04 6.452e-09
 43.62482     51.6 1.079e+04 8.085e-09
 43.64476     52.1 1.107e+04 1.008e-08
 43.66390     52.6 1.132e+04 1.195e-08
 43.67387     53.2 1.135e+04 1.187e-08
 43.68462     53.6 1.165e+04 1.414e-08
 43.70456     54.1 1.190e+04 1.603e-08
 43.72449     54.6 1.206e+04 1.705e-08
 43.74442     55.0 1.216e+04 1.675e-08
 43.76436     55.3 1.225e+04 1.616e-08
 43.77442     55.6 1.235e+04 1.615e-08
 43.77681     54.3 1.363e+04 3.085e-08
 43.78668     55.2 1.356e+04 3.097e-08
 43.80422     55.4 1.368e+04 3.251e-08
 43.82416     55.7 1.378e+04 3.436e-08
 43.84409     56.3 1.390e+04 3.603e-08
 43.86402     56.9 1.409e+04 3.760e-08
 43.87955     57.6 1.429e+04 3.886e-08
 43.88951     57.8 1.407e+04 3.271e-08
 43.90389     58.4 1.424e+04 3.325e-08
 43.92382     58.9 1.432e+04 3.491e-08
 43.94376     59.2 1.443e+04 3.704e-08
 43.96369     59.5 1.473e+04 3.957e-08
 43.98238     59.4 1.520e+04 4.420e-08
 43.99235     59.4 1.419e+04 2.723e-08
 44.00356     59.1 1.445e+04 2.864e-08
 44.02015     58.3 1.500e+04 3.333e-08
 44.03011     55.2 1.495e+04 2.603e-08
 44.04342     53.0 1.573e+04 3.363e-08
 44.06336     49.6 1.672e+04 4.958e-08
 44.08329     45.4 1.740e+04 6.998e-08
 44.09519     40.5 1.774e+04 8.073e-08
 44.10516     41.6 1.764e+04 9.058e-08
 44.12316     35.5 1.826e+04 1.208e-07
 44.14309     28.9 1.834e+04 1.401e-07
 44.15799     25.0 1.862e+04 1.724e-07
 44.16791     22.2 1.861e+04 2.192e-07
 44.17788     19.7 1.856e+04 2.922e-07
 44.18784     17.6 1.863e+04 3.113e-07
 44.19781     15.4 1.872e+04 2.868e-07
 44.20291     13.3 1.876e+04 2.240e-07
 44.20790     12.2 1.767e+04 1.032e-07
 44.21774     10.0 1.704e+04 7.871e-08
 44.22771      8.6 1.650e+04 6.938e-08
 44.24271      6.8 1.581e+04 4.564e-08
 44.26269      4.7 1.452e+04 2.461e-08
 44.27584      1.8 1.348e+04 1.817e-08
 44.28581      2.5 1.378e+04 2.026e-08
 44.30086      1.9 1.310e+04 1.866e-08
 44.31083      2.0 1.255e+04 1.444e-08
 44.32249      2.1 1.248e+04 1.508e-08
 44.34242      2.5 1.246e+04 1.543e-08
 44.36236      2.8 1.245e+04 1.511e-08
 44.38229      3.1 1.228e+04 1.427e-08
 44.40222      3.7 1.198e+04 1.295e-08
 44.41367      4.2 1.182e+04 1.173e-08
 44.42363      3.3 1.130e+04 8.833e-09
 44.44209      3.0 1.119e+04 7.540e-09
 44.46203      2.2 1.099e+04 6.889e-09
 44.48196      0.8 1.085e+04 6.826e-09
 44.50189     -1.5 1.103e+04 7.836e-09
 44.51651     -3.5 1.139e+04 1.005e-08
 44.52621     -3.6 1.049e+04 7.253e-09
 44.53153     -2.5 1.100e+04 8.918e-09
 44.54176     -3.8 1.108e+04 1.102e-08
 44.56169     -4.5 1.078e+04 1.060e-08
 44.58163     -5.5 1.041e+04 7.369e-09
 44.60156     -7.6 1.058e+04 7.321e-09
 44.61934     -9.4 1.079e+04 8.415e-09
 44.62931     -8.3 1.041e+04 7.189e-09
 44.64143     -9.7 1.090e+04 9.190e-09
 44.66136    -10.0 1.097e+04 1.357e-08
 44.68129     -9.6 1.137e+04 1.613e-08
 44.70123     -9.7 1.172e+04 1.710e-08
 44.72116    -10.6 1.214e+04 1.761e-08
 44.73215    -12.1 1.279e+04 1.908e-08
 44.74211    -14.5 1.443e+04 3.078e-08
 44.76103    -16.3 1.469e+04 3.684e-08
 44.77726    -18.0 1.459e+04 3.971e-08
 44.78723    -15.3 1.443e+04 3.309e-08
 44.80089    -17.1 1.439e+04 3.700e-08
 44.82083    -18.9 1.425e+04 3.819e-08
 44.83498    -20.6 1.402e+04 3.767e-08
 44.84495    -22.1 1.333e+04 2.841e-08
 44.86069    -23.8 1.254e+04 1.974e-08
 44.88063    -25.7 1.143e+04 1.262e-08
 44.90056    -26.3 1.108e+04 9.074e-09
 44.92049    -27.5 1.064e+04 6.093e-09
 44.93782    -29.1 1.028e+04 4.588e-09
 44.94779    -28.8 1.034e+04 4.592e-09
 44.96036    -29.8 1.024e+04 4.280e-09
 44.98029    -30.6 1.037e+04 4.362e-09
 45.00023    -31.6 1.059e+04 5.527e-09
 45.02016    -32.2 1.080e+04 7.574e-09
 45.03295    -32.4 1.116e+04 1.019e-08
 45.04292    -32.1 1.130e+04 1.147e-08
 45.05063    -32.2 1.170e+04 1.440e-08
 45.06059    -31.3 1.104e+04 1.027e-08
 45.07996    -31.6 1.109e+04 1.007e-08
 45.09989    -32.2 1.113e+04 9.414e-09
 45.11983    -33.0 1.113e+04 8.763e-09
 45.13976    -33.7 1.106e+04 8.213e-09
 45.15346    -34.0 1.097e+04 7.741e-09
 45.16343    -33.5 1.042e+04 5.499e-09
 45.17963    -33.5 1.033e+04 5.230e-09
 45.19956    -33.3 1.023e+04 4.676e-09
 45.21949    -33.1 1.013e+04 4.087e-09
 45.23943    -33.0 1.005e+04 3.672e-09
 45.25630    -32.8 9.965e+03 3.416e-09
 45.26627    -32.3 9.750e+03 2.649e-09
 45.27868    -32.2 9.724e+03 2.579e-09
 45.28865    -32.1 9.731e+03 2.686e-09
 45.29923    -31.9 9.667e+03 2.467e-09
 45.31916    -31.7 9.645e+03 2.403e-09
 45.33909    -31.4 9.603e+03 2.264e-09
 45.35903    -31.3 9.585e+03 2.228e-09
 45.36911    -30.9 9.562e+03 2.174e-09
 45.38914    -30.7 9.439e+03 1.867e-09
 45.42899    -29.8 9.452e+03 1.848e-09
 45.46886    -28.7 9.450e+03 1.731e-09
 45.50872    -27.5 9.462e+03 1.626e-09
 45.53447    -26.2 9.571e+03 1.565e-09
 45.54434    -26.2 9.573e+03 1.619e-09
 45.55836    -26.2 9.612e+03 1.701e-09
 45.57478    -25.4 9.857e+03 2.229e-09
 45.59481    -24.5 9.715e+03 1.895e-09
 45.61826    -23.9 1.008e+04 3.225e-09
 45.63809    -23.8 1.029e+04 4.353e-09
 45.65803    -22.6 1.078e+04 6.232e-09
 45.67762    -22.9 1.091e+04 6.709e-09
 45.68759    -22.4 1.071e+04 5.534e-09
 45.70796    -22.3 1.161e+04 9.951e-09
 45.73786    -22.4 1.238e+04 1.507e-08
 45.75769    -22.6 1.261e+04 1.696e-08
 45.77763    -22.6 1.278e+04 1.795e-08
 45.79006    -22.7 1.256e+04 1.577e-08
 45.79289    -23.1 1.243e+04 1.401e-08
 45.80049    -22.0 1.257e+04 1.516e-08
 45.82766    -22.3 1.214e+04 1.064e-08
 45.86752    -22.6 1.163e+04 7.502e-09
 45.89336    -22.3 1.136e+04 6.677e-09
 45.90323    -21.2 1.147e+04 7.029e-09
 45.91716    -20.7 1.136e+04 6.678e-09
 45.93710    -20.1 1.123e+04 6.353e-09
 45.95703    -19.7 1.123e+04 6.788e-09
 45.97696    -19.5 1.137e+04 7.486e-09
 45.99610    -20.8 1.224e+04 1.025e-08
 46.00607    -19.7 1.202e+04 9.967e-09
 46.01683    -22.5 1.365e+04 1.927e-08
 46.03579    -26.4 1.595e+04 4.898e-08
 46.04576    -28.0 1.563e+04 5.980e-08
 46.05670    -30.0 1.697e+04 1.014e-07
 46.07663    -33.2 1.796e+04 1.282e-07
 46.09153    -37.3 1.870e+04 1.603e-07
 46.10145    -39.0 1.874e+04 1.492e-07
 46.10885    -42.8 1.799e+04 6.595e-08
 46.11384    -42.5 1.864e+04 2.900e-07
 46.12138    -44.4 1.836e+04 1.905e-07
 46.13638    -46.5 1.788e+04 1.327e-07
 46.15636    -47.9 1.698e+04 8.543e-08
 46.17630    -48.5 1.629e+04 6.182e-08
 46.19623    -48.7 1.597e+04 5.539e-08
 46.21174    -48.7 1.579e+04 5.169e-08
 46.22171    -49.2 1.673e+04 8.984e-08
 46.23610    -49.3 1.681e+04 9.711e-08
 46.25603    -49.3 1.668e+04 8.881e-08
 46.27596    -49.2 1.622e+04 5.905e-08
 46.29148    -49.4 1.510e+04 2.591e-08
 46.30145    -48.7 1.502e+04 2.904e-08
 46.31458    -49.4 1.332e+04 1.106e-08
 46.32454    -48.7 1.483e+04 2.160e-08
 46.33576    -49.9 1.335e+04 7.757e-09
 46.35570    -50.2 1.230e+04 5.597e-09
 46.38569    -49.2 1.200e+04 4.441e-09
 46.41761    -47.3 1.178e+04 3.451e-09
 46.43754    -47.8 1.283e+04 4.431e-09
 46.46553    -46.1 1.269e+04 4.084e-09
 46.50539    -44.5 1.267e+04 3.720e-09
 46.54526    -42.9 1.253e+04 3.234e-09
 46.58513    -41.4 1.242e+04 3.073e-09
 46.62329    -39.6 1.234e+04 3.132e-09
 46.64322    -40.3 1.275e+04 6.765e-09
 46.66486    -38.4 1.263e+04 5.702e-09
 46.69466    -36.6 1.269e+04 4.906e-09
 46.71450    -35.9 1.266e+04 4.729e-09
 46.73443    -34.7 1.276e+04 4.550e-09
 46.74586    -34.1 1.275e+04 4.509e-09
 46.75583    -34.6 1.281e+04 4.517e-09
 46.77430    -33.1 1.296e+04 4.467e-09
 46.79290    -32.9 1.290e+04 4.419e-09
 46.80287    -32.6 1.283e+04 4.039e-09
 46.82423    -30.6 1.291e+04 3.925e-09
 46.84889    -28.7 1.289e+04 3.647e-09
 46.86883    -28.8 1.271e+04 2.940e-09
 46.90406    -26.9 1.259e+04 2.910e-09
 46.94393    -24.9 1.250e+04 2.973e-09
 46.98379    -23.1 1.233e+04 3.215e-09
 47.01360    -21.4 1.219e+04 3.359e-09
 47.03343    -21.2 1.209e+04 3.378e-09
 47.04860    -19.5 1.196e+04 3.692e-09
 47.05856    -19.3 1.195e+04 3.638e-09
 47.06434    -19.0 1.186e+04 3.647e-09
 47.07441    -19.0 1.182e+04 3.312e-09
 47.10339    -16.9 1.162e+04 3.669e-09
 47.14326    -14.6 1.140e+04 3.635e-09
 47.18313    -12.5 1.128e+04 3.411e-09
 47.22299    -11.0 1.116e+04 3.601e-09
 47.26024     -9.4 1.104e+04 4.877e-09
 47.28018     -8.9 1.124e+04 6.635e-09
 47.29452     -7.5 1.118e+04 7.329e-09
 47.31445     -7.7 1.143e+04 8.089e-09
 47.34259     -6.8 1.117e+04 7.710e-09
 47.38246     -5.9 1.070e+04 7.502e-09
 47.42233     -4.2 1.031e+04 6.715e-09
 47.46219     -2.3 9.894e+03 4.614e-09
 47.48585     -0.8 9.478e+03 3.062e-09
 47.50579     -0.6 9.590e+03 3.680e-09
 47.54193      0.8 9.211e+03 2.962e-09
 47.58179      2.2 8.894e+03 2.220e-09
 47.62166      3.5 8.616e+03 1.708e-09
 47.66153      4.5 8.458e+03 1.470e-09
 47.69153      5.4 8.324e+03 1.502e-09
 47.71146      5.0 8.435e+03 2.016e-09
 47.74126      5.3 8.533e+03 2.648e-09
 47.78113      5.9 8.643e+03 3.441e-09
 47.80590      6.4 8.596e+03 3.785e-09
 47.82584      6.0 8.584e+03 3.650e-09
 47.86086      6.3 8.521e+03 3.938e-09
 47.89720      6.7 8.493e+03 3.979e-09
 47.91714      6.1 8.288e+03 3.951e-09
 47.94060      7.0 8.029e+03 3.382e-09
 47.98046      7.6 7.765e+03 2.726e-09
 48.02033      8.0 7.594e+03 2.371e-09
 48.06020      8.5 7.664e+03 2.485e-09
 48.10006      8.3 8.002e+03 3.115e-09
 48.12281      7.6 8.637e+03 4.700e-09
 48.14275      7.2 8.847e+03 5.490e-09
 48.17980      3.9 1.051e+04 1.089e-08
 48.20960     -1.9 1.268e+04 2.111e-08
 48.22545     -5.5 1.357e+04 4.128e-08
 48.23542     -5.0 1.320e+04 3.783e-08
 48.24937     -7.9 1.354e+04 3.775e-08
 48.26930    -12.5 1.353e+04 2.360e-08
 48.28923    -18.4 1.191e+04 1.604e-08
 48.30713    -21.1 1.135e+04 1.212e-08
 48.31709    -21.1 1.149e+04 1.355e-08
 48.32829    -23.5 1.116e+04 9.847e-09
 48.33826    -23.3 1.112e+04 1.028e-08
 48.34903    -25.0 1.076e+04 8.544e-09
 48.37903    -25.6 1.058e+04 7.611e-09
 48.41900    -26.2 1.053e+04 5.035e-09
 48.45886    -26.0 1.051e+04 3.320e-09
 48.49873    -25.0 1.049e+04 1.984e-09
 48.53416    -23.6 1.068e+04 1.419e-09
 48.55410    -23.5 1.054e+04 1.568e-09
 48.57846    -21.5 1.066e+04 1.351e-09
 48.61833    -19.4 1.103e+04 1.347e-09
 48.65820    -18.3 1.138e+04 2.154e-09
 48.69806    -16.9 1.192e+04 5.083e-09
 48.73793    -15.0 1.294e+04 1.230e-08
 48.75967    -14.1 1.364e+04 2.079e-08
 48.76954    -14.0 1.362e+04 2.089e-08
 48.78757    -13.2 1.396e+04 2.271e-08
 48.80750    -12.9 1.426e+04 2.029e-08
 48.81851    -14.0 1.509e+04 1.690e-08
 48.82848    -18.5 1.683e+04 2.983e-08
 48.84737    -22.1 1.774e+04 6.978e-08
 48.86227    -23.3 1.861e+04 1.206e-07
 48.86730    -24.0 1.862e+04 1.859e-07
 48.87228    -24.3 2.088e+04 1.718e-07
 48.88215    -26.2 2.122e+04 3.584e-07
 48.89212    -29.5 1.977e+04 8.842e-07
 48.90209    -32.0 1.826e+04 2.086e-06
 48.91205    -35.1 1.804e+04 2.752e-06
 48.91872    -38.3 1.845e+04 1.689e-06
 48.92370    -42.5 1.923e+04 1.028e-06
 48.93199    -43.0 2.113e+04 2.502e-07
 48.94699    -45.7 2.359e+04 3.076e-08
 48.96525    -50.6 1.868e+04 1.290e-08
 48.97522    -56.6 1.479e+04 1.115e-08
 48.98690    -56.5 1.386e+04 1.058e-08
 49.00684    -55.7 1.378e+04 1.161e-08
 49.02677    -55.0 1.401e+04 1.370e-08
 49.04670    -55.3 1.460e+04 1.919e-08
 49.06424    -56.6 1.552e+04 3.394e-08
 49.07421    -54.6 1.476e+04 2.012e-08
 49.07805    -56.5 1.556e+04 3.536e-08
 49.08802    -58.3 1.584e+04 5.123e-08
 49.10650    -60.2 1.631e+04 7.055e-08
 49.12644    -62.3 1.645e+04 7.810e-08
 49.14637    -64.6 1.616e+04 5.550e-08
 49.16630    -67.2 1.559e+04 2.765e-08
 49.18089    -69.8 1.507e+04 1.656e-08
 49.19086    -70.3 1.486e+04 1.168e-08
 49.20617    -71.1 1.475e+04 1.056e-08
 49.22610    -71.4 1.475e+04 1.028e-08
 49.24604    -71.7 1.471e+04 9.972e-09
 49.26597    -71.7 1.454e+04 9.199e-09
 49.28373    -71.7 1.430e+04 8.117e-09
 49.29370    -71.0 1.414e+04 6.018e-09
 49.30584    -71.0 1.394e+04 5.688e-09
 49.31993    -71.1 1.387e+04 5.673e-09
 49.32990    -71.0 1.379e+04 6.296e-09
 49.34570    -71.0 1.363e+04 6.968e-09
 49.36564    -70.9 1.354e+04 8.680e-09
 49.38557    -70.6 1.346e+04 1.016e-08
 49.39653    -70.3 1.342e+04 1.054e-08
 49.40650    -69.3 1.332e+04 9.049e-09
 49.42544    -69.0 1.315e+04 8.875e-09
 49.44537    -68.3 1.285e+04 6.716e-09
 49.46530    -67.7 1.272e+04 4.366e-09
 49.49530    -67.1 1.264e+04 2.769e-09
 49.53527    -65.9 1.225e+04 1.986e-09
 49.57513    -63.7 1.194e+04 1.443e-09
 49.60240    -61.4 1.181e+04 1.203e-09
 49.62234    -60.3 1.191e+04 1.100e-09
 49.65487    -58.1 1.183e+04 1.061e-09
 49.69473    -55.9 1.178e+04 1.040e-09
 49.73460    -53.8 1.172e+04 9.961e-10
 49.77447    -51.7 1.167e+04 9.091e-10
 49.80808    -49.7 1.161e+04 8.208e-10
 49.82526    -48.7 1.168e+04 9.471e-10
 49.83151    -49.1 1.156e+04 1.074e-09
 49.85420    -47.3 1.144e+04 1.019e-09
 49.89407    -45.5 1.133e+04 9.996e-10
 49.93393    -43.7 1.115e+04 1.044e-09
 49.97380    -41.9 1.105e+04 1.110e-09
 50.01367    -40.2 1.095e+04 1.180e-09
 50.05353    -37.5 1.091e+04 1.125e-09
 50.09340    -36.2 1.086e+04 1.285e-09
 50.13327    -35.0 1.085e+04 1.608e-09
 50.17313    -33.7 1.095e+04 1.992e-09
 50.21300    -32.3 1.111e+04 2.213e-09
 50.23936    -31.3 1.124e+04 2.400e-09
 50.25930    -30.2 1.129e+04 2.068e-09
 50.29273    -29.3 1.157e+04 2.386e-09
 50.32254    -29.6 1.172e+04 3.709e-09
 50.33274    -29.9 1.161e+04 4.983e-09
 50.34234    -30.3 1.167e+04 5.815e-09
 50.35197    -29.7 1.167e+04 5.093e-09
 50.36231    -29.0 1.197e+04 6.920e-09
 50.38224    -29.3 1.199e+04 8.183e-09
 50.40217    -29.1 1.215e+04 9.714e-09
 50.42211    -29.5 1.218e+04 9.997e-09
 50.44204    -30.0 1.204e+04 9.681e-09
 50.45481    -30.1 1.204e+04 8.962e-09
 50.46478    -29.6 1.222e+04 9.666e-09
 50.48191    -30.0 1.187e+04 8.333e-09
 50.50184    -29.9 1.184e+04 7.287e-09
 50.52177    -30.2 1.155e+04 5.749e-09
 50.54171    -29.9 1.154e+04 4.815e-09
 50.55765    -29.9 1.130e+04 3.719e-09
 50.56761    -29.6 1.146e+04 4.018e-09
 50.57846    -29.1 1.151e+04 3.336e-09
 50.58843    -29.6 1.149e+04 3.147e-09
 50.61157    -29.2 1.141e+04 2.570e-09
 50.65071    -28.1 1.137e+04 2.258e-09
 50.67065    -27.5 1.150e+04 2.062e-09
 50.69140    -26.3 1.158e+04 1.972e-09
 50.73127    -25.2 1.183e+04 2.047e-09
 50.77114    -24.1 1.211e+04 1.979e-09
 50.81100    -23.3 1.232e+04 1.692e-09
 50.83435    -22.9 1.230e+04 1.531e-09
 50.85428    -23.6 1.208e+04 1.464e-09
 50.87632    -22.9 1.221e+04 1.832e-09
 50.89626    -21.7 1.217e+04 1.623e-09
 50.93060    -21.4 1.227e+04 2.440e-09
 50.97047    -21.6 1.249e+04 4.041e-09
 51.01034    -22.0 1.286e+04 6.964e-09
 51.05020    -22.5 1.315e+04 9.524e-09
 51.07998    -22.7 1.313e+04 9.732e-09
 51.09174    -23.4 1.318e+04 8.414e-09
 51.10174    -23.1 1.311e+04 8.336e-09
 51.11977    -23.8 1.296e+04 6.709e-09
 51.13971    -24.2 1.287e+04 5.987e-09
 51.15964    -24.6 1.273e+04 5.700e-09
 51.17957    -24.7 1.272e+04 5.799e-09
 51.19461    -24.9 1.274e+04 6.203e-09
 51.20457    -24.6 1.257e+04 5.962e-09
 51.21944    -24.6 1.256e+04 6.307e-09
 51.23937    -24.6 1.258e+04 6.477e-09
 51.25931    -24.5 1.249e+04 6.319e-09
 51.27924    -23.9 1.247e+04 5.361e-09
 51.29744    -23.7 1.250e+04 4.142e-09
 51.30741    -23.4 1.236e+04 4.166e-09
 51.32571    -23.0 1.218e+04 3.201e-09
 51.34574    -23.3 1.219e+04 3.000e-09
 51.36914    -23.0 1.218e+04 2.385e-09
 51.40900    -22.5 1.233e+04 2.395e-09
 51.44887    -22.4 1.232e+04 3.035e-09
 51.48874    -22.0 1.240e+04 3.545e-09
 51.51328    -21.9 1.245e+04 3.484e-09
 51.53321    -21.0 1.241e+04 3.604e-09
 51.56847    -20.5 1.224e+04 2.465e-09
 51.60834    -19.9 1.216e+04 1.455e-09
 51.64820    -19.0 1.228e+04 8.630e-10
 51.68807    -17.9 1.233e+04 6.445e-10
 51.71896    -16.5 1.243e+04 5.408e-10
 51.73889    -15.5 1.242e+04 5.444e-10
 51.76780    -14.1 1.250e+04 5.203e-10
 51.80767    -12.7 1.257e+04 5.493e-10
 51.83719    -11.4 1.257e+04 6.284e-10
 51.85712    -12.4 1.255e+04 8.422e-10
 51.88740    -10.9 1.253e+04 9.802e-10
 51.92463     -9.2 1.265e+04 1.025e-09
 51.94457     -8.2 1.266e+04 1.118e-09
 51.96714     -6.5 1.275e+04 9.811e-10
 52.00700     -4.8 1.290e+04 8.101e-10
 52.04687     -3.4 1.311e+04 6.474e-10
 52.08674     -1.8 1.306e+04 6.397e-10
 52.12661     -0.1 1.282e+04 6.888e-10
 52.15024      2.0 1.262e+04 6.464e-10
 52.17017      3.0 1.269e+04 6.803e-10
 52.20634      4.9 1.283e+04 4.773e-10
 52.24621      6.3 1.278e+04 4.318e-10
 52.28607      7.3 1.267e+04 5.471e-10
 52.32594      9.2 1.225e+04 9.232e-10
 52.34857     11.2 1.221e+04 1.084e-09
 52.35862     11.1 1.216e+04 1.114e-09
 52.37585     12.0 1.226e+04 9.805e-10
 52.40567     13.8 1.228e+04 9.784e-10
 52.44554     15.3 1.223e+04 9.873e-10
 52.48541     16.8 1.211e+04 1.145e-09
 52.52527     18.6 1.194e+04 1.290e-09
 52.56159     20.6 1.187e+04 1.215e-09
 52.58152     21.2 1.197e+04 1.516e-09
 52.60501     23.4 1.185e+04 1.165e-09
 52.64487     25.6 1.189e+04 7.146e-10
 52.68474     27.3 1.214e+04 4.370e-10
 52.72461     29.1 1.192e+04 3.745e-10
 52.76447     31.3 1.186e+04 3.839e-10
 52.78720     33.6 1.176e+04 4.286e-10
 52.80713     34.1 1.181e+04 5.059e-10
 52.84003     36.5 1.174e+04 5.528e-10
 52.85996     36.5 1.176e+04 4.728e-10
 52.88407     38.9 1.168e+04 5.135e-10
 52.92394     41.3 1.160e+04 5.290e-10
 52.96381     43.7 1.153e+04 5.209e-10
 52.99287     46.0 1.145e+04 4.980e-10
 53.01281     46.5 1.150e+04 5.471e-10
 53.04354     48.9 1.138e+04 5.198e-10
 53.08341     51.3 1.119e+04 5.224e-10
 53.12327     53.9 1.114e+04 5.338e-10
 53.16314     56.3 1.099e+04 5.879e-10
 53.19855     58.7 1.083e+04 7.075e-10
 53.21848     59.2 1.097e+04 7.224e-10
 53.24287     61.6 1.076e+04 9.418e-10
 53.28274     64.2 1.068e+04 1.370e-09
 53.32261     66.5 1.080e+04 2.026e-09
 53.35141     68.4 1.090e+04 2.860e-09
 53.37135     68.3 1.078e+04 2.591e-09
 53.40234     69.9 1.074e+04 3.407e-09
 53.42416     71.2 1.067e+04 4.016e-09
 53.44409     71.6 1.103e+04 5.071e-09
 53.48207     72.7 1.110e+04 6.302e-09
 53.51188     73.0 1.110e+04 6.571e-09
 53.52680     73.2 1.111e+04 6.905e-09
 53.53677     73.3 1.143e+04 8.995e-09
 53.55165     73.7 1.146e+04 9.689e-09
 53.57158     74.0 1.145e+04 9.955e-09
 53.59151     74.2 1.147e+04 1.024e-08
 53.60691     74.2 1.154e+04 1.114e-08
 53.61688     74.7 1.127e+04 9.324e-09
 53.62964     74.6 1.148e+04 1.091e-08
 53.63960     74.8 1.189e+04 1.302e-08
 53.65131     74.1 1.238e+04 1.648e-08
 53.67125     72.8 1.314e+04 2.336e-08
 53.69118     71.1 1.391e+04 3.433e-08
 53.71111     69.2 1.433e+04 4.409e-08
 53.73105     66.9 1.429e+04 4.389e-08
 53.74244     64.6 1.391e+04 3.878e-08
 53.75241     64.2 1.357e+04 3.076e-08
 53.77091     61.2 1.292e+04 2.311e-08
 53.79085     58.1 1.262e+04 2.247e-08
 53.81078     55.6 1.255e+04 2.479e-08
 53.83071     54.0 1.257e+04 2.805e-08
 53.84528     52.9 1.251e+04 2.771e-08
 53.85525     52.6 1.256e+04 2.847e-08
 53.86260     51.9 1.232e+04 2.556e-08
 53.87257     52.4 1.275e+04 3.087e-08
 53.89051     51.4 1.232e+04 2.465e-08
 53.91045     50.0 1.172e+04 1.726e-08
 53.93038     48.2 1.103e+04 1.164e-08
 53.94812     46.6 1.042e+04 8.426e-09
 53.95808     46.0 1.046e+04 8.596e-09
 53.97025     44.9 1.010e+04 7.201e-09
 53.99018     44.0 9.908e+03 6.485e-09
 54.01011     43.5 9.808e+03 6.167e-09
 54.03005     43.0 9.760e+03 6.107e-09
 54.04998     42.7 9.783e+03 5.993e-09
 54.06092     42.6 9.771e+03 5.745e-09
 54.07089     42.5 9.610e+03 4.931e-09
 54.08985     42.2 9.570e+03 4.353e-09
 54.10833     41.6 9.540e+03 3.800e-09
 54.11830     41.2 9.637e+03 3.707e-09
 54.12971     40.4 9.580e+03 3.399e-09
 54.14965     39.6 9.575e+03 3.459e-09
 54.16376     38.8 9.696e+03 3.787e-09
 54.17373     38.7 9.624e+03 3.685e-09
 54.18951     37.5 1.003e+04 4.927e-09
 54.20945     35.8 1.077e+04 8.437e-09
 54.22938     34.1 1.198e+04 1.705e-08
 54.24931     32.8 1.333e+04 3.346e-08
 54.26660     31.9 1.429e+04 5.269e-08
 54.27656     32.7 1.346e+04 3.612e-08
 54.28918     31.7 1.393e+04 4.256e-08
 54.30911     30.6 1.390e+04 4.202e-08
 54.32905     29.7 1.357e+04 3.714e-08
 54.34898     28.9 1.325e+04 3.236e-08
 54.36402     28.3 1.347e+04 3.432e-08
 54.37399     28.1 1.325e+04 3.217e-08
 54.37940     26.6 1.413e+04 4.243e-08
 54.38937     26.5 1.474e+04 5.129e-08
 54.40878     25.3 1.669e+04 1.086e-07
 54.42368     24.2 1.778e+04 1.754e-07
 54.43072     23.3 1.839e+04 2.962e-07
 54.43571     23.5 1.806e+04 2.366e-07
 54.44357     23.5 1.823e+04 3.313e-07
 54.45353     23.4 1.848e+04 4.229e-07
 54.46350     23.3 1.882e+04 4.003e-07
 54.47347     22.1 1.944e+04 3.508e-07
 54.48214     20.2 1.987e+04 2.660e-07
 54.48712     19.5 1.844e+04 6.756e-08
 54.49177     16.2 1.817e+04 5.154e-08
 54.49675     15.5 1.818e+04 5.289e-08
 54.50840     13.3 1.612e+04 3.905e-08
 54.52838     13.4 1.503e+04 3.237e-08
 54.54832     13.2 1.511e+04 3.500e-08
 54.56825     13.0 1.546e+04 4.616e-08
 54.58508     13.3 1.595e+04 6.788e-08
 54.59504     13.2 1.388e+04 2.252e-08
 54.60812     13.3 1.453e+04 3.447e-08
 54.61972     12.8 1.531e+04 5.014e-08
 54.62968     11.7 1.526e+04 5.056e-08
 54.64798     10.0 1.572e+04 6.592e-08
 54.66792      8.5 1.567e+04 8.075e-08
 54.68785      8.2 1.503e+04 6.478e-08
 54.70778      8.0 1.361e+04 3.030e-08
 54.72772      4.5 1.464e+04 1.906e-08
 54.74765     -0.7 1.380e+04 1.825e-08
 54.76758     -2.5 1.224e+04 2.433e-08
 54.78752     -2.4 1.210e+04 2.191e-08
 54.80072     -2.7 1.218e+04 1.209e-08
 54.81068     -1.1 1.244e+04 1.675e-08
 54.82738     -4.0 1.198e+04 9.206e-09
 54.84732     -6.1 1.149e+04 6.550e-09
 54.86544     -8.7 1.066e+04 6.095e-09
 54.88547     -7.7 1.052e+04 5.393e-09
 54.90365     -8.8 1.019e+04 5.225e-09
 54.91352     -8.6 1.017e+04 4.989e-09
 54.92705     -8.6 1.011e+04 4.430e-09
 54.95705     -9.2 9.904e+03 3.480e-09
 54.99701    -10.2 9.523e+03 2.909e-09
 55.03688    -10.4 9.614e+03 3.005e-09
 55.07675    -10.2 9.636e+03 3.537e-09
 55.10943     -9.8 9.702e+03 3.775e-09
 55.12936    -10.5 1.015e+04 5.815e-09
 55.15648     -9.9 1.002e+04 5.242e-09
 55.19635     -8.9 9.924e+03 5.346e-09
 55.23621     -7.1 9.883e+03 5.365e-09
 55.27608     -5.6 9.795e+03 5.042e-09
 55.31510     -4.5 9.905e+03 4.792e-09
 55.33503     -5.2 9.814e+03 4.103e-09
 55.35581     -4.4 9.932e+03 4.775e-09
 55.37702     -3.4 1.008e+04 6.181e-09
 55.39696     -1.7 1.011e+04 7.020e-09
 55.43555     -1.0 1.021e+04 7.138e-09
 55.47541     -1.2 1.027e+04 6.963e-09
 55.50522     -1.8 1.021e+04 6.255e-09
 55.52505     -2.4 1.020e+04 6.422e-09
 55.54051     -2.6 1.024e+04 6.624e-09
 55.55048     -2.2 9.892e+03 5.548e-09
 55.56492     -2.2 1.009e+04 5.536e-09
 55.58485     -2.7 1.042e+04 5.473e-09
 55.60478     -3.5 1.051e+04 5.891e-09
 55.62255     -4.3 1.060e+04 6.458e-09
 55.63252     -3.4 1.056e+04 6.417e-09
 55.64335     -4.1 1.060e+04 7.330e-09
 55.65332     -3.3 1.054e+04 6.545e-09
 55.66458     -3.6 1.068e+04 7.695e-09
 55.68452     -3.7 1.071e+04 8.259e-09
 55.70445     -4.0 1.052e+04 7.507e-09
 55.72438     -4.1 1.033e+04 6.244e-09
 55.74432     -4.5 1.021e+04 4.840e-09
 55.75616     -4.9 1.001e+04 4.075e-09
 55.76612     -3.7 9.986e+03 3.997e-09
 55.78418     -4.1 9.794e+03 3.555e-09
 55.80412     -4.2 1.010e+04 3.585e-09
 55.82405     -8.5 1.291e+04 5.941e-09
 55.84399    -13.4 1.380e+04 1.990e-08
 55.85899    -14.2 1.375e+04 5.388e-08
 55.86896    -13.1 1.366e+04 3.353e-08
 55.87825    -12.7 1.398e+04 6.791e-08
 55.88821    -13.2 1.479e+04 9.571e-08
 55.89875    -10.2 1.532e+04 1.208e-07
 55.90867     -9.5 1.477e+04 9.837e-08
 55.91530     -8.7 1.448e+04 6.108e-08
 55.92028     -8.6 1.476e+04 7.323e-08
 55.92860     -8.0 1.500e+04 4.908e-08
 55.94360    -11.2 1.452e+04 1.972e-08
 55.96183    -16.0 1.230e+04 5.780e-09
 55.97180    -13.4 1.306e+04 1.100e-08
 55.98352    -15.8 1.138e+04 5.398e-09
 56.00345    -15.9 1.116e+04 4.987e-09
 56.02339    -15.3 1.142e+04 5.595e-09
 56.04332    -14.7 1.160e+04 6.577e-09
 56.06325    -13.8 1.180e+04 7.209e-09
 56.07464    -13.2 1.202e+04 7.357e-09
 56.08460    -12.3 1.207e+04 9.357e-09
 56.10312    -11.9 1.224e+04 9.425e-09
 56.12305    -11.7 1.230e+04 9.033e-09
 56.13394    -12.8 1.296e+04 9.623e-09
 56.14391    -14.0 1.371e+04 1.304e-08
 56.16292    -17.0 1.438e+04 2.556e-08
 56.17742    -17.8 1.476e+04 3.953e-08
 56.18236    -16.5 1.493e+04 4.028e-08
 56.18774    -17.1 1.516e+04 4.313e-08
 56.19770    -18.7 1.581e+04 6.320e-08
 56.20767    -20.3 1.624e+04 8.113e-08
 56.21764    -21.4 1.636e+04 9.250e-08
 56.22760    -22.4 1.621e+04 9.034e-08
 56.23378    -23.5 1.588e+04 6.734e-08
 56.23876    -23.1 1.630e+04 8.315e-08
 56.24754    -24.5 1.569e+04 5.608e-08
 56.26254    -26.6 1.502e+04 3.319e-08
 56.28031    -28.7 1.450e+04 1.375e-08
 56.29028    -28.0 1.457e+04 2.106e-08
 56.30245    -29.2 1.404e+04 9.131e-09
 56.32239    -29.6 1.340e+04 5.391e-09
 56.34232    -29.3 1.330e+04 3.678e-09
 56.36225    -29.1 1.338e+04 2.624e-09
 56.37976    -28.8 1.328e+04 2.291e-09
 56.39079    -29.8 1.317e+04 1.387e-09
 56.40328    -28.2 1.332e+04 1.406e-09
 56.43222    -26.9 1.298e+04 1.293e-09
 56.47208    -25.9 1.288e+04 1.278e-09
 56.51195    -25.5 1.277e+04 1.549e-09
 56.55182    -25.3 1.275e+04 2.087e-09
 56.58902    -24.9 1.265e+04 2.743e-09
 56.60885    -24.9 1.277e+04 3.709e-09
 56.62139    -24.4 1.272e+04 4.477e-09
 56.63536    -24.0 1.271e+04 4.813e-09
 56.64532    -23.5 1.262e+04 4.162e-09
 56.66125    -22.9 1.260e+04 4.277e-09
 56.68119    -22.4 1.254e+04 4.252e-09
 56.70112    -21.6 1.252e+04 3.966e-09
 56.71159    -20.9 1.254e+04 3.576e-09
 56.72156    -20.8 1.262e+04 4.585e-09
 56.74099    -20.0 1.260e+04 4.141e-09
 56.76092    -19.1 1.266e+04 3.851e-09
 56.78085    -18.3 1.273e+04 3.653e-09
 56.80079    -17.4 1.273e+04 3.571e-09
 56.81443    -16.5 1.282e+04 3.605e-09
 56.82440    -16.3 1.296e+04 4.922e-09
 56.84065    -15.4 1.305e+04 5.136e-09
 56.86059    -14.6 1.305e+04 5.201e-09
 56.88052    -13.5 1.304e+04 5.221e-09
 56.89105    -12.4 1.293e+04 5.225e-09
 56.90102    -12.2 1.284e+04 4.955e-09
 56.91727    -11.1 1.285e+04 4.503e-09
 56.92724    -11.0 1.292e+04 4.728e-09
 56.95039     -9.7 1.284e+04 3.856e-09
 56.99035     -7.2 1.262e+04 2.966e-09
 57.02030     -4.7 1.249e+04 2.526e-09
 57.04024     -4.3 1.246e+04 2.754e-09
 57.07008     -1.8 1.242e+04 2.687e-09
 57.10995      0.5 1.234e+04 3.019e-09
 57.14982      2.6 1.232e+04 4.102e-09
 57.18968      4.9 1.234e+04 5.734e-09
 57.22598      7.0 1.231e+04 6.687e-09
 57.24591      7.6 1.196e+04 4.278e-09
 57.26942     10.0 1.181e+04 3.602e-09
 57.30928     12.1 1.183e+04 2.448e-09
 57.34915     13.7 1.177e+04 1.963e-09
 57.38270     15.6 1.169e+04 2.229e-09
 57.40263     16.2 1.175e+04 2.859e-09
 57.42888     18.3 1.180e+04 3.944e-09
 57.45159     20.2 1.199e+04 5.115e-09
 57.47152     20.8 1.177e+04 4.159e-09
 57.50862     22.4 1.175e+04 5.180e-09
 57.54848     23.6 1.181e+04 6.150e-09
 57.58835     24.7 1.195e+04 6.994e-09
 57.61815     26.0 1.164e+04 5.047e-09
 57.63799     26.5 1.149e+04 4.066e-09
 57.64816     26.9 1.148e+04 3.083e-09
 57.65727     27.4 1.164e+04 4.310e-09
 57.66703     27.9 1.151e+04 3.109e-09
 57.67786     28.0 1.137e+04 2.888e-09
 57.70785     29.3 1.122e+04 2.176e-09
 57.74782     30.9 1.125e+04 2.293e-09
 57.78768     32.6 1.128e+04 2.530e-09
 57.82755     34.5 1.129e+04 2.751e-09
 57.86294     36.5 1.120e+04 2.687e-09
 57.88287     37.7 1.098e+04 2.244e-09
 57.89408     39.9 1.098e+04 2.359e-09
 57.91402     40.1 1.124e+04 2.729e-09
 57.94715     42.4 1.125e+04 2.772e-09
 57.98702     44.7 1.137e+04 2.627e-09
 58.02689     47.2 1.152e+04 2.642e-09
 58.06675     49.5 1.164e+04 2.638e-09
 58.08855     51.7 1.182e+04 2.735e-09
 58.10848     52.9 1.172e+04 2.899e-09
 58.13642     54.4 1.183e+04 2.906e-09
 58.14958     54.9 1.189e+04 3.006e-09
 58.15955     55.1 1.195e+04 3.390e-09
 58.17619     56.2 1.205e+04 3.749e-09
 58.19119     57.2 1.214e+04 4.163e-09
 58.20115     57.9 1.216e+04 4.217e-09
 58.21606     58.9 1.222e+04 4.622e-09
 58.23599     59.8 1.227e+04 5.021e-09
 58.25592     60.6 1.236e+04 5.439e-09
 58.27586     61.1 1.252e+04 6.085e-09
 58.29402     61.5 1.272e+04 7.244e-09
 58.30399     62.4 1.270e+04 6.931e-09
 58.31572     62.6 1.291e+04 8.592e-09
 58.33566     62.8 1.310e+04 1.094e-08
 58.35559     62.9 1.330e+04 1.395e-08
 58.37552     62.9 1.353e+04 1.804e-08
 58.39531     62.5 1.382e+04 2.188e-08
 58.40527     63.1 1.387e+04 2.207e-08
 58.40683     62.2 1.420e+04 2.705e-08
 58.41680     62.9 1.451e+04 3.588e-08
 58.43029     61.5 1.494e+04 4.272e-08
 58.44021     61.3 1.491e+04 4.278e-08
 58.45018     59.9 1.514e+04 4.405e-08
 58.45815     59.4 1.507e+04 4.360e-08
 58.46313     59.5 1.533e+04 4.903e-08
 58.47011     57.9 1.524e+04 4.438e-08
 58.48008     57.4 1.507e+04 4.194e-08
 58.49508     55.3 1.491e+04 3.542e-08
 58.50967     52.3 1.437e+04 2.745e-08
 58.51963     51.7 1.462e+04 3.145e-08
 58.53499     48.5 1.420e+04 2.819e-08
 58.55492     45.8 1.368e+04 2.533e-08
 58.57486     43.4 1.332e+04 2.464e-08
 58.59479     42.6 1.257e+04 2.103e-08
 58.61250     42.3 1.187e+04 1.333e-08
 58.62247     42.2 1.194e+04 1.369e-08
 58.63466     41.0 1.120e+04 7.147e-09
 58.65100     39.4 1.053e+04 3.857e-09
 58.66097     37.6 1.026e+04 3.407e-09
 58.67453     36.3 9.802e+03 2.388e-09
 58.70452     36.4 9.455e+03 1.995e-09
 58.72550     35.9 9.293e+03 2.064e-09
 58.74544     36.2 9.425e+03 2.132e-09
 58.78435     35.2 9.528e+03 2.745e-09
 58.81416     33.2 9.741e+03 3.754e-09
 58.82815     32.6 9.789e+03 4.144e-09
 58.83811     32.4 9.788e+03 4.510e-09
 58.85393     31.5 9.784e+03 5.247e-09
 58.87386     30.7 9.627e+03 5.028e-09
 58.89682     29.9 9.804e+03 4.150e-09
 58.91686     27.3 9.214e+03 2.903e-09
 58.93118     23.0 9.015e+03 2.728e-09
 58.95111     22.6 9.121e+03 3.022e-09
 58.98369     20.1 9.135e+03 3.544e-09
 59.02355     17.9 9.433e+03 2.820e-09
 59.06342     15.1 9.231e+03 2.396e-09
 59.09322     13.6 9.129e+03 2.601e-09
 59.11306     13.2 9.116e+03 2.717e-09
 59.13299     12.8 8.968e+03 3.496e-09
 59.14663     13.0 8.972e+03 3.752e-09
 59.15609     13.0 8.979e+03 3.778e-09
 59.16239     12.5 9.092e+03 4.604e-09
 59.17286     11.9 9.201e+03 4.866e-09
 59.19279      9.8 9.992e+03 5.556e-09
 59.21273      6.6 1.075e+04 7.967e-09
 59.23266      5.1 1.084e+04 1.215e-08
 59.24946      5.5 1.126e+04 1.701e-08
 59.25943      5.9 1.100e+04 1.469e-08
 59.27253      5.5 1.088e+04 1.348e-08
 59.30252      5.3 1.025e+04 1.114e-08
 59.34249      4.9 9.591e+03 7.117e-09
 59.38236      5.7 8.714e+03 3.753e-09
 59.40831      5.2 7.584e+03 1.910e-09
 59.42824      3.0 6.959e+03 1.345e-09
 59.46209      4.6 6.893e+03 1.142e-09
 59.50196      6.4 6.882e+03 1.039e-09
 59.54182      8.0 6.893e+03 1.015e-09
 59.56814      9.5 7.027e+03 1.123e-09
 59.58807     10.1 7.127e+03 1.311e-09
 59.62156     11.6 7.257e+03 1.474e-09
 59.66142     13.4 7.378e+03 1.571e-09
 59.70129     14.8 7.482e+03 1.584e-09
 59.74116     16.0 7.611e+03 1.525e-09
 59.77381     16.8 7.761e+03 1.543e-09
 59.79375     17.6 7.740e+03 1.522e-09
 59.82089     18.8 7.800e+03 1.515e-09
 59.86076     19.9 7.906e+03 1.322e-09
 59.89976     20.4 7.980e+03 1.070e-09
 59.91969     19.1 7.604e+03 7.372e-10
 59.94049     19.1 7.743e+03 9.062e-10
 59.97949     19.2 7.931e+03 1.372e-09
 59.99942     20.7 7.755e+03 9.833e-10
 60.02022     20.6 8.028e+03 1.369e-09
 60.06009     19.8 8.651e+03 2.036e-09
 60.09996     18.7 9.186e+03 3.483e-09
 60.13982     18.4 9.539e+03 5.215e-09
 60.16532     17.9 9.814e+03 5.397e-09
 60.17519     18.5 9.667e+03 5.086e-09
 60.18946     18.5 9.626e+03 4.935e-09
 60.20500     18.1 9.712e+03 3.414e-09
 60.21497     19.5 9.810e+03 3.710e-09
 60.22933     19.5 9.701e+03 3.570e-09
 60.25933     19.6 9.775e+03 2.621e-09
 60.29929     19.8 9.880e+03 2.312e-09
 60.33916     19.9 1.003e+04 3.010e-09
 60.37902     20.3 1.041e+04 4.588e-09
 60.41077     20.9 1.076e+04 5.729e-09
 60.42296     22.2 1.138e+04 8.394e-09
 60.43108     22.9 1.119e+04 8.057e-09
 60.45876     23.3 1.134e+04 1.032e-08
 60.49862     23.9 1.149e+04 5.464e-09
 60.53849     23.3 1.160e+04 2.871e-09
 60.57836     23.4 1.182e+04 2.764e-09
 60.61645     23.4 1.190e+04 5.565e-09
 60.63638     24.5 1.213e+04 6.112e-09
 60.65809     25.3 1.265e+04 9.335e-09
 60.68789     25.4 1.314e+04 9.740e-09
 60.70773     25.3 1.315e+04 9.654e-09
 60.72766     25.6 1.335e+04 8.464e-09
 60.73902     25.6 1.346e+04 6.629e-09
 60.74899     26.3 1.351e+04 7.408e-09
 60.76753     26.4 1.345e+04 6.339e-09
 60.78746     26.7 1.347e+04 5.602e-09
 60.80740     27.2 1.355e+04 5.177e-09
 60.82733     27.5 1.387e+04 4.817e-09
 60.84186     27.6 1.399e+04 5.201e-09
 60.85183     28.9 1.406e+04 7.483e-09
 60.86720     29.1 1.404e+04 9.651e-09
 60.88713     29.2 1.481e+04 1.339e-08
 60.89821     27.0 1.549e+04 1.997e-08
 60.90315     28.0 1.562e+04 2.229e-08
 60.91195     26.2 1.654e+04 2.700e-08
 60.92192     23.3 1.686e+04 5.476e-08
 60.92722     21.5 1.706e+04 9.284e-08
 60.93221     21.4 1.723e+04 1.382e-07
 60.94185     20.9 1.757e+04 1.612e-07
 60.94958     19.9 1.774e+04 1.583e-07
 60.95457     19.9 1.842e+04 2.253e-07
 60.96681     15.6 1.824e+04 1.086e-07
 60.98680     11.6 1.739e+04 4.952e-08
 61.00673      9.4 1.667e+04 3.111e-08
 61.02666      8.7 1.623e+04 2.554e-08
 61.04660      8.6 1.617e+04 2.442e-08
 61.05750      8.5 1.657e+04 2.517e-08
 61.06747      6.7 1.660e+04 2.445e-08
 61.08646      5.3 1.664e+04 3.724e-08
 61.10640      4.2 1.669e+04 6.550e-08
 61.12633      3.8 1.692e+04 9.992e-08
 61.14626      2.6 1.683e+04 1.071e-07
 61.16034      1.8 1.600e+04 6.578e-08
 61.17031      1.4 1.534e+04 3.653e-08
 61.17803      0.7 1.453e+04 1.803e-08
 61.18800      1.2 1.419e+04 1.680e-08
 61.20606      1.2 1.389e+04 1.190e-08
 61.22600      1.4 1.353e+04 8.609e-09
 61.25331      1.8 1.327e+04 7.169e-09
 61.27324      2.3 1.316e+04 6.483e-09
 61.28580      3.9 1.296e+04 5.267e-09
 61.30573      4.7 1.275e+04 4.899e-09
 61.32566      6.1 1.270e+04 4.627e-09
 61.34560      6.6 1.251e+04 4.490e-09
 61.36553      7.9 1.253e+04 4.591e-09
 61.37598      8.4 1.226e+04 4.550e-09
 61.38595      8.5 1.228e+04 5.081e-09
 61.40540      9.8 1.230e+04 5.305e-09
 61.42376     10.2 1.217e+04 5.173e-09
 61.43372     10.6 1.238e+04 5.719e-09
 61.44526     11.7 1.221e+04 5.717e-09
 61.46520     12.1 1.207e+04 5.413e-09
 61.47882     12.9 1.199e+04 5.165e-09
 61.48879     12.7 1.202e+04 5.634e-09
 61.50506     13.1 1.191e+04 5.419e-09
 61.52500     13.7 1.187e+04 5.187e-09
 61.54493     14.0 1.177e+04 5.071e-09
 61.56487     14.6 1.174e+04 4.959e-09
 61.58166     15.1 1.168e+04 4.745e-09
 61.59162     15.0 1.171e+04 5.040e-09
 61.60473     15.6 1.166e+04 4.534e-09
 61.62467     16.1 1.157e+04 4.070e-09
 61.64460     16.7 1.153e+04 3.571e-09
 61.66453     17.1 1.140e+04 3.324e-09
 61.67945     17.8 1.135e+04 3.016e-09
 61.68942     17.9 1.151e+04 3.287e-09
 61.70440     18.5 1.139e+04 3.116e-09
 61.72433     19.3 1.144e+04 2.929e-09
 61.74427     19.6 1.142e+04 2.894e-09
 61.76420     20.5 1.154e+04 2.981e-09
 61.78413     20.6 1.156e+04 3.012e-09
 61.79730     21.3 1.166e+04 3.524e-09
 61.80727     21.6 1.168e+04 3.777e-09
 61.82400     21.6 1.178e+04 3.961e-09
 61.84393     22.2 1.180e+04 5.107e-09
 61.86387     22.4 1.208e+04 5.531e-09
 61.88380     22.6 1.218e+04 6.742e-09
 61.90014     22.6 1.240e+04 7.407e-09
 61.91010     22.8 1.250e+04 8.138e-09
 61.92367     22.9 1.256e+04 9.365e-09
 61.93514     23.1 1.264e+04 9.517e-09
 61.94511     22.5 1.266e+04 8.223e-09
 61.96353     22.5 1.280e+04 6.725e-09
 61.98347     22.9 1.255e+04 5.916e-09
 62.00297     23.2 1.270e+04 4.098e-09
 62.01294     23.2 1.278e+04 4.836e-09
 62.02333     23.7 1.238e+04 4.179e-09
 62.04327     24.1 1.297e+04 2.516e-09
 62.06320     24.1 1.284e+04 2.450e-09
 62.08313     24.7 1.327e+04 2.206e-09
 62.10307     24.1 1.351e+04 2.393e-09
 62.11578     24.1 1.300e+04 5.594e-09
 62.12574     24.0 1.297e+04 7.094e-09
 62.14293     24.0 1.316e+04 7.454e-09
 62.17293     24.5 1.330e+04 1.325e-08
 62.21290     24.1 1.343e+04 1.281e-08
 62.25276     23.9 1.345e+04 6.251e-09
 62.29263     23.4 1.302e+04 3.993e-09
 62.32165     24.0 1.286e+04 2.808e-09
 62.34158     24.3 1.281e+04 2.564e-09
 62.37236     24.5 1.291e+04 1.990e-09
 62.41223     25.0 1.275e+04 2.125e-09
 62.43676     25.6 1.285e+04 2.003e-09
 62.45669     25.5 1.284e+04 1.923e-09
 62.49196     26.2 1.299e+04 1.596e-09
 62.52732     26.9 1.306e+04 1.155e-09
 62.54726     27.2 1.277e+04 1.175e-09
 62.57170     27.7 1.336e+04 8.468e-10
 62.61156     28.4 1.328e+04 8.465e-10
 62.65143     29.3 1.326e+04 8.905e-10
 62.69130     29.8 1.317e+04 1.095e-09
 62.73116     30.4 1.282e+04 1.546e-09
 62.75293     31.2 1.248e+04 1.743e-09
 62.77287     31.4 1.251e+04 2.149e-09
 62.81090     33.0 1.244e+04 1.513e-09
 62.85076     33.3 1.281e+04 8.795e-10
 62.89063     33.5 1.270e+04 9.950e-10
 62.92821     33.9 1.245e+04 1.680e-09
 62.94814     34.7 1.240e+04 1.551e-09
 62.95861     35.6 1.241e+04 2.275e-09
 62.97854     35.2 1.271e+04 3.023e-09
 63.01023     35.5 1.271e+04 3.350e-09
 63.05010     35.6 1.270e+04 3.339e-09
 63.08996     35.5 1.273e+04 2.983e-09
 63.12983     35.3 1.264e+04 2.978e-09
 63.16428     35.1 1.257e+04 2.977e-09
 63.18422     34.2 1.268e+04 3.146e-09
 63.19377     34.3 1.255e+04 3.017e-09
 63.20364     34.5 1.254e+04 3.051e-09
 63.21934     34.4 1.255e+04 3.075e-09
 63.23927     34.2 1.252e+04 3.246e-09
 63.25920     33.9 1.249e+04 3.391e-09
 63.27689     33.6 1.263e+04 3.635e-09
 63.28686     33.1 1.266e+04 3.682e-09
 63.29907     32.7 1.273e+04 4.177e-09
 63.31900     32.4 1.271e+04 5.057e-09
 63.33894     32.1 1.278e+04 5.845e-09
 63.35887     31.7 1.285e+04 6.654e-09
 63.37880     31.1 1.311e+04 6.904e-09
 63.38970     30.1 1.315e+04 7.822e-09
 63.39966     29.6 1.328e+04 8.522e-09
 63.41867     29.1 1.328e+04 8.635e-09
 63.43950     28.6 1.310e+04 8.376e-09
 63.45943     28.9 1.301e+04 8.656e-09
 63.47847     29.3 1.309e+04 6.030e-09
 63.49253     29.3 1.297e+04 5.816e-09
 63.50250     29.2 1.306e+04 5.979e-09
 63.51834     29.5 1.341e+04 3.350e-09
 63.53827     29.0 1.319e+04 2.982e-09
 63.55820     29.1 1.299e+04 2.853e-09
 63.57814     29.0 1.312e+04 2.940e-09
 63.59537     29.0 1.270e+04 4.272e-09
 63.60534     28.7 1.281e+04 4.899e-09
 63.61800     29.1 1.308e+04 5.580e-09
 63.63794     29.7 1.290e+04 7.733e-09
 63.65787     30.2 1.294e+04 8.088e-09
 63.67780     30.8 1.298e+04 7.265e-09
 63.69509     31.0 1.297e+04 6.725e-09
 63.70506     30.5 1.297e+04 7.912e-09
 63.70818     30.7 1.314e+04 6.536e-09
 63.71814     30.1 1.334e+04 7.197e-09
 63.73760     29.7 1.335e+04 6.872e-09
 63.75754     29.4 1.332e+04 6.965e-09
 63.77747     29.4 1.334e+04 7.206e-09
 63.79740     29.4 1.341e+04 7.062e-09
 63.81101     29.2 1.351e+04 6.420e-09
 63.82098     28.2 1.361e+04 5.770e-09
 63.83727     27.6 1.362e+04 5.308e-09
 63.85720     27.2 1.363e+04 5.077e-09
 63.87714     26.7 1.363e+04 4.936e-09
 63.89707     26.5 1.354e+04 4.802e-09
 63.91385     26.3 1.356e+04 4.542e-09
 63.92382     25.4 1.366e+04 4.538e-09
 63.93694     25.2 1.345e+04 4.458e-09
 63.95078     25.3 1.338e+04 4.074e-09
 63.97082     26.2 1.329e+04 2.794e-09
 64.00690     27.0 1.298e+04 2.917e-09
 64.04677     27.5 1.306e+04 3.385e-09
 64.08663     29.4 1.301e+04 2.599e-09
 64.12650     30.9 1.297e+04 1.983e-09
 64.16637     32.8 1.289e+04 1.923e-09
 64.20623     34.6 1.297e+04 2.160e-09
 64.23252     36.5 1.301e+04 2.467e-09
 64.24239     35.8 1.305e+04 3.084e-09
 64.25587     36.1 1.316e+04 3.179e-09
 64.27580     37.5 1.316e+04 3.446e-09
 64.29574     37.7 1.324e+04 3.548e-09
 64.31567     38.2 1.332e+04 3.668e-09
 64.33517     38.5 1.356e+04 4.131e-09
 64.34513     37.6 1.361e+04 4.822e-09
 64.35554     37.9 1.374e+04 5.510e-09
 64.37547     38.3 1.381e+04 6.251e-09
 64.39541     38.5 1.391e+04 7.037e-09
 64.41534     38.7 1.399e+04 7.930e-09
 64.43527     39.0 1.410e+04 8.755e-09
 64.44797     39.4 1.423e+04 9.422e-09
 64.45494     39.0 1.426e+04 8.574e-09
 64.46217     39.5 1.414e+04 8.240e-09
 64.47514     39.9 1.436e+04 8.230e-09
 64.49507     40.4 1.447e+04 7.845e-09
 64.51501     41.0 1.460e+04 6.943e-09
 64.53494     41.7 1.469e+04 5.876e-09
 64.55081     42.4 1.488e+04 4.832e-09
 64.56078     42.4 1.484e+04 4.471e-09
 64.57481     43.1 1.505e+04 3.644e-09
 64.59474     44.0 1.517e+04 3.072e-09
 64.61467     44.8 1.519e+04 2.754e-09
 64.63461     45.6 1.508e+04 2.565e-09
 64.65365     46.5 1.488e+04 2.522e-09
 64.66361     46.8 1.504e+04 2.694e-09
 64.67447     47.7 1.506e+04 2.826e-09
 64.69441     48.6 1.503e+04 3.206e-09
 64.70790     49.4 1.499e+04 3.750e-09
 64.71786     49.6 1.506e+04 3.780e-09
 64.73427     50.5 1.504e+04 4.664e-09
 64.75421     51.4 1.507e+04 6.086e-09
 64.76645     52.1 1.527e+04 8.225e-09
 64.77642     51.2 1.576e+04 1.040e-08
 64.79407     50.2 1.645e+04 2.484e-08
 64.81401     49.5 1.702e+04 7.936e-08
 64.83394     49.3 1.806e+04 2.389e-07
 64.84884     48.3 1.854e+04 3.553e-07
 64.85876     47.6 1.876e+04 4.712e-07
 64.86873     47.1 1.887e+04 5.488e-07
 64.87417     45.9 1.898e+04 5.758e-07
 64.87916     45.3 1.902e+04 5.792e-07
 64.88866     44.7 1.886e+04 5.739e-07
 64.89863     44.7 1.882e+04 5.802e-07
 64.90859     44.2 1.881e+04 6.059e-07
 64.91856     43.7 1.870e+04 5.939e-07
 64.92559     43.5 1.850e+04 5.452e-07
 64.93058     43.0 1.856e+04 5.273e-07
 64.93849     42.3 1.856e+04 5.031e-07
 64.94846     40.8 1.876e+04 4.825e-07
 64.95843     35.6 1.975e+04 5.747e-07
 64.96349     28.7 1.936e+04 8.018e-07
 64.96847     29.5 1.992e+04 2.488e-07
 64.97701     27.5 1.963e+04 2.270e-07
 64.98200     27.3 1.816e+04 6.450e-07
 64.98833     26.0 1.836e+04 3.443e-07
 64.99829     24.1 1.857e+04 2.070e-07
 65.01329     23.1 1.838e+04 1.272e-07
 65.03327     23.3 1.761e+04 3.931e-08
 65.05321     23.5 1.658e+04 1.831e-08
 65.07314     24.6 1.604e+04 1.171e-08
 65.08493     26.2 1.543e+04 9.450e-09
 65.09490     26.5 1.556e+04 1.343e-08
 65.11301     28.2 1.547e+04 8.268e-09
 65.13294     29.4 1.554e+04 6.851e-09
 65.15287     31.9 1.556e+04 4.780e-09
 65.17281     32.6 1.584e+04 3.878e-09
 65.20280     35.2 1.532e+04 2.970e-09
 65.24277     38.0 1.541e+04 2.635e-09
 65.28083     40.7 1.525e+04 3.147e-09
 65.30077     41.0 1.507e+04 4.531e-09
 65.32250     43.7 1.482e+04 5.277e-09
 65.36237     45.9 1.472e+04 5.363e-09
 65.40224     48.2 1.463e+04 5.018e-09
 65.44210     50.4 1.455e+04 4.301e-09
 65.46520     52.6 1.451e+04 3.619e-09
 65.48514     53.0 1.445e+04 2.018e-09
 65.50644     55.2 1.437e+04 1.952e-09
 65.52638     55.7 1.424e+04 1.912e-09
 65.56170     58.1 1.423e+04 1.984e-09
 65.60157     60.5 1.421e+04 1.969e-09
 65.64144     62.7 1.426e+04 1.864e-09
 65.68130     64.8 1.454e+04 1.689e-09
 65.71212     66.8 1.474e+04 1.624e-09
 65.73205     67.4 1.448e+04 1.843e-09
 65.76104     69.1 1.455e+04 2.060e-09
 65.80090     70.8 1.455e+04 2.688e-09
 65.84077     72.4 1.437e+04 3.475e-09
 65.88064     73.6 1.421e+04 3.672e-09
 65.91779     74.8 1.399e+04 3.482e-09
 65.93773     75.1 1.408e+04 3.840e-09
 65.95666     76.5 1.377e+04 2.959e-09
 65.97659     77.0 1.364e+04 2.246e-09
 66.00024     78.7 1.360e+04 1.420e-09
 66.04010     80.3 1.382e+04 8.544e-10
 66.07997     82.0 1.359e+04 7.075e-10
 66.11984     84.2 1.347e+04 7.025e-10
 66.14340     86.5 1.339e+04 7.289e-10
 66.16333     86.8 1.343e+04 8.074e-10
 66.19957     89.0 1.339e+04 8.567e-10
 66.23944     91.2 1.327e+04 9.604e-10
 66.27930     93.3 1.313e+04 1.157e-09
 66.31917     95.5 1.319e+04 1.317e-09
 66.34908     97.5 1.329e+04 1.298e-09
 66.36901     97.2 1.341e+04 1.276e-09
 66.39891     99.0 1.365e+04 1.090e-09
 66.43877    100.7 1.394e+04 8.702e-10
 66.46804    102.4 1.431e+04 7.073e-10
 66.48798    102.8 1.381e+04 1.028e-09
 66.51851    104.5 1.414e+04 7.987e-10
 66.55475    106.3 1.435e+04 7.012e-10
 66.57469    105.7 1.464e+04 5.787e-10
 66.59824    107.6 1.462e+04 5.830e-10
 66.63811    109.5 1.450e+04 6.099e-10
 66.67797    111.4 1.462e+04 6.717e-10
 66.71784    113.3 1.448e+04 9.377e-10
 66.75771    115.7 1.441e+04 1.561e-09
 66.78036    117.5 1.456e+04 2.385e-09
 66.80029    117.9 1.455e+04 2.266e-09
 66.82738    118.4 1.461e+04 2.721e-09
 66.84721    118.5 1.471e+04 3.616e-09
 66.86714    118.6 1.475e+04 5.066e-09
 66.88300    118.9 1.477e+04 6.759e-09
 66.89297    119.1 1.475e+04 6.588e-09
 66.90701    119.4 1.478e+04 8.480e-09
 66.92694    119.5 1.487e+04 1.022e-08
 66.94688    119.5 1.503e+04 1.067e-08
 66.96681    119.3 1.502e+04 1.052e-08
 66.97923    119.0 1.492e+04 9.744e-09
 66.98829    119.9 1.504e+04 1.103e-08
 66.99581    120.1 1.503e+04 1.306e-08
 67.00668    119.8 1.491e+04 1.179e-08
 67.02661    119.6 1.471e+04 9.624e-09
 67.04654    119.5 1.454e+04 7.389e-09
 67.06648    119.4 1.443e+04 5.734e-09
 67.08641    119.4 1.431e+04 4.788e-09
 67.09864    119.4 1.407e+04 4.417e-09
 67.10861    119.1 1.405e+04 5.154e-09
 67.12628    119.2 1.385e+04 4.713e-09
 67.14621    119.5 1.368e+04 4.307e-09
 67.16614    119.7 1.358e+04 3.942e-09
 67.18608    120.1 1.349e+04 3.481e-09
 67.20148    120.2 1.346e+04 3.237e-09
 67.21145    119.3 1.338e+04 2.713e-09
 67.23601    120.4 1.323e+04 2.388e-09
 67.27597    121.6 1.291e+04 1.896e-09
 67.31584    123.5 1.274e+04 1.811e-09
 67.35571    125.7 1.278e+04 1.915e-09
 67.39557    127.2 1.291e+04 2.290e-09
 67.41722    128.4 1.293e+04 2.621e-09
 67.43715    129.2 1.284e+04 2.798e-09
 67.46524    129.6 1.310e+04 3.536e-09
 67.48065    129.5 1.351e+04 4.916e-09
 67.49072    129.4 1.307e+04 3.996e-09
 67.50511    128.9 1.373e+04 7.232e-09
 67.51996    128.1 1.437e+04 1.613e-08
 67.52993    128.2 1.419e+04 1.315e-08
 67.54488    127.3 1.513e+04 3.287e-08
 67.56481    126.4 1.612e+04 7.124e-08
 67.58475    125.3 1.690e+04 1.096e-07
 67.60468    123.4 1.707e+04 1.127e-07
 67.62280    121.6 1.683e+04 1.006e-07
 67.63277    121.8 1.638e+04 7.752e-08
 67.64455    121.0 1.563e+04 5.355e-08
 67.66448    120.7 1.479e+04 3.410e-08
 67.68441    120.6 1.411e+04 2.282e-08
 67.70435    120.6 1.363e+04 1.716e-08
 67.72428    120.8 1.330e+04 1.448e-08
 67.73560    121.4 1.305e+04 1.297e-08
 67.73770    121.6 1.290e+04 1.006e-08
 67.74631    121.4 1.286e+04 1.047e-08
 67.76415    122.1 1.261e+04 9.411e-09
 67.78408    122.8 1.241e+04 8.274e-09
 67.80401    123.5 1.223e+04 7.066e-09
 67.82395    124.3 1.208e+04 5.888e-09
 67.83844    125.1 1.192e+04 4.819e-09
 67.84841    125.2 1.193e+04 4.015e-09
 67.86381    126.1 1.183e+04 3.439e-09
 67.88375    126.9 1.171e+04 2.997e-09
 67.90368    127.7 1.152e+04 2.700e-09
 67.92361    128.7 1.156e+04 2.563e-09
 67.94128    129.8 1.152e+04 2.599e-09
 67.95125    129.8 1.156e+04 2.653e-09
 67.96348    130.9 1.153e+04 2.857e-09
 67.98207    132.0 1.154e+04 3.219e-09
 67.99204    131.5 1.142e+04 2.865e-09
 68.00335    132.7 1.144e+04 3.334e-09
 68.02328    133.8 1.151e+04 3.958e-09
 68.04321    134.8 1.160e+04 4.661e-09
 68.05408    135.7 1.174e+04 5.359e-09
 68.06405    134.9 1.198e+04 6.483e-09
 68.08308    135.2 1.213e+04 7.170e-09
 68.10301    135.1 1.236e+04 8.150e-09
 68.12295    134.9 1.264e+04 9.558e-09
 68.14288    134.4 1.293e+04 1.135e-08
 68.15692    133.7 1.317e+04 1.320e-08
 68.16689    132.8 1.317e+04 1.364e-08
 68.18275    132.1 1.320e+04 1.468e-08
 68.20268    131.4 1.320e+04 1.541e-08
 68.22261    130.7 1.314e+04 1.610e-08
 68.23776    130.1 1.309e+04 1.682e-08
 68.24773    130.7 1.305e+04 1.651e-08
 68.25976    130.3 1.317e+04 1.894e-08
 68.26972    130.0 1.312e+04 1.842e-08
 68.28241    129.5 1.321e+04 1.938e-08
 68.30235    129.0 1.311e+04 1.845e-08
 68.32228    128.6 1.284e+04 1.615e-08
 68.34221    128.4 1.248e+04 1.347e-08
 68.36215    128.3 1.213e+04 1.139e-08
 68.37256    128.3 1.185e+04 1.042e-08
 68.38253    128.2 1.188e+04 1.116e-08
 68.40201    128.4 1.169e+04 1.077e-08
 68.42195    128.7 1.160e+04 1.068e-08
 68.44188    129.0 1.154e+04 1.051e-08
 68.46181    129.4 1.145e+04 9.997e-09
 68.47540    129.7 1.131e+04 9.070e-09
 68.48537    129.6 1.130e+04 9.529e-09
 68.49346    130.0 1.114e+04 8.459e-09
 68.50342    130.2 1.150e+04 1.162e-08
 68.52161    130.7 1.138e+04 1.082e-08
 68.54155    131.3 1.129e+04 1.022e-08
 68.56148    132.0 1.128e+04 9.979e-09
 68.57824    132.5 1.130e+04 1.010e-08
 68.58820    132.5 1.140e+04 1.167e-08
 68.60135    133.0 1.142e+04 1.160e-08
 68.62128    133.5 1.147e+04 1.207e-08
 68.64121    133.9 1.159e+04 1.336e-08
 68.66115    134.2 1.178e+04 1.589e-08
 68.68107    134.4 1.206e+04 1.941e-08
 68.70101    134.6 1.242e+04 2.254e-08
 68.72095    134.7 1.292e+04 2.946e-08
 68.73918    135.0 1.341e+04 3.756e-08
 68.74915    135.4 1.344e+04 3.728e-08
 68.76082    135.8 1.394e+04 4.683e-08
 68.78075    136.4 1.420e+04 5.309e-08
 68.79388    136.8 1.420e+04 5.307e-08
 68.80385    136.7 1.420e+04 5.230e-08
 68.82062    136.9 1.407e+04 4.992e-08
 68.84055    137.2 1.368e+04 4.299e-08
 68.86048    137.4 1.312e+04 3.458e-08
 68.88042    137.5 1.250e+04 2.691e-08
 68.89672    137.4 1.188e+04 2.087e-08
 68.90668    136.8 1.128e+04 1.640e-08
 68.92028    136.6 1.075e+04 1.345e-08
 68.94022    136.5 1.038e+04 1.177e-08
 68.96015    136.7 1.010e+04 1.071e-08
 68.98008    137.0 9.916e+03 1.009e-08
 68.99488    137.5 9.873e+03 9.929e-09
 69.00438    136.9 9.626e+03 8.979e-09
 69.00952    136.8 9.463e+03 8.458e-09
 69.01995    137.3 9.461e+03 8.434e-09
 69.03988    138.0 9.521e+03 8.593e-09
 69.05982    138.1 9.734e+03 9.341e-09
 69.07975    137.9 1.018e+04 1.130e-08
 69.09968    137.5 1.099e+04 1.557e-08
 69.11236    136.8 1.227e+04 2.464e-08
 69.12233    137.3 1.187e+04 2.157e-08
 69.13955    136.6 1.329e+04 3.559e-08
 69.15948    135.8 1.472e+04 5.925e-08
 69.17942    134.7 1.569e+04 8.228e-08
 69.19935    133.3 1.578e+04 8.447e-08
 69.21520    132.1 1.556e+04 7.802e-08
 69.22516    132.9 1.537e+04 7.557e-08
 69.23922    131.9 1.502e+04 6.528e-08
 69.25057    130.7 1.422e+04 4.351e-08
 69.26053    130.7 1.390e+04 4.210e-08
 69.27908    128.6 1.310e+04 2.777e-08
 69.29902    125.2 1.279e+04 2.488e-08
 69.31803    121.7 1.282e+04 2.636e-08
 69.32800    123.6 1.300e+04 2.709e-08
 69.33888    120.3 1.293e+04 2.888e-08
 69.35882    117.8 1.284e+04 2.864e-08
 69.37875    116.3 1.244e+04 2.515e-08
 69.39868    115.6 1.172e+04 1.601e-08
 69.41862    114.7 1.080e+04 7.082e-09
 69.43084    112.7 9.806e+03 2.612e-09
 69.44080    114.6 1.016e+04 3.722e-09
 69.45848    112.7 9.380e+03 1.454e-09
 69.47842    112.1 9.333e+03 1.289e-09
 69.49639    112.9 9.045e+03 1.023e-09
 69.51642    112.1 9.342e+03 1.380e-09
 69.53387    114.6 9.227e+03 1.310e-09
 69.55380    116.3 9.370e+03 1.350e-09
 69.58825    119.0 9.340e+03 1.377e-09
 69.62811    121.8 9.375e+03 1.510e-09
 69.66798    124.2 9.502e+03 1.884e-09
 69.70785    126.0 9.627e+03 2.416e-09
 69.73955    126.9 9.613e+03 2.837e-09
 69.75948    129.0 9.574e+03 2.886e-09
 69.77752    130.5 9.625e+03 3.620e-09
 69.79735    131.6 9.825e+03 4.358e-09
 69.81728    132.3 1.005e+04 5.086e-09
 69.83722    132.6 1.027e+04 5.841e-09
 69.85216    132.8 1.049e+04 6.824e-09
 69.86212    134.0 1.040e+04 6.408e-09
 69.87708    134.0 1.062e+04 7.413e-09
 69.89702    133.8 1.085e+04 8.740e-09
 69.91695    133.5 1.112e+04 1.035e-08
 69.93688    133.2 1.137e+04 1.197e-08
 69.95499    132.9 1.145e+04 1.264e-08
 69.96496    134.0 1.130e+04 1.158e-08
 69.97675    133.7 1.128e+04 1.148e-08
 69.99668    133.3 1.131e+04 1.145e-08
 70.00768    131.9 1.181e+04 1.232e-08
 70.01765    132.3 1.250e+04 1.532e-08
 70.03655    129.7 1.391e+04 2.036e-08
 70.05145    129.0 1.418e+04 2.155e-08
 70.06137    127.1 1.535e+04 2.740e-08
 70.06770    124.0 1.744e+04 4.859e-08
 70.07268    126.9 1.634e+04 3.451e-08
 70.08130    123.8 1.827e+04 6.970e-08
 70.09127    121.8 1.896e+04 1.377e-07
 70.10124    121.1 1.911e+04 2.204e-07
 70.11120    120.9 1.926e+04 2.537e-07
 70.11912    120.7 1.933e+04 2.419e-07
 70.12410    121.7 1.942e+04 2.536e-07
 70.13045    121.9 1.954e+04 2.311e-07
 70.13543    121.8 1.959e+04 2.505e-07
 70.14110    121.8 1.997e+04 1.840e-07
 70.15107    121.4 2.025e+04 1.261e-07
 70.16104    121.5 2.168e+04 9.479e-08
 70.17054    111.6 4.406e+04 4.812e-08
 70.17552    111.9 3.736e+04 7.917e-08
 70.18097     62.6 6.922e+04 4.620e-08
 70.18842     38.3 2.116e+04 1.334e-05
 70.19338     17.7 1.071e+04 7.605e-03
 70.19681      5.1 9.860e+03 2.516e-02
 70.19930      2.7 9.937e+03 2.077e-02
 70.20118     -9.6 1.083e+04 7.671e-03
 70.20367      0.6 1.347e+04 6.070e-04
 70.20833    -16.0 2.014e+04 2.104e-05
 70.21331    -33.1 3.569e+04 1.097e-06
 70.22081    -46.6 4.773e+04 1.039e-07
 70.22694    -66.4 6.126e+04 5.815e-09
 70.23192    -66.7 5.256e+04 8.387e-09
 70.24077    -85.9 2.126e+04 4.946e-09
 70.25336    -86.7 1.518e+04 5.025e-09
 70.26337    -85.8 1.113e+04 5.358e-09
 70.27347    -77.9 9.979e+03 5.410e-09
 70.28344    -75.8 9.957e+03 5.500e-09
 70.29569    -72.3 1.004e+04 5.574e-09
 70.31562    -70.9 1.020e+04 6.737e-09
 70.33555    -70.5 1.137e+04 1.077e-08
 70.35549    -70.2 1.269e+04 1.941e-08
 70.37542    -69.5 1.365e+04 3.241e-08
 70.38628    -68.6 1.428e+04 4.453e-08
 70.39624    -68.3 1.439e+04 4.706e-08
 70.41025    -67.8 1.466e+04 5.091e-08
 70.42017    -67.8 1.467e+04 5.081e-08
 70.43517    -68.1 1.464e+04 4.860e-08
 70.45515    -69.2 1.434e+04 4.164e-08
 70.47509    -70.6 1.375e+04 3.249e-08
 70.48911    -72.3 1.314e+04 2.646e-08
 70.49908    -73.1 1.288e+04 2.432e-08
 70.50910    -74.3 1.266e+04 2.257e-08
 70.51907    -74.9 1.263e+04 2.207e-08
 70.53489    -75.5 1.246e+04 2.096e-08
 70.55482    -75.7 1.232e+04 1.981e-08
 70.57475    -75.9 1.218e+04 1.848e-08
 70.59195    -76.1 1.205e+04 1.710e-08
 70.60192    -76.4 1.268e+04 2.255e-08
 70.61462    -76.6 1.263e+04 2.177e-08
 70.63455    -76.8 1.262e+04 2.157e-08
 70.65449    -76.9 1.268e+04 2.165e-08
 70.67442    -77.1 1.282e+04 2.215e-08
 70.69435    -77.4 1.297e+04 2.277e-08
 70.70476    -77.8 1.313e+04 2.356e-08
 70.71472    -78.6 1.404e+04 3.410e-08
 70.73422    -79.2 1.437e+04 3.756e-08
 70.75415    -79.7 1.476e+04 4.252e-08
 70.76479    -80.1 1.510e+04 4.831e-08
 70.77476    -80.4 1.445e+04 3.451e-08
 70.79402    -80.5 1.463e+04 3.683e-08
 70.80759    -80.3 1.470e+04 3.803e-08
 70.81756    -81.5 1.498e+04 4.136e-08
 70.83389    -81.2 1.466e+04 3.687e-08
 70.85382    -80.6 1.455e+04 3.538e-08
 70.87375    -79.9 1.453e+04 3.521e-08
 70.89369    -79.1 1.455e+04 3.509e-08
 70.91043    -78.2 1.462e+04 3.421e-08
 70.92040    -79.6 1.415e+04 2.385e-08
 70.93355    -78.9 1.439e+04 2.452e-08
 70.95349    -78.1 1.456e+04 2.500e-08
 70.97342    -77.3 1.466e+04 2.539e-08
 70.98832    -76.8 1.502e+04 2.930e-08
 70.99824    -76.0 1.524e+04 3.178e-08
 71.00821    -75.4 1.597e+04 3.616e-08
 71.01540    -76.3 1.807e+04 4.305e-08
 71.02037    -75.9 1.856e+04 5.329e-08
 71.02812    -74.4 2.066e+04 9.183e-08
 71.03811    -76.4 2.752e+04 1.673e-07
 71.04807    -77.3 2.579e+04 1.857e-06
 71.05552    -74.1 1.305e+04 7.823e-04
 71.05922    -72.8 1.004e+04 1.453e-02
 71.06163    -73.8 8.812e+03 7.140e-02
 71.06287    -75.6 8.468e+03 1.046e-01
 71.06357    -74.7 8.803e+03 2.058e-01
 71.06451    -74.6 8.576e+03 3.096e-01
 71.06513    -76.2 8.341e+03 7.557e-01
 71.06574    -74.9 8.306e+03 7.444e-01
 71.06607    -74.8 8.528e+03 7.321e-01
 71.06638    -75.6 8.184e+03 7.181e-01
 71.06698    -77.8 8.112e+03 6.320e-01
 71.06760    -81.6 8.540e+03 5.544e-01
 71.06854    -93.7 8.781e+03 5.500e-01
 71.06929   -110.8 9.066e+03 2.578e-01
 71.06991   -119.9 9.220e+03 2.424e-01
 71.07104   -133.3 9.260e+03 7.904e-02
 71.07228   -137.9 9.430e+03 3.707e-02
 71.07416   -139.0 1.003e+04 1.839e-02
 71.07573   -141.8 1.166e+04 3.028e-03
 71.07697   -141.5 1.137e+04 3.601e-03
 71.07927   -138.2 1.327e+04 3.826e-04
 71.08177   -143.1 1.328e+04 4.032e-04
 71.08540   -137.5 1.791e+04 8.696e-06
 71.09038   -132.3 1.866e+04 3.741e-06
 71.09788   -129.3 1.906e+04 2.642e-06
 71.10787   -126.3 1.940e+04 1.451e-06
 71.11784   -125.4 1.931e+04 1.051e-06
 71.12598   -125.3 1.928e+04 1.017e-06
 71.13096   -125.4 1.806e+04 2.802e-06
 71.13777   -126.7 1.796e+04 3.594e-06
 71.14325   -129.2 1.792e+04 3.773e-06
 71.14823   -128.8 1.792e+04 3.830e-06
 71.15771   -130.7 1.791e+04 3.292e-06
 71.16767   -131.1 1.824e+04 1.870e-06
 71.17739   -131.0 1.870e+04 9.185e-07
 71.18238   -131.5 1.896e+04 6.471e-07
 71.18761   -131.7 1.939e+04 2.961e-07
 71.19757   -132.5 1.920e+04 1.528e-07
 71.20754   -133.2 1.825e+04 8.696e-08
 71.21751   -133.7 1.684e+04 5.384e-08
 71.22747   -134.0 1.544e+04 3.605e-08
 71.23380   -134.0 1.445e+04 2.652e-08
 71.23883   -135.9 1.468e+04 2.850e-08
 71.25249   -135.1 1.326e+04 1.513e-08
 71.26621   -134.9 1.253e+04 9.921e-09
 71.27618   -133.9 1.392e+04 1.952e-08
 71.29235   -133.8 1.305e+04 1.328e-08
 71.31229   -133.9 1.249e+04 9.976e-09
 71.33175   -133.8 1.210e+04 8.587e-09
 71.34171   -135.1 1.284e+04 1.238e-08
 71.35215   -134.5 1.233e+04 1.086e-08
 71.37209   -133.6 1.200e+04 1.000e-08
 71.39202   -132.7 1.175e+04 9.122e-09
 71.41195   -131.6 1.156e+04 8.055e-09
 71.43189   -130.5 1.140e+04 6.842e-09
 71.44455   -129.4 1.124e+04 5.681e-09
 71.45452   -130.2 1.154e+04 6.355e-09
 71.47175   -129.2 1.131e+04 5.365e-09
 71.49169   -128.2 1.103e+04 4.600e-09
 71.51162   -127.2 1.071e+04 3.977e-09
 71.52190   -126.0 1.041e+04 3.491e-09
 71.53187   -125.9 1.047e+04 4.034e-09
 71.54739   -124.8 1.020e+04 3.632e-09
 71.55736   -125.2 1.038e+04 4.371e-09
 71.57142   -124.0 1.015e+04 3.870e-09
 71.59136   -123.1 1.002e+04 3.573e-09
 71.62135   -121.7 9.781e+03 3.388e-09
 71.65042   -120.4 9.587e+03 3.209e-09
 71.66029   -120.8 9.997e+03 3.412e-09
 71.67109   -120.1 9.920e+03 3.407e-09
 71.70109   -118.8 9.809e+03 3.528e-09
 71.74105   -117.4 9.636e+03 3.456e-09
 71.78092   -116.3 9.532e+03 3.395e-09
 71.82078   -115.5 9.470e+03 3.248e-09
 71.85610   -114.7 9.396e+03 2.987e-09
 71.87603   -114.5 9.882e+03 3.222e-09
 71.90052   -113.9 9.831e+03 2.910e-09
 71.94038   -113.2 9.789e+03 2.462e-09
 71.98025   -112.6 9.724e+03 2.051e-09
 72.01355   -112.2 9.702e+03 1.831e-09
 72.03348   -112.9 9.577e+03 1.802e-09
 72.05998   -112.9 9.722e+03 1.791e-09
 72.08171   -113.2 1.050e+04 2.398e-09
 72.10164   -112.5 1.063e+04 2.223e-09
 72.13972   -112.8 1.111e+04 3.348e-09
 72.17959   -113.4 1.143e+04 5.122e-09
 72.21945   -114.2 1.162e+04 6.943e-09
 72.24925   -114.6 1.181e+04 8.500e-09
 72.26905   -115.4 1.184e+04 9.199e-09
 72.28714   -116.5 1.163e+04 7.976e-09
 72.30722   -116.4 1.182e+04 9.950e-09
 72.33905   -118.0 1.184e+04 1.079e-08
 72.37892   -118.9 1.138e+04 9.799e-09
 72.41879   -118.8 1.084e+04 7.092e-09
 72.45865   -118.5 1.013e+04 4.252e-09
 72.49306   -117.3 9.636e+03 2.775e-09
 72.51299   -116.2 9.382e+03 2.384e-09
 72.52494   -114.9 9.174e+03 1.948e-09
 72.54487   -113.8 8.937e+03 1.850e-09
 72.57825   -112.1 8.925e+03 1.841e-09
 72.61812   -110.6 9.132e+03 2.034e-09
 72.65799   -109.2 9.390e+03 2.610e-09
 72.69785   -108.0 9.660e+03 3.264e-09
 72.71867   -107.0 9.877e+03 3.741e-09
 72.73860   -105.4 9.613e+03 3.327e-09
 72.77759   -104.5 9.786e+03 3.807e-09
 72.81745   -104.0 9.925e+03 4.257e-09
 72.85732   -103.8 1.010e+04 4.981e-09
 72.89719   -104.0 1.048e+04 6.348e-09
 72.92434   -104.4 1.096e+04 8.317e-09
 72.94427   -103.4 1.103e+04 9.273e-09
 72.96686   -103.6 1.128e+04 1.075e-08
 72.98669   -104.2 1.141e+04 1.148e-08
 73.00663   -104.6 1.148e+04 1.172e-08
 73.02616   -105.0 1.151e+04 1.137e-08
 73.03613   -104.6 1.154e+04 1.185e-08
 73.03695   -105.2 1.167e+04 1.185e-08
 73.04692   -104.7 1.168e+04 1.242e-08
 73.06643   -105.2 1.181e+04 1.250e-08
 73.08636   -105.8 1.202e+04 1.282e-08
 73.10629   -106.3 1.215e+04 1.351e-08
 73.12623   -106.8 1.215e+04 1.412e-08
 73.13979   -107.1 1.213e+04 1.431e-08
 73.14975   -106.5 1.198e+04 1.351e-08
 73.16609   -106.7 1.176e+04 1.274e-08
 73.18603   -106.8 1.155e+04 1.114e-08
 73.20596   -106.9 1.136e+04 9.587e-09
 73.22589   -107.1 1.117e+04 8.433e-09
 73.24262   -107.1 1.101e+04 7.668e-09
 73.25259   -106.4 1.097e+04 7.466e-09
 73.26576   -106.4 1.085e+04 7.031e-09
 73.28185   -106.3 1.074e+04 6.578e-09
 73.29182   -106.9 1.047e+04 5.642e-09
 73.30563   -106.7 1.029e+04 5.168e-09
 73.32556   -106.5 1.005e+04 4.735e-09
 73.34546   -106.2 9.813e+03 4.392e-09
 73.36540   -105.1 9.707e+03 4.287e-09
 73.38536   -104.5 9.606e+03 3.907e-09
 73.40529   -103.9 9.561e+03 3.554e-09
 73.42523   -103.2 9.557e+03 3.286e-09
 73.44516   -102.5 9.560e+03 3.122e-09
 73.45827   -101.9 9.548e+03 2.987e-09
 73.46823   -101.2 9.543e+03 3.092e-09
 73.48503   -100.6 9.544e+03 3.045e-09
 73.50496    -99.8 9.555e+03 3.008e-09
 73.52489    -99.2 9.564e+03 3.004e-09
 73.53755    -98.5 9.592e+03 3.006e-09
 73.54761    -99.3 9.391e+03 2.752e-09
 73.56130    -97.9 9.474e+03 2.841e-09
 73.57117    -97.8 9.550e+03 3.224e-09
 73.58469    -97.4 9.626e+03 3.507e-09
 73.60463    -96.9 9.775e+03 4.020e-09
 73.62456    -96.6 9.952e+03 4.707e-09
 73.64449    -96.3 1.022e+04 5.890e-09
 73.66394    -96.0 1.052e+04 7.192e-09
 73.67391    -96.3 1.066e+04 8.109e-09
 73.68436    -96.2 1.096e+04 9.615e-09
 73.70429    -96.2 1.121e+04 1.108e-08
 73.72423    -96.4 1.145e+04 1.253e-08
 73.74416    -96.7 1.171e+04 1.416e-08
 73.76409    -97.1 1.197e+04 1.632e-08
 73.77675    -97.6 1.228e+04 1.898e-08
 73.78596    -97.9 1.198e+04 1.592e-08
 73.79324    -97.6 1.216e+04 1.778e-08
 73.80396    -98.2 1.244e+04 1.990e-08
 73.82389    -99.0 1.267e+04 2.175e-08
 73.84383    -99.9 1.282e+04 2.302e-08
 73.86376   -100.9 1.288e+04 2.360e-08
 73.87958   -101.9 1.288e+04 2.362e-08
 73.88955   -102.2 1.236e+04 1.687e-08
 73.90363   -102.9 1.236e+04 1.680e-08
 73.92356   -103.3 1.234e+04 1.647e-08
 73.94349   -103.6 1.220e+04 1.515e-08
 73.96343   -103.9 1.195e+04 1.336e-08
 73.98242   -104.1 1.161e+04 1.148e-08
 73.99239   -104.0 1.132e+04 9.610e-09
 74.00329   -104.0 1.106e+04 8.716e-09
 74.02323   -104.0 1.081e+04 7.759e-09
 74.03897   -104.1 1.057e+04 6.855e-09
 74.04893   -103.3 1.087e+04 8.280e-09
 74.06309   -103.5 1.066e+04 7.549e-09
 74.08303   -103.8 1.048e+04 6.940e-09
 74.09523   -104.1 1.030e+04 6.414e-09
 74.10519   -103.7 1.032e+04 6.474e-09
 74.12289   -104.1 1.013e+04 5.953e-09
 74.14283   -104.5 9.944e+03 5.425e-09
 74.16276   -104.8 9.740e+03 4.863e-09
 74.18269   -105.0 9.517e+03 4.262e-09
 74.19806   -105.0 9.296e+03 3.688e-09
 74.20803   -104.8 9.304e+03 3.733e-09
 74.22256   -104.7 9.125e+03 3.298e-09
 74.25256   -104.3 9.024e+03 3.029e-09
 74.29252   -104.3 8.788e+03 2.595e-09
 74.33239   -103.8 8.467e+03 2.108e-09
 74.37226   -102.6 8.176e+03 1.733e-09
 74.40393   -101.1 7.985e+03 1.508e-09
 74.42387   -100.6 8.146e+03 1.710e-09
 74.45199    -99.0 7.987e+03 1.581e-09
 74.49186    -97.3 7.904e+03 1.525e-09
 74.53061    -95.4 7.885e+03 1.511e-09
 74.55055    -95.3 7.945e+03 1.740e-09
 74.57159    -93.5 7.933e+03 1.740e-09
 74.60961    -91.9 8.115e+03 2.022e-09
 74.62954    -91.5 8.467e+03 2.553e-09
 74.64126    -90.1 8.589e+03 2.777e-09
 74.66110    -89.9 8.613e+03 2.859e-09
 74.68103    -89.4 8.750e+03 3.282e-09
 74.70096    -89.4 8.939e+03 4.074e-09
 74.72090    -88.9 9.217e+03 5.446e-09
 74.73218    -88.2 9.568e+03 7.158e-09
 74.74215    -88.1 9.648e+03 7.422e-09
 74.76076    -87.4 9.973e+03 9.036e-09
 74.78070    -86.8 1.027e+04 1.067e-08
 74.79608    -86.3 1.051e+04 1.209e-08
 74.80604    -86.8 1.076e+04 1.376e-08
 74.82056    -86.5 1.092e+04 1.501e-08
 74.83502    -86.2 1.099e+04 1.611e-08
 74.84499    -86.9 1.116e+04 1.602e-08
 74.86043    -86.6 1.138e+04 1.841e-08
 74.88036    -86.3 1.162e+04 2.117e-08
 74.90030    -85.9 1.185e+04 2.381e-08
 74.92023    -85.5 1.203e+04 2.488e-08
 74.93786    -85.2 1.215e+04 2.526e-08
 74.94783    -85.7 1.207e+04 2.419e-08
 74.96010    -85.6 1.204e+04 2.315e-08
 74.98003    -85.4 1.195e+04 2.145e-08
 74.99996    -85.4 1.185e+04 1.951e-08
 75.01990    -85.4 1.175e+04 1.770e-08
 75.03983    -85.5 1.167e+04 1.616e-08
 75.05066    -85.7 1.162e+04 1.514e-08
 75.05264    -86.1 1.132e+04 1.375e-08
 75.06174    -86.9 1.070e+04 9.952e-09
 75.07970    -87.2 1.075e+04 9.892e-09
 75.09963    -87.8 1.092e+04 1.040e-08
 75.11956    -88.4 1.108e+04 1.116e-08
 75.13950    -89.1 1.125e+04 1.205e-08
 75.15350    -89.8 1.147e+04 1.317e-08
 75.16347    -89.8 1.152e+04 1.308e-08
 75.17936    -90.6 1.182e+04 1.486e-08
 75.19930    -91.6 1.223e+04 1.743e-08
 75.21923    -92.5 1.272e+04 2.100e-08
 75.23916    -93.5 1.323e+04 2.557e-08
 75.25634    -94.4 1.370e+04 3.121e-08
 75.26631    -94.5 1.358e+04 2.932e-08
 75.27903    -95.1 1.381e+04 3.194e-08
 75.29750    -95.7 1.388e+04 3.274e-08
 75.30746    -97.7 1.306e+04 2.276e-08
 75.31890    -98.1 1.272e+04 1.847e-08
 75.33883    -98.5 1.222e+04 1.394e-08
 75.35876    -98.7 1.166e+04 1.010e-08
 75.36914    -98.9 1.110e+04 7.269e-09
 75.37911    -99.5 1.050e+04 5.588e-09
 75.39863    -99.6 1.010e+04 4.275e-09
 75.41856    -99.7 1.010e+04 3.545e-09
 75.43850    -99.6 1.014e+04 3.435e-09
 75.45843    -99.1 1.041e+04 4.175e-09
 75.47208    -98.3 1.083e+04 5.488e-09
 75.48204    -98.4 1.020e+04 3.369e-09
 75.49830    -97.8 1.027e+04 3.637e-09
 75.52830    -96.8 1.050e+04 4.213e-09
 75.55338    -95.1 1.054e+04 4.528e-09
 75.57332    -94.8 9.815e+03 2.323e-09
 75.60813    -93.2 9.975e+03 2.783e-09
 75.64799    -91.5 1.019e+04 3.376e-09
 75.67785    -90.0 1.038e+04 3.819e-09
 75.69778    -88.9 1.041e+04 3.818e-09
 75.72773    -87.4 1.064e+04 4.416e-09
 75.76759    -85.9 1.084e+04 4.854e-09
 75.80746    -84.3 1.099e+04 5.009e-09
 75.84733    -82.7 1.108e+04 4.911e-09
 75.88353    -81.1 1.117e+04 4.603e-09
 75.90346    -79.9 1.166e+04 7.616e-09
 75.92706    -78.4 1.170e+04 7.314e-09
 75.96693    -76.8 1.181e+04 7.393e-09
 76.00679    -75.3 1.199e+04 7.627e-09
 76.04484    -73.7 1.227e+04 8.737e-09
 76.06477    -73.4 1.259e+04 1.254e-08
 76.08653    -72.1 1.317e+04 1.668e-08
 76.10904    -71.4 1.368e+04 2.207e-08
 76.11891    -71.4 1.372e+04 2.235e-08
 76.13617    -70.9 1.404e+04 2.662e-08
 76.15610    -70.4 1.426e+04 2.925e-08
 76.17603    -70.1 1.430e+04 2.960e-08
 76.19597    -69.7 1.419e+04 2.592e-08
 76.21178    -69.3 1.385e+04 1.883e-08
 76.22174    -69.5 1.365e+04 1.704e-08
 76.24590    -69.2 1.333e+04 1.253e-08
 76.28586    -67.5 1.292e+04 7.908e-09
 76.31481    -65.2 1.264e+04 4.664e-09
 76.33474    -65.4 1.265e+04 4.194e-09
 76.36560    -63.5 1.270e+04 2.909e-09
 76.40546    -61.6 1.272e+04 2.141e-09
 76.44533    -59.7 1.263e+04 1.892e-09
 76.48520    -57.9 1.261e+04 1.860e-09
 76.52048    -57.0 1.346e+04 2.478e-09
 76.54032    -57.3 1.355e+04 3.291e-09
 76.55613    -57.2 1.391e+04 6.152e-09
 76.57616    -55.0 1.342e+04 4.414e-09
 76.59473    -55.0 1.378e+04 7.082e-09
 76.61457    -55.2 1.405e+04 1.111e-08
 76.63309    -55.4 1.446e+04 1.926e-08
 76.64306    -55.7 1.468e+04 2.097e-08
 76.65443    -56.4 1.529e+04 3.262e-08
 76.67437    -57.6 1.589e+04 4.519e-08
 76.69430    -59.5 1.641e+04 5.783e-08
 76.71423    -61.9 1.683e+04 7.265e-08
 76.73417    -64.5 1.715e+04 9.032e-08
 76.74590    -66.9 1.731e+04 1.030e-07
 76.75586    -68.2 1.741e+04 1.130e-07
 76.77403    -70.3 1.687e+04 1.046e-07
 76.79397    -71.4 1.594e+04 7.329e-08
 76.81172    -71.7 1.487e+04 4.275e-08
 76.82169    -72.0 1.571e+04 6.334e-08
 76.83383    -72.1 1.475e+04 3.909e-08
 76.84874    -71.8 1.385e+04 2.287e-08
 76.85870    -72.0 1.330e+04 1.448e-08
 76.87370    -71.3 1.285e+04 8.991e-09
 76.89363    -70.4 1.262e+04 6.223e-09
 76.91357    -69.3 1.250e+04 4.801e-09
 76.93350    -68.2 1.239e+04 4.025e-09
 76.95157    -67.0 1.229e+04 3.567e-09
 76.96154    -67.0 1.220e+04 3.272e-09
 76.97337    -65.4 1.213e+04 3.140e-09
 76.99330    -63.7 1.212e+04 3.125e-09
 77.01323    -62.1 1.214e+04 3.160e-09
 77.03317    -60.5 1.214e+04 3.198e-09
 77.05310    -58.8 1.212e+04 3.202e-09
 77.06438    -57.1 1.211e+04 3.262e-09
 77.06872    -57.6 1.217e+04 3.296e-09
 77.07738    -57.6 1.256e+04 4.323e-09
 77.09297    -57.5 1.310e+04 5.977e-09
 77.11290    -57.7 1.368e+04 1.272e-08
 77.13283    -57.2 1.455e+04 2.998e-08
 77.15277    -56.2 1.556e+04 6.056e-08
 77.16722    -55.9 1.635e+04 9.256e-08
 77.17718    -56.6 1.562e+04 5.998e-08
 77.19263    -56.9 1.569e+04 5.676e-08
 77.21257    -57.3 1.515e+04 3.549e-08
 77.23250    -58.0 1.465e+04 1.905e-08
 77.25244    -58.7 1.431e+04 1.015e-08
 77.27005    -59.4 1.404e+04 6.566e-09
 77.28002    -60.4 1.345e+04 5.020e-09
 77.29230    -59.7 1.319e+04 4.381e-09
 77.31224    -58.7 1.305e+04 4.087e-09
 77.32311    -57.6 1.298e+04 3.845e-09
 77.33307    -58.0 1.326e+04 4.237e-09
 77.35210    -56.8 1.318e+04 3.833e-09
 77.37204    -55.5 1.312e+04 3.474e-09
 77.38286    -54.4 1.313e+04 3.159e-09
 77.39282    -54.1 1.324e+04 2.196e-09
 77.41190    -53.1 1.335e+04 1.986e-09
 77.44190    -51.9 1.332e+04 1.991e-09
 77.48186    -49.5 1.324e+04 1.938e-09
 77.52173    -47.3 1.325e+04 1.860e-09
 77.55906    -44.9 1.321e+04 1.791e-09
 77.57899    -44.4 1.312e+04 1.643e-09
 77.58873    -41.9 1.299e+04 1.824e-09
 77.60866    -41.1 1.314e+04 1.058e-09
 77.64133    -38.6 1.305e+04 1.120e-09
 77.68120    -36.2 1.296e+04 1.191e-09
 77.72106    -33.9 1.283e+04 1.334e-09
 77.76093    -31.6 1.267e+04 1.570e-09
 77.79440    -29.2 1.254e+04 1.842e-09
 77.81434    -28.0 1.261e+04 1.548e-09
 77.84067    -25.4 1.248e+04 1.928e-09
 77.88053    -23.0 1.238e+04 2.237e-09
 77.92040    -20.8 1.234e+04 2.498e-09
 77.96027    -18.8 1.246e+04 2.860e-09
 77.99007    -17.0 1.255e+04 3.564e-09
 78.00985    -16.5 1.249e+04 3.813e-09
 78.02978    -15.5 1.283e+04 4.923e-09
 78.04977    -17.0 1.350e+04 6.502e-09
 78.06970    -19.2 1.426e+04 1.397e-08
 78.08022    -20.4 1.478e+04 3.027e-08
 78.09018    -18.9 1.428e+04 1.884e-08
 78.10957    -19.7 1.471e+04 3.117e-08
 78.12265    -20.8 1.479e+04 3.566e-08
 78.13262    -20.4 1.490e+04 4.063e-08
 78.14944    -21.2 1.423e+04 2.781e-08
 78.16937    -22.3 1.355e+04 1.525e-08
 78.18930    -23.5 1.311e+04 9.536e-09
 78.20924    -24.1 1.268e+04 7.315e-09
 78.22549    -24.2 1.247e+04 6.530e-09
 78.23546    -23.9 1.249e+04 6.564e-09
 78.24910    -23.8 1.241e+04 6.299e-09
 78.26904    -23.6 1.237e+04 6.221e-09
 78.28897    -23.5 1.234e+04 6.226e-09
 78.30890    -23.4 1.229e+04 6.292e-09
 78.32594    -23.6 1.234e+04 6.444e-09
 78.33540    -21.8 1.235e+04 6.461e-09
 78.33830    -21.6 1.244e+04 6.677e-09
 78.34877    -22.4 1.251e+04 7.459e-09
 78.36870    -23.5 1.252e+04 9.050e-09
 78.38864    -24.5 1.254e+04 1.111e-08
 78.40857    -25.5 1.257e+04 1.257e-08
 78.42850    -26.6 1.258e+04 1.302e-08
 78.44113    -27.4 1.253e+04 1.279e-08
 78.45110    -27.7 1.278e+04 1.422e-08
 78.46837    -28.8 1.263e+04 1.302e-08
 78.48830    -30.2 1.262e+04 1.267e-08
 78.50824    -32.1 1.305e+04 1.460e-08
 78.52817    -33.7 1.363e+04 2.443e-08
 78.54397    -34.1 1.429e+04 4.048e-08
 78.55389    -35.1 1.504e+04 5.463e-08
 78.56296    -35.3 1.564e+04 6.946e-08
 78.57292    -35.8 1.595e+04 7.551e-08
 78.58159    -36.3 1.609e+04 7.997e-08
 78.59160    -37.8 1.624e+04 8.033e-08
 78.60790    -40.4 1.628e+04 7.810e-08
 78.62784    -42.8 1.612e+04 7.068e-08
 78.64681    -45.5 1.612e+04 7.110e-08
 78.65677    -48.7 1.653e+04 7.791e-08
 78.66771    -52.3 1.696e+04 7.820e-08
 78.68764    -57.4 1.744e+04 7.610e-08
 78.70757    -63.1 1.721e+04 6.707e-08
 78.72751    -68.2 1.586e+04 5.316e-08
 78.74744    -71.8 1.434e+04 3.733e-08
 78.75961    -74.0 1.328e+04 2.387e-08
 78.76958    -76.0 1.273e+04 1.483e-08
 78.78731    -77.9 1.221e+04 1.021e-08
 78.80724    -79.1 1.185e+04 8.420e-09
 78.82717    -79.5 1.164e+04 7.434e-09
 78.83733    -79.7 1.147e+04 6.529e-09
 78.84730    -77.8 1.156e+04 7.500e-09
 78.86245    -77.7 1.137e+04 6.538e-09
 78.87242    -78.7 1.104e+04 5.096e-09
 78.88697    -78.4 1.095e+04 4.384e-09
 78.90691    -78.2 1.089e+04 3.844e-09
 78.92684    -77.8 1.089e+04 3.597e-09
 78.94677    -77.5 1.090e+04 3.555e-09
 78.96529    -77.5 1.110e+04 3.531e-09
 78.97525    -78.5 1.081e+04 3.623e-09
 78.98664    -78.8 1.107e+04 4.432e-09
 79.00657    -79.6 1.164e+04 5.922e-09
 79.02651    -80.9 1.262e+04 8.690e-09
 79.04644    -82.7 1.368e+04 1.356e-08
 79.06637    -84.6 1.446e+04 2.140e-08
 79.07809    -86.2 1.477e+04 3.373e-08
 79.08481    -88.5 1.537e+04 7.317e-08
 79.09302    -86.9 1.614e+04 9.025e-08
 79.10624    -87.7 1.685e+04 1.387e-07
 79.12617    -88.6 1.747e+04 1.852e-07
 79.14107    -89.8 1.759e+04 1.763e-07
 79.15099    -90.7 1.784e+04 1.945e-07
 79.16096    -92.7 1.809e+04 2.190e-07
 79.17093    -94.3 1.811e+04 2.228e-07
 79.18083    -95.5 1.790e+04 2.165e-07
 79.18581    -96.5 1.753e+04 2.092e-07
 79.19086    -97.3 1.716e+04 1.752e-07
 79.20083    -98.1 1.676e+04 1.383e-07
 79.21079    -98.9 1.627e+04 1.056e-07
 79.22076    -99.9 1.575e+04 8.229e-08
 79.23073   -100.7 1.501e+04 5.941e-08
 79.23723   -101.6 1.432e+04 4.441e-08
 79.24222   -101.8 1.426e+04 4.267e-08
 79.25066   -102.3 1.381e+04 3.584e-08
 79.26566   -102.7 1.336e+04 2.945e-08
 79.28377   -103.7 1.250e+04 2.055e-08
 79.29373   -103.8 1.191e+04 1.671e-08
 79.30557   -103.9 1.164e+04 1.435e-08
 79.32551   -103.7 1.141e+04 1.288e-08
 79.33875   -103.3 1.123e+04 1.196e-08
 79.34872   -103.0 1.145e+04 1.370e-08
 79.36537   -102.4 1.142e+04 1.355e-08
 79.38531   -101.9 1.146e+04 1.375e-08
 79.39657   -101.3 1.161e+04 1.481e-08
 79.40654   -100.2 1.139e+04 1.335e-08
 79.42517    -99.7 1.158e+04 1.487e-08
 79.44511    -99.1 1.186e+04 1.754e-08
 79.46504    -98.4 1.221e+04 2.128e-08
 79.48497    -97.9 1.258e+04 2.586e-08
 79.49941    -97.3 1.294e+04 3.102e-08
 79.50938    -96.3 1.242e+04 2.202e-08
 79.52484    -95.8 1.274e+04 2.586e-08
 79.54477    -95.3 1.302e+04 3.031e-08
 79.56471    -94.8 1.328e+04 3.471e-08
 79.58448    -94.2 1.344e+04 3.761e-08
 79.59444    -93.0 1.370e+04 4.184e-08
 79.60225    -92.5 1.375e+04 4.157e-08
 79.61221    -91.5 1.338e+04 3.296e-08
 79.62451    -91.0 1.353e+04 3.601e-08
 79.64444    -90.6 1.360e+04 3.675e-08
 79.66437    -90.6 1.364e+04 3.604e-08
 79.67928    -90.9 1.350e+04 3.315e-08
 79.68919    -91.0 1.351e+04 3.271e-08
 79.69916    -91.5 1.348e+04 3.151e-08
 79.70913    -91.8 1.349e+04 3.133e-08
 79.71495    -92.4 1.343e+04 3.073e-08
 79.71805    -91.6 1.372e+04 4.175e-08
 79.72219    -91.5 1.401e+04 4.573e-08
 79.72906    -92.1 1.405e+04 4.547e-08
 79.73903    -92.8 1.406e+04 4.511e-08
 79.74899    -93.3 1.415e+04 4.533e-08
 79.75896    -93.8 1.423e+04 4.622e-08
 79.76637    -94.2 1.429e+04 4.717e-08
 79.77135    -94.3 1.417e+04 4.607e-08
 79.77889    -94.8 1.428e+04 4.685e-08
 79.78886    -95.2 1.465e+04 5.036e-08
 79.79883    -96.0 1.547e+04 5.802e-08
 79.80879    -97.4 1.684e+04 7.357e-08
 79.81779    -99.9 1.852e+04 1.009e-07
 79.82277   -101.0 1.733e+04 6.204e-08
 79.82873   -104.2 1.875e+04 7.858e-08
 79.83869   -107.7 1.966e+04 1.119e-07
 79.84505   -110.9 2.000e+04 1.611e-07
 79.85004   -116.8 2.002e+04 3.944e-07
 79.85863   -118.3 1.929e+04 4.523e-07
 79.86859   -119.2 1.893e+04 4.893e-07
 79.87419   -119.6 1.864e+04 5.118e-07
 79.87918   -119.6 1.844e+04 5.601e-07
 79.88853   -119.4 1.838e+04 6.314e-07
 79.89849   -119.2 1.845e+04 7.182e-07
 79.90846   -119.2 1.835e+04 8.110e-07
 79.91843   -119.3 1.827e+04 8.515e-07
 79.92561   -119.2 1.811e+04 8.081e-07
 79.93059   -119.9 1.794e+04 7.411e-07
 79.93836   -119.9 1.776e+04 5.952e-07
 79.94833   -119.9 1.746e+04 4.586e-07
 79.95829   -119.6 1.721e+04 3.573e-07
 79.96792   -119.0 1.689e+04 2.373e-07
 79.97290   -119.3 1.650e+04 1.391e-07
 79.98326   -118.7 1.646e+04 1.141e-07
 80.00324   -118.4 1.588e+04 5.149e-08
 80.02317   -118.9 1.438e+04 1.989e-08
 80.03353   -119.5 1.196e+04 1.044e-08
 80.04350   -120.6 1.277e+04 1.798e-08
 80.06304   -120.9 1.065e+04 1.066e-08
 80.08298   -120.7 9.325e+03 7.791e-09
 80.09586   -120.0 8.632e+03 6.541e-09
 80.10583   -119.9 8.348e+03 5.539e-09
 80.12284   -118.8 8.455e+03 5.622e-09
 80.13637   -117.5 8.616e+03 5.992e-09
 80.14633   -118.1 8.778e+03 6.719e-09
 80.16271   -116.7 8.815e+03 6.835e-09
 80.18264   -115.2 8.815e+03 6.805e-09
 80.20258   -113.8 8.751e+03 6.345e-09
 80.22251   -112.3 8.624e+03 5.546e-09
 80.23921   -110.8 8.483e+03 4.623e-09
 80.24917   -111.0 8.366e+03 4.153e-09
 80.27244   -109.3 8.357e+03 3.745e-09
 80.31240   -107.1 8.189e+03 3.157e-09
 80.34224   -104.2 7.987e+03 2.627e-09
 80.36217   -104.3 7.964e+03 2.283e-09
 80.39214   -101.2 7.925e+03 2.044e-09
 80.43200    -98.2 7.957e+03 1.956e-09
 80.47187    -95.3 7.984e+03 1.937e-09
 80.51174    -92.7 8.145e+03 1.934e-09
 80.54791    -90.2 8.304e+03 2.022e-09
 80.56785    -90.1 8.336e+03 1.740e-09
 80.58751    -87.7 8.469e+03 1.781e-09
 80.60744    -87.7 8.330e+03 1.751e-09
 80.63134    -85.4 8.452e+03 1.846e-09
 80.67121    -83.3 8.602e+03 1.961e-09
 80.71107    -81.2 8.760e+03 2.079e-09
 80.75094    -79.2 8.905e+03 2.136e-09
 80.77352    -77.2 8.970e+03 2.137e-09
 80.79346    -76.4 9.019e+03 1.973e-09
 80.83067    -74.4 9.159e+03 1.996e-09
 80.87054    -72.4 9.298e+03 1.972e-09
 80.91041    -70.6 9.487e+03 1.972e-09
 80.95027    -68.8 9.732e+03 2.046e-09
 80.97920    -67.3 9.973e+03 2.262e-09
 80.99913    -66.7 1.005e+04 2.536e-09
 81.03001    -65.5 1.034e+04 3.077e-09
 81.06987    -64.7 1.066e+04 4.652e-09
 81.09889    -64.0 1.113e+04 7.479e-09
 81.11883    -66.0 1.166e+04 1.063e-08
 81.13954    -64.9 1.173e+04 1.085e-08
 81.15938    -65.4 1.194e+04 1.147e-08
 81.17931    -66.0 1.201e+04 1.159e-08
 81.19464    -66.7 1.191e+04 1.042e-08
 81.20471    -66.6 1.156e+04 8.416e-09
 81.22934    -67.6 1.156e+04 7.530e-09
 81.25914    -68.0 1.160e+04 7.419e-09
 81.27898    -70.9 1.234e+04 1.009e-08
 81.29748    -73.8 1.364e+04 2.303e-08
 81.30745    -74.5 1.390e+04 2.469e-08
 81.31884    -75.9 1.544e+04 6.552e-08
 81.33878    -77.9 1.626e+04 9.617e-08
 81.35439    -81.3 1.635e+04 9.703e-08
 81.36436    -81.6 1.595e+04 8.173e-08
 81.37864    -85.4 1.528e+04 4.288e-08
 81.39858    -89.6 1.424e+04 1.694e-08
 81.41029    -92.9 1.380e+04 1.124e-08
 81.42025    -92.3 1.392e+04 1.798e-08
 81.43844    -94.0 1.394e+04 1.611e-08
 81.45838    -95.0 1.409e+04 1.523e-08
 81.47831    -95.8 1.430e+04 1.356e-08
 81.49825    -96.3 1.417e+04 1.115e-08
 81.51312    -96.7 1.399e+04 8.816e-09
 81.52309    -96.1 1.360e+04 1.807e-08
 81.53811    -96.4 1.348e+04 1.349e-08
 81.55805    -96.6 1.344e+04 1.107e-08
 81.57798    -96.7 1.337e+04 9.813e-09
 81.59791    -96.7 1.328e+04 9.108e-09
 81.61008    -96.5 1.321e+04 8.859e-09
 81.61817    -95.9 1.326e+04 8.828e-09
 81.62593    -95.4 1.332e+04 1.200e-08
 81.63778    -95.3 1.335e+04 1.167e-08
 81.65771    -95.1 1.338e+04 1.172e-08
 81.67765    -94.8 1.352e+04 1.244e-08
 81.69758    -94.7 1.369e+04 1.345e-08
 81.71751    -94.7 1.382e+04 1.402e-08
 81.72876    -94.9 1.386e+04 1.420e-08
 81.73873    -94.8 1.384e+04 1.398e-08
 81.75738    -95.1 1.387e+04 1.302e-08
 81.77731    -95.2 1.381e+04 1.172e-08
 81.79725    -95.3 1.374e+04 1.027e-08
 81.81718    -95.2 1.363e+04 8.815e-09
 81.83160    -94.7 1.353e+04 7.506e-09
 81.84167    -94.3 1.384e+04 5.513e-09
 81.86721    -93.4 1.372e+04 3.568e-09
 81.90707    -91.9 1.348e+04 2.593e-09
 81.94694    -89.7 1.343e+04 2.353e-09
 81.98681    -87.5 1.344e+04 2.332e-09
 82.02667    -85.5 1.351e+04 2.600e-09
 82.04744    -83.6 1.364e+04 3.443e-09
 82.06737    -83.8 1.387e+04 3.249e-09
 82.10173    -82.2 1.411e+04 4.299e-09
 82.12167    -81.7 1.418e+04 4.144e-09
 82.14628    -80.4 1.445e+04 4.450e-09
 82.18614    -79.4 1.458e+04 4.542e-09
 82.22601    -78.5 1.480e+04 4.406e-09
 82.25311    -77.5 1.496e+04 4.265e-09
 82.27305    -77.4 1.519e+04 3.297e-09
 82.30574    -76.6 1.532e+04 3.858e-09
 82.34561    -75.8 1.527e+04 5.209e-09
 82.38548    -75.2 1.529e+04 6.857e-09
 82.42534    -74.6 1.524e+04 8.133e-09
 82.45879    -74.2 1.515e+04 8.104e-09
 82.47863    -73.3 1.536e+04 8.820e-09
 82.49491    -73.2 1.531e+04 8.817e-09
 82.51485    -73.0 1.522e+04 8.168e-09
 82.53478    -72.6 1.511e+04 7.455e-09
 82.55471    -72.1 1.504e+04 6.785e-09
 82.58471    -71.5 1.498e+04 5.560e-09
 82.61302    -70.3 1.496e+04 4.992e-09
 82.62289    -70.2 1.497e+04 5.691e-09
 82.63445    -69.7 1.501e+04 5.255e-09
 82.65438    -69.2 1.504e+04 5.062e-09
 82.67424    -68.7 1.504e+04 5.040e-09
 82.69417    -68.2 1.533e+04 4.351e-09
 82.71418    -67.7 1.530e+04 4.608e-09
 82.73411    -67.2 1.526e+04 4.725e-09
 82.75405    -66.7 1.510e+04 4.629e-09
 82.77398    -66.2 1.496e+04 4.353e-09
 82.78704    -65.7 1.488e+04 4.092e-09
 82.79701    -65.8 1.484e+04 4.024e-09
 82.82391    -64.9 1.474e+04 3.567e-09
 82.86388    -63.1 1.460e+04 2.673e-09
 82.89007    -61.5 1.440e+04 2.021e-09
 82.91001    -61.2 1.452e+04 1.599e-09
 82.94361    -59.4 1.425e+04 1.304e-09
 82.98348    -57.5 1.397e+04 1.141e-09
 83.02334    -55.5 1.374e+04 1.099e-09
 83.06321    -53.5 1.369e+04 1.095e-09
 83.09575    -51.6 1.361e+04 1.133e-09
 83.11568    -51.9 1.368e+04 1.022e-09
 83.12450    -50.0 1.370e+04 1.011e-09
 83.14444    -50.3 1.300e+04 1.370e-09
 83.18281    -48.5 1.309e+04 1.332e-09
 83.22268    -46.9 1.329e+04 1.317e-09
 83.26254    -45.7 1.381e+04 1.445e-09
 83.30142    -44.5 1.408e+04 1.786e-09
 83.32136    -44.7 1.419e+04 1.486e-09
 83.34228    -43.3 1.446e+04 1.743e-09
 83.38214    -42.0 1.461e+04 1.876e-09
 83.42201    -40.7 1.459e+04 1.908e-09
 83.46188    -39.1 1.452e+04 1.725e-09
 83.50175    -37.4 1.452e+04 1.438e-09
 83.52703    -35.8 1.460e+04 1.214e-09
 83.54697    -36.3 1.499e+04 1.095e-09
 83.58148    -34.7 1.507e+04 1.096e-09
 83.61596    -33.4 1.510e+04 1.304e-09
 83.63589    -34.5 1.482e+04 1.567e-09
 83.66121    -33.3 1.467e+04 1.879e-09
 83.70108    -32.3 1.450e+04 2.060e-09
 83.73271    -31.4 1.419e+04 2.087e-09
 83.75264    -32.0 1.440e+04 2.441e-09
 83.78081    -31.0 1.410e+04 2.255e-09
 83.82068    -30.1 1.384e+04 2.038e-09
 83.86055    -29.0 1.365e+04 1.855e-09
 83.90041    -27.6 1.352e+04 1.660e-09
 83.93838    -25.8 1.348e+04 1.404e-09
 83.95832    -25.7 1.387e+04 1.396e-09
 83.98015    -23.8 1.394e+04 1.058e-09
 84.02001    -21.9 1.395e+04 9.579e-10
 84.05988    -19.8 1.401e+04 9.733e-10
 84.09975    -18.1 1.389e+04 1.236e-09
 84.12734    -16.1 1.386e+04 1.563e-09
 84.14728    -17.2 1.397e+04 1.907e-09
 84.16399    -16.0 1.406e+04 2.917e-09
 84.18392    -17.3 1.431e+04 6.423e-09
 84.21935    -16.6 1.429e+04 1.015e-08
 84.25921    -16.2 1.466e+04 1.341e-08
 84.29908    -16.7 1.503e+04 1.286e-08
 84.33895    -17.5 1.494e+04 9.917e-09
 84.36967    -18.0 1.471e+04 7.721e-09
 84.38960    -19.1 1.464e+04 5.585e-09
 84.41868    -18.4 1.460e+04 5.449e-09
 84.45855    -17.6 1.453e+04 4.769e-09
 84.49841    -16.6 1.448e+04 4.464e-09
 84.53828    -15.3 1.430e+04 4.579e-09
 84.57534    -13.8 1.401e+04 4.575e-09
 84.59527    -13.6 1.389e+04 2.985e-09
 84.61801    -11.8 1.387e+04 2.421e-09
 84.63873     -9.8 1.401e+04 1.794e-09
 84.65866    -10.2 1.397e+04 1.249e-09
 84.69775     -8.3 1.397e+04 1.041e-09
 84.73761     -6.3 1.402e+04 9.937e-10
 84.77748     -4.0 1.393e+04 1.017e-09
 84.80095     -1.4 1.394e+04 9.722e-10
 84.82088     -1.1 1.389e+04 7.943e-10
 84.85721      1.6 1.442e+04 6.242e-10
 84.89708      3.5 1.461e+04 5.035e-10
 84.93695      5.7 1.442e+04 5.378e-10
 84.97682      7.6 1.439e+04 7.305e-10
 85.00663      9.9 1.430e+04 1.152e-09
 85.02656     10.2 1.424e+04 1.157e-09
 85.05655     12.4 1.441e+04 1.814e-09
 85.09642     14.0 1.469e+04 2.885e-09
 85.13018     15.4 1.470e+04 5.001e-09
 85.15011     15.7 1.457e+04 3.841e-09
 85.17615     17.2 1.468e+04 5.614e-09
 85.21230     18.9 1.482e+04 6.661e-09
 85.23223     19.0 1.475e+04 5.775e-09
 85.25588     20.8 1.493e+04 4.404e-09
 85.29575     22.2 1.509e+04 3.143e-09
 85.33562     24.0 1.522e+04 2.776e-09
 85.37548     25.9 1.535e+04 2.909e-09
 85.41535     27.5 1.555e+04 3.871e-09
 85.43791     29.0 1.545e+04 6.455e-09
 85.45784     29.4 1.533e+04 5.444e-09
 85.49508     31.1 1.525e+04 8.211e-09
 85.53495     32.4 1.533e+04 9.103e-09
 85.57482     33.8 1.530e+04 8.608e-09
 85.61468     35.4 1.528e+04 7.012e-09
 85.64157     37.0 1.526e+04 6.016e-09
 85.65053     37.2 1.535e+04 3.523e-09
 85.66352     37.4 1.536e+04 3.997e-09
 85.69442     38.8 1.542e+04 4.205e-09
 85.73428     40.0 1.545e+04 5.165e-09
 85.77415     40.9 1.518e+04 8.298e-09
 85.81402     41.7 1.505e+04 1.293e-08
 85.84926     42.1 1.499e+04 1.371e-08
 85.86919     41.0 1.478e+04 8.594e-09
 85.89375     41.6 1.457e+04 6.742e-09
 85.93362     42.4 1.439e+04 5.145e-09
 85.97348     43.9 1.420e+04 4.081e-09
 86.01335     45.8 1.405e+04 3.419e-09
 86.05322     47.9 1.398e+04 2.947e-09
 86.07487     50.3 1.394e+04 2.458e-09
 86.09480     50.6 1.383e+04 2.327e-09
 86.13295     53.0 1.383e+04 1.885e-09
 86.17282     55.3 1.386e+04 1.820e-09
 86.21268     57.6 1.379e+04 1.581e-09
 86.25255     59.9 1.371e+04 1.448e-09
 86.28054     62.2 1.362e+04 1.374e-09
 86.30048     62.6 1.349e+04 1.451e-09
 86.33229     64.9 1.340e+04 1.338e-09
 86.37215     67.2 1.335e+04 1.137e-09
 86.41202     69.4 1.334e+04 9.223e-10
 86.45189     71.5 1.331e+04 7.474e-10
 86.48622     73.7 1.315e+04 6.604e-10
 86.50615     74.2 1.313e+04 6.439e-10
 86.53162     76.4 1.297e+04 6.285e-10
 86.57149     78.7 1.295e+04 6.303e-10
 86.61135     81.0 1.289e+04 6.505e-10
 86.64440     83.2 1.279e+04 6.948e-10
 86.66434     83.0 1.278e+04 7.048e-10
 86.69109     85.2 1.268e+04 7.983e-10
 86.71183     87.4 1.259e+04 9.803e-10
 86.73176     87.5 1.262e+04 8.854e-10
 86.77082     89.6 1.246e+04 1.273e-09
 86.81069     91.5 1.238e+04 1.892e-09
 86.85055     93.2 1.244e+04 2.672e-09
 86.89042     94.4 1.260e+04 3.201e-09
 86.91750     95.3 1.266e+04 3.186e-09
 86.93743     95.0 1.239e+04 2.876e-09
 86.97015     96.0 1.244e+04 2.748e-09
 87.01002     97.0 1.247e+04 2.639e-09
 87.04989     98.2 1.249e+04 2.682e-09
 87.07969     98.8 1.252e+04 2.839e-09
 87.09952     99.3 1.257e+04 3.026e-09
 87.12308    100.1 1.267e+04 3.616e-09
 87.14311    100.4 1.258e+04 3.717e-09
 87.15579    101.4 1.273e+04 4.470e-09
 87.17572    100.0 1.283e+04 4.679e-09
 87.20935    100.7 1.294e+04 5.438e-09
 87.24922    101.1 1.304e+04 6.260e-09
 87.28909    101.4 1.308e+04 7.321e-09
 87.32885    101.5 1.305e+04 8.151e-09
 87.36872    101.5 1.291e+04 6.439e-09
 87.40869    101.4 1.291e+04 6.598e-09
 87.44855    101.4 1.286e+04 6.728e-09
 87.48842    101.7 1.273e+04 6.838e-09
 87.52829    102.5 1.262e+04 6.858e-09
 87.55446    104.0 1.263e+04 6.825e-09
 87.57439    104.2 1.259e+04 5.610e-09
 87.59796    104.9 1.264e+04 5.350e-09
 87.61779    105.3 1.277e+04 5.534e-09
 87.63773    105.8 1.289e+04 6.105e-09
 87.65701    106.6 1.291e+04 6.783e-09
 87.66698    106.8 1.255e+04 4.305e-09
 87.67759    107.6 1.256e+04 4.624e-09
 87.69753    108.5 1.257e+04 4.880e-09
 87.71746    109.3 1.264e+04 5.122e-09
 87.73739    110.0 1.279e+04 5.435e-09
 87.75733    110.7 1.295e+04 5.857e-09
 87.76991    111.3 1.306e+04 6.402e-09
 87.77987    111.4 1.269e+04 5.527e-09
 87.79719    112.1 1.266e+04 6.240e-09
 87.81713    112.7 1.267e+04 6.836e-09
 87.83706    113.2 1.275e+04 7.172e-09
 87.85699    113.6 1.280e+04 7.324e-09
 87.87274    113.9 1.280e+04 7.217e-09
 87.88271    114.2 1.220e+04 7.310e-09
 87.89686    114.3 1.212e+04 7.340e-09
 87.91271    114.5 1.206e+04 7.271e-09
 87.92267    114.0 1.190e+04 6.835e-09
 87.93673    114.2 1.191e+04 6.737e-09
 87.95666    114.4 1.194e+04 6.359e-09
 87.97558    114.7 1.202e+04 5.664e-09
 87.98555    114.9 1.275e+04 3.594e-09
 87.99653    114.9 1.270e+04 3.342e-09
 88.01646    114.8 1.264e+04 3.190e-09
 88.03639    114.7 1.263e+04 3.202e-09
 88.05633    114.5 1.265e+04 3.340e-09
 88.07626    114.0 1.265e+04 3.937e-09
 88.08839    113.4 1.269e+04 5.630e-09
 88.09835    113.4 1.250e+04 6.224e-09
 88.11613    113.1 1.255e+04 9.921e-09
 88.13606    113.1 1.276e+04 1.397e-08
 88.15599    112.9 1.310e+04 1.478e-08
 88.16840    112.1 1.318e+04 1.442e-08
 88.17837    112.2 1.307e+04 1.463e-08
 88.19122    111.2 1.326e+04 1.283e-08
 88.20119    111.8 1.315e+04 9.379e-09
 88.21579    111.3 1.313e+04 9.075e-09
 88.24579    110.1 1.317e+04 8.048e-09
 88.28576    109.1 1.324e+04 6.503e-09
 88.32562    108.5 1.324e+04 5.671e-09
 88.35543    107.9 1.325e+04 5.715e-09
 88.37526    106.8 1.353e+04 6.201e-09
 88.39519    105.4 1.393e+04 9.079e-09
 88.40687    104.3 1.409e+04 1.601e-08
 88.41583    104.0 1.411e+04 2.006e-08
 88.42409    105.0 1.394e+04 1.314e-08
 88.43506    104.2 1.417e+04 2.202e-08
 88.45499    103.6 1.451e+04 3.278e-08
 88.47493    102.8 1.490e+04 4.088e-08
 88.49486    101.4 1.526e+04 4.620e-08
 88.50970     99.5 1.556e+04 5.150e-08
 88.51967     98.9 1.533e+04 4.773e-08
 88.53473     96.9 1.531e+04 4.973e-08
 88.55466     95.0 1.512e+04 5.134e-08
 88.57459     93.4 1.493e+04 5.216e-08
 88.59453     92.0 1.469e+04 4.970e-08
 88.61254     90.4 1.440e+04 4.436e-08
 88.62251     90.7 1.356e+04 2.463e-08
 88.63440     89.1 1.322e+04 2.045e-08
 88.65433     87.8 1.283e+04 1.715e-08
 88.66982     86.9 1.242e+04 1.408e-08
 88.67979     87.9 1.318e+04 2.335e-08
 88.69420     87.5 1.268e+04 1.753e-08
 88.71413     87.5 1.225e+04 1.290e-08
 88.72535     87.7 1.191e+04 9.638e-09
 88.73531     88.6 1.194e+04 1.121e-08
 88.75400     89.0 1.171e+04 8.654e-09
 88.77393     89.4 1.143e+04 6.774e-09
 88.79386     90.0 1.112e+04 5.582e-09
 88.81380     90.7 1.087e+04 4.849e-09
 88.82818     91.6 1.069e+04 4.255e-09
 88.83815     92.3 1.086e+04 4.219e-09
 88.85366     93.1 1.069e+04 3.791e-09
 88.87360     94.1 1.062e+04 3.423e-09
 88.89353     94.9 1.059e+04 3.109e-09
 88.91346     95.8 1.057e+04 2.815e-09
 88.92551     96.4 1.050e+04 2.590e-09
 88.93310     97.0 1.067e+04 2.964e-09
 88.94099     98.1 1.079e+04 3.924e-09
 88.95333     98.8 1.077e+04 3.238e-09
 88.97326     99.2 1.068e+04 2.728e-09
 88.99320     99.9 1.053e+04 2.371e-09
 89.01313    100.4 1.038e+04 2.191e-09
 89.03306    101.1 1.022e+04 2.108e-09
 89.04382    101.8 1.017e+04 2.109e-09
 89.05379    102.6 1.045e+04 2.574e-09
 89.07293    103.0 1.044e+04 2.594e-09
 89.09286    103.5 1.044e+04 2.724e-09
 89.11280    103.8 1.051e+04 3.050e-09
 89.13273    104.2 1.064e+04 3.586e-09
 89.14666    104.5 1.089e+04 4.431e-09
 89.15663    103.5 1.182e+04 7.040e-09
 89.17124    102.7 1.260e+04 1.153e-08
 89.18120    101.6 1.312e+04 1.678e-08
 89.19253    100.8 1.406e+04 3.085e-08
 89.21246    100.5 1.494e+04 5.533e-08
 89.23240    100.5 1.565e+04 8.805e-08
 89.24950    100.8 1.628e+04 1.272e-07
 89.25947    100.3 1.642e+04 1.264e-07
 89.27226    100.2 1.653e+04 1.192e-07
 89.29220     99.6 1.662e+04 1.045e-07
 89.31213     98.5 1.660e+04 8.924e-08
 89.33206     97.3 1.634e+04 7.317e-08
 89.35200     96.6 1.572e+04 5.598e-08
 89.36230     96.4 1.490e+04 3.989e-08
 89.37227     95.9 1.416e+04 3.115e-08
 89.39186     96.3 1.365e+04 2.296e-08
 89.41180     96.7 1.321e+04 1.588e-08
 89.44179     97.7 1.290e+04 9.063e-09
 89.46534     98.7 1.271e+04 4.750e-09
 89.48527     98.5 1.274e+04 3.792e-09
 89.52163     99.9 1.251e+04 2.595e-09
 89.56149    101.6 1.229e+04 2.462e-09
 89.60136    103.9 1.229e+04 2.482e-09
 89.64123    106.3 1.240e+04 2.640e-09
 89.67101    108.7 1.257e+04 3.027e-09
 89.68270    109.4 1.254e+04 2.786e-09
 89.69279    111.1 1.250e+04 3.060e-09
 89.71090    112.0 1.270e+04 3.723e-09
 89.73073    112.9 1.276e+04 4.312e-09
 89.75066    114.0 1.285e+04 5.209e-09
 89.77060    115.1 1.291e+04 6.438e-09
 89.78362    116.3 1.307e+04 8.288e-09
 89.79359    116.7 1.304e+04 8.178e-09
 89.81046    117.6 1.324e+04 1.134e-08
 89.83040    118.5 1.348e+04 1.519e-08
 89.85033    119.1 1.389e+04 1.812e-08
 89.87026    119.4 1.435e+04 1.831e-08
 89.88646    119.5 1.441e+04 1.795e-08
 89.89643    120.0 1.464e+04 2.795e-08
 89.91013    120.1 1.469e+04 2.736e-08
 89.92835    120.2 1.477e+04 2.488e-08
 89.93832    119.6 1.488e+04 2.895e-08
 89.95000    119.4 1.483e+04 2.202e-08
 89.96993    118.6 1.481e+04 1.721e-08
 89.98930    116.7 1.506e+04 1.716e-08
 89.99926    116.4 1.557e+04 3.580e-08
 90.00980    113.3 1.614e+04 4.082e-08
 90.02973    109.5 1.665e+04 5.427e-08
 90.04967    105.4 1.686e+04 7.044e-08
 90.06960    101.9 1.685e+04 7.789e-08
 90.08953     99.0 1.660e+04 6.866e-08
 90.10210     96.6 1.614e+04 5.643e-08
 90.11207     96.8 1.576e+04 5.089e-08
 90.12940     95.3 1.543e+04 4.345e-08
 90.14933     94.5 1.512e+04 3.636e-08
 90.16927     94.2 1.484e+04 3.039e-08
 90.18404     94.1 1.469e+04 2.743e-08
 90.19401     94.9 1.459e+04 2.759e-08
 90.20494     94.7 1.459e+04 2.703e-08
 90.21490     94.9 1.442e+04 2.896e-08
 90.22907     94.7 1.453e+04 3.046e-08
 90.24900     94.4 1.462e+04 3.128e-08
 90.26893     94.4 1.449e+04 2.912e-08
 90.28887     94.5 1.418e+04 2.410e-08
 90.30778     94.7 1.368e+04 1.737e-08
 90.31774     94.7 1.388e+04 1.993e-08
 90.32873     94.9 1.331e+04 1.330e-08
 90.34867     95.2 1.269e+04 8.445e-09
 90.36860     95.4 1.221e+04 5.839e-09
 90.38853     96.0 1.181e+04 3.818e-09
 90.40847     96.1 1.170e+04 3.191e-09
 90.43846     97.8 1.149e+04 2.137e-09
 90.47843     99.6 1.130e+04 1.369e-09
 90.51365    101.4 1.111e+04 1.108e-09
 90.53358    101.8 1.102e+04 1.318e-09
 90.55816    103.8 1.060e+04 1.311e-09
 90.59803    106.0 1.050e+04 1.317e-09
 90.63790    108.1 1.046e+04 1.337e-09
 90.67569    110.1 1.034e+04 1.427e-09
 90.69562    110.2 1.032e+04 1.443e-09
 90.71763    112.1 1.022e+04 1.606e-09
 90.73925    114.0 1.013e+04 1.870e-09
 90.75919    114.2 1.014e+04 2.053e-09
 90.79736    116.1 1.008e+04 2.498e-09
 90.83723    118.0 1.012e+04 3.144e-09
 90.87710    119.7 1.024e+04 3.863e-09
 90.91696    121.0 1.028e+04 4.185e-09
 90.94493    122.1 1.026e+04 4.129e-09
 90.96486    122.0 1.017e+04 3.993e-09
 90.99670    123.2 1.003e+04 3.640e-09
 91.03656    124.5 9.789e+03 2.931e-09
 91.07643    126.0 9.560e+03 2.189e-09
 91.11630    127.6 9.350e+03 1.668e-09
 91.15060    129.3 9.231e+03 1.520e-09
 91.17054    129.4 9.330e+03 1.729e-09
 91.18708    131.2 9.331e+03 1.732e-09
 91.20701    130.7 9.166e+03 1.668e-09
 91.23590    132.3 9.219e+03 1.773e-09
 91.27576    133.7 9.348e+03 1.956e-09
 91.31563    134.9 9.513e+03 2.221e-09
 91.35550    135.7 9.725e+03 2.545e-09
 91.37621    136.2 9.909e+03 2.812e-09
 91.39615    135.2 1.001e+04 2.932e-09
 91.43523    134.9 1.028e+04 3.083e-09
 91.47510    134.3 1.055e+04 3.135e-09
 91.51496    132.9 1.065e+04 3.057e-09
 91.54477    131.6 1.068e+04 2.900e-09
 91.56460    130.6 1.064e+04 2.837e-09
 91.58169    129.6 1.060e+04 2.823e-09
 91.59166    128.9 1.043e+04 2.728e-09
 91.60447    128.0 1.046e+04 2.740e-09
 91.63447    126.2 1.062e+04 2.835e-09
 91.67443    123.7 1.066e+04 2.668e-09
 91.69460    122.2 1.058e+04 2.460e-09
 91.69859    122.0 1.071e+04 2.598e-09
 91.70823    121.2 1.069e+04 3.025e-09
 91.72407    119.7 1.077e+04 3.090e-09
 91.74400    118.2 1.092e+04 3.297e-09
 91.76394    116.5 1.111e+04 3.716e-09
 91.78387    114.8 1.137e+04 4.488e-09
 91.79734    112.5 1.187e+04 6.285e-09
 91.80730    111.0 1.218e+04 1.035e-08
 91.82374    107.9 1.326e+04 1.939e-08
 91.84367    105.0 1.454e+04 3.953e-08
 91.86360    102.7 1.550e+04 6.417e-08
 91.88354    100.7 1.574e+04 6.912e-08
 91.90017     99.1 1.549e+04 5.551e-08
 91.91014     98.2 1.518e+04 3.744e-08
 91.92340     96.5 1.427e+04 1.494e-08
 91.94334     93.1 1.293e+04 5.282e-09
 91.95396     90.6 1.186e+04 2.673e-09
 91.96393     85.6 1.047e+04 1.397e-09
 91.99314     86.1 1.015e+04 2.004e-09
 92.03311     85.3 9.947e+03 2.082e-09
 92.07310     85.4 1.003e+04 2.355e-09
 92.10290     84.9 1.016e+04 2.710e-09
 92.11581     84.5 1.027e+04 3.304e-09
 92.12578     84.3 1.021e+04 3.357e-09
 92.14267     83.7 1.039e+04 4.529e-09
 92.16260     83.0 1.075e+04 6.583e-09
 92.18254     82.2 1.129e+04 9.892e-09
 92.19969     81.3 1.190e+04 1.344e-08
 92.20965     80.5 1.190e+04 1.259e-08
 92.21865     79.3 1.218e+04 1.292e-08
 92.22862     79.2 1.227e+04 1.298e-08
 92.24234     77.7 1.229e+04 1.229e-08
 92.26227     76.3 1.228e+04 9.589e-09
 92.28220     74.4 1.225e+04 7.047e-09
 92.30214     73.1 1.229e+04 6.602e-09
 92.31704     72.4 1.258e+04 6.776e-09
 92.32638     67.2 1.700e+04 1.221e-08
 92.33136     70.2 1.473e+04 8.591e-09
 92.33242     58.5 2.218e+04 3.564e-08
 92.33740     53.4 2.165e+04 8.338e-08
 92.34689     51.4 1.881e+04 6.408e-07
 92.35686     52.2 1.779e+04 2.055e-06
 92.36682     53.0 1.765e+04 2.402e-06
 92.37679     53.3 1.779e+04 1.897e-06
 92.38278     52.6 1.861e+04 8.050e-07
 92.38776     50.3 1.774e+04 2.927e-06
 92.39672     49.9 1.995e+04 5.470e-07
 92.40669     47.5 2.428e+04 5.612e-08
 92.42169     37.0 2.136e+04 8.264e-09
 92.43429     23.6 1.234e+04 2.298e-09
 92.44426     25.7 1.439e+04 1.627e-09
 92.47167     25.7 1.204e+04 1.608e-09
 92.51163     27.4 1.143e+04 1.671e-09
 92.55150     28.8 1.130e+04 1.806e-09
 92.59137     29.7 1.113e+04 2.027e-09
 92.63020     30.6 1.093e+04 2.280e-09
 92.65013     31.0 1.102e+04 3.005e-09
 92.67110     32.0 1.082e+04 3.078e-09
 92.70130     33.4 1.061e+04 2.868e-09
 92.72123     33.4 1.035e+04 1.592e-09
 92.75083     34.6 1.026e+04 1.512e-09
 92.79070     35.7 1.026e+04 1.538e-09
 92.83057     36.5 1.026e+04 1.834e-09
 92.85581     37.6 1.015e+04 2.634e-09
 92.87574     38.0 1.004e+04 2.069e-09
 92.91030     39.2 9.967e+03 2.335e-09
 92.95017     40.6 9.893e+03 2.289e-09
 92.99003     42.2 9.712e+03 2.011e-09
 93.02990     44.0 9.526e+03 1.600e-09
 93.06148     45.9 9.407e+03 1.259e-09
 93.08141     46.1 9.451e+03 8.618e-10
 93.10963     48.1 9.319e+03 8.183e-10
 93.14950     50.3 9.307e+03 8.224e-10
 93.18937     52.4 9.305e+03 8.745e-10
 93.21269     54.3 9.330e+03 1.036e-09
 93.23262     54.5 9.452e+03 1.104e-09
 93.26716     56.0 9.587e+03 1.449e-09
 93.28709     57.0 9.651e+03 1.548e-09
 93.30897     58.1 9.978e+03 2.237e-09
 93.33877     58.6 1.007e+04 2.725e-09
 93.35861     59.0 1.025e+04 3.271e-09
 93.37854     59.3 1.047e+04 3.912e-09
 93.38973     59.5 1.068e+04 4.591e-09
 93.39970     59.8 1.096e+04 5.498e-09
 93.41841     60.1 1.122e+04 6.560e-09
 93.43834     60.4 1.144e+04 7.816e-09
 93.45822     60.6 1.164e+04 9.324e-09
 93.47815     60.8 1.167e+04 1.036e-08
 93.49257     60.8 1.181e+04 1.170e-08
 93.50254     61.2 1.214e+04 1.430e-08
 93.51807     61.0 1.223e+04 1.484e-08
 93.53801     60.7 1.231e+04 1.521e-08
 93.55794     59.9 1.247e+04 1.606e-08
 93.57787     58.1 1.299e+04 1.938e-08
 93.59100     55.2 1.439e+04 2.883e-08
 93.59593     55.3 1.432e+04 2.673e-08
 93.60029     52.1 1.557e+04 4.054e-08
 93.60528     53.0 1.605e+04 4.710e-08
 93.61266     48.7 1.756e+04 9.348e-08
 93.62263     45.5 1.804e+04 1.993e-07
 93.63259     44.0 1.767e+04 2.170e-07
 93.64256     43.3 1.735e+04 2.053e-07
 93.65171     44.0 1.647e+04 1.537e-07
 93.65670     44.7 1.697e+04 2.145e-07
 93.66249     44.6 1.640e+04 1.421e-07
 93.67749     42.9 1.532e+04 4.123e-08
 93.69747     33.6 1.425e+04 6.069e-09
 93.70821     24.1 9.638e+03 3.159e-09
 93.71468     23.3 9.964e+03 3.551e-09
 93.72388     23.2 9.832e+03 3.013e-09
 93.73734     22.4 9.434e+03 3.116e-09
 93.75727     22.6 9.491e+03 3.657e-09
 93.77721     23.1 9.672e+03 4.381e-09
 93.79714     23.6 9.866e+03 5.146e-09
 93.81105     24.1 1.001e+04 5.661e-09
 93.82102     24.0 1.005e+04 5.714e-09
 93.83701     24.3 1.017e+04 5.858e-09
 93.85694     24.7 1.009e+04 5.675e-09
 93.87687     25.1 1.007e+04 5.339e-09
 93.89681     25.6 9.989e+03 4.877e-09
 93.91389     26.3 9.879e+03 4.330e-09
 93.92385     26.5 9.781e+03 4.110e-09
 93.93667     27.2 9.643e+03 3.373e-09
 93.95661     27.4 9.636e+03 3.043e-09
 93.96960     27.9 9.487e+03 2.587e-09
 93.97957     27.5 9.768e+03 3.203e-09
 93.99647     28.0 9.628e+03 3.082e-09
 94.01641     28.6 9.722e+03 3.191e-09
 94.02669     28.9 1.009e+04 3.636e-09
 94.03666     29.4 9.733e+03 3.277e-09
 94.05627     28.5 1.075e+04 4.559e-09
 94.07621     24.0 1.352e+04 1.210e-08
 94.09614     19.5 1.544e+04 4.766e-08
 94.11607     20.1 1.612e+04 1.311e-07
 94.12953     21.3 1.647e+04 1.698e-07
 94.13950     21.5 1.576e+04 1.018e-07
 94.15594     21.9 1.560e+04 5.378e-08
 94.17587     13.1 1.863e+04 2.246e-08
 94.19581      0.9 1.321e+04 1.953e-08
 94.21533     -0.3 1.251e+04 2.886e-08
 94.22529     -0.3 1.251e+04 2.861e-08
 94.23237     -0.4 1.283e+04 2.370e-08
 94.24233      0.1 1.310e+04 2.567e-08
 94.25561     -0.7 1.297e+04 9.473e-09
 94.27554     -5.4 1.170e+04 5.016e-09
 94.29547     -7.1 1.122e+04 3.916e-09
 94.31541     -7.7 1.115e+04 3.730e-09
 94.33520     -8.0 1.116e+04 4.202e-09
 94.34517     -7.9 1.110e+04 4.413e-09
 94.35528     -7.4 1.118e+04 5.356e-09
 94.37521     -6.9 1.132e+04 6.534e-09
 94.39514     -6.9 1.145e+04 7.981e-09
 94.41508     -6.4 1.212e+04 1.123e-08
 94.43501     -8.5 1.403e+04 1.925e-08
 94.44801    -11.9 1.523e+04 4.537e-08
 94.45797     -9.6 1.550e+04 2.590e-08
 94.47102    -13.5 1.623e+04 6.942e-08
 94.48099    -13.9 1.802e+04 1.218e-07
 94.48978    -14.9 1.796e+04 2.525e-07
 94.49933    -15.4 1.810e+04 3.322e-07
 94.50431    -15.6 1.797e+04 2.693e-07
 94.50966    -15.4 1.805e+04 3.274e-07
 94.51963    -15.5 1.792e+04 3.168e-07
 94.52959    -15.6 1.767e+04 2.486e-07
 94.53956    -15.2 1.748e+04 1.858e-07
 94.55080    -17.0 1.639e+04 9.345e-08
 94.56081    -16.4 1.664e+04 1.278e-07
 94.57454    -17.6 1.537e+04 6.378e-08
 94.59448    -19.1 1.394e+04 3.673e-08
 94.61441    -19.8 1.294e+04 2.760e-08
 94.63434    -19.9 1.244e+04 2.338e-08
 94.65368    -19.7 1.205e+04 2.004e-08
 94.66365    -19.3 1.265e+04 2.415e-08
 94.67421    -19.3 1.216e+04 1.896e-08
 94.69414    -19.3 1.167e+04 1.459e-08
 94.71408    -19.4 1.115e+04 1.079e-08
 94.72671    -19.4 1.065e+04 7.911e-09
 94.73668    -19.8 1.183e+04 1.420e-08
 94.75394    -19.7 1.130e+04 1.068e-08
 94.76649    -19.6 1.086e+04 8.521e-09
 94.77645    -19.3 1.100e+04 1.061e-08
 94.79381    -18.7 1.081e+04 9.478e-09
 94.82381    -17.7 1.057e+04 8.614e-09
 94.86377    -15.4 1.006e+04 6.044e-09
 94.90364    -13.6 1.016e+04 4.640e-09
 94.93344    -12.7 9.442e+03 3.128e-09
 94.95328    -12.5 1.003e+04 3.064e-09
 94.97216    -11.9 1.057e+04 3.087e-09
 94.98136    -11.0 1.056e+04 3.060e-09
 94.98241    -18.5 1.943e+04 1.006e-08
 94.99314    -25.8 2.055e+04 5.473e-08
 95.00804    -28.7 1.985e+04 8.508e-08
 95.01796    -29.7 1.827e+04 1.787e-07
 95.02793    -29.6 1.758e+04 2.912e-07
 95.03345    -28.6 1.722e+04 3.542e-07
 95.03843    -28.6 1.719e+04 4.088e-07
 95.04786    -27.2 1.706e+04 4.130e-07
 95.05783    -26.1 1.674e+04 3.374e-07
 95.06780    -25.5 1.654e+04 2.305e-07
 95.07776    -25.3 1.643e+04 1.293e-07
 95.08487    -25.8 1.660e+04 6.591e-08
 95.08985    -25.0 1.675e+04 6.910e-08
 95.09770    -28.1 1.633e+04 3.348e-08
 95.11269    -32.3 1.370e+04 1.645e-08
 95.13268    -34.3 1.198e+04 1.228e-08
 95.15261    -34.6 1.166e+04 1.199e-08
 95.17254    -34.1 1.179e+04 1.481e-08
 95.18780    -33.4 1.207e+04 1.759e-08
 95.19777    -33.1 1.211e+04 1.657e-08
 95.21241    -32.6 1.227e+04 1.818e-08
 95.22813    -32.3 1.230e+04 1.866e-08
 95.23810    -32.9 1.228e+04 1.942e-08
 95.25228    -32.8 1.229e+04 1.959e-08
 95.27221    -32.7 1.214e+04 1.825e-08
 95.29064    -32.7 1.186e+04 1.596e-08
 95.30061    -32.1 1.197e+04 1.634e-08
 95.31208    -32.1 1.169e+04 1.429e-08
 95.33201    -32.1 1.147e+04 1.278e-08
 95.35194    -32.1 1.139e+04 1.189e-08
 95.37188    -32.4 1.143e+04 1.172e-08
 95.39181    -33.8 1.188e+04 1.341e-08
 95.40345    -35.3 1.236e+04 1.848e-08
 95.41341    -35.5 1.261e+04 1.931e-08
 95.43168    -36.3 1.307e+04 2.903e-08
 95.45161    -36.3 1.332e+04 3.511e-08
 95.47154    -36.2 1.329e+04 3.534e-08
 95.48383    -36.0 1.265e+04 2.513e-08
 95.49379    -36.3 1.282e+04 2.823e-08
 95.50628    -36.2 1.228e+04 2.049e-08
 95.51625    -36.6 1.342e+04 3.341e-08
 95.53134    -37.0 1.272e+04 2.161e-08
 95.55128    -37.7 1.213e+04 1.500e-08
 95.57121    -38.0 1.167e+04 1.222e-08
 95.59114    -37.9 1.137e+04 1.114e-08
 95.60912    -36.9 1.120e+04 1.044e-08
 95.61909    -37.1 1.152e+04 1.249e-08
 95.63101    -36.3 1.130e+04 1.059e-08
 95.65094    -35.6 1.112e+04 8.611e-09
 95.67088    -35.1 1.100e+04 7.182e-09
 95.70088    -34.4 1.083e+04 6.004e-09
 95.72975    -32.7 1.039e+04 3.854e-09
 95.74968    -33.2 1.046e+04 4.275e-09
 95.78071    -31.6 1.025e+04 2.919e-09
 95.81499    -30.2 1.017e+04 2.309e-09
 95.83493    -30.1 1.043e+04 3.892e-09
 95.86044    -28.5 1.027e+04 3.262e-09
 95.90031    -26.6 1.013e+04 2.602e-09
 95.94017    -24.5 1.003e+04 1.999e-09
 95.98004    -22.4 9.955e+03 1.537e-09
 96.01991    -20.3 9.922e+03 1.214e-09
 96.04060    -18.2 9.890e+03 1.013e-09
 96.06053    -17.9 9.984e+03 1.261e-09
 96.09964    -15.8 9.982e+03 1.114e-09
 96.13951    -13.9 9.988e+03 1.069e-09
 96.17937    -12.0 1.003e+04 1.094e-09
 96.21924    -10.4 1.005e+04 1.282e-09
 96.24113     -8.6 1.009e+04 1.536e-09
 96.24823     -9.7 1.033e+04 2.020e-09
 96.26621     -9.1 1.034e+04 1.939e-09
 96.29897     -7.6 1.041e+04 1.832e-09
 96.33884     -6.1 1.046e+04 1.540e-09
 96.37871     -4.7 1.050e+04 1.235e-09
 96.41858     -3.1 1.052e+04 9.911e-10
 96.45195     -1.4 1.065e+04 7.908e-10
 96.47188     -0.5 1.066e+04 9.625e-10
 96.49831      1.0 1.076e+04 8.794e-10
 96.53818      2.5 1.084e+04 9.121e-10
 96.57804      3.8 1.081e+04 1.100e-09
 96.61791      5.6 1.081e+04 1.324e-09
 96.65763      7.4 1.087e+04 1.445e-09
 96.69749      9.3 1.094e+04 1.332e-09
 96.73259     10.4 1.083e+04 1.373e-09
 96.75252      8.5 1.074e+04 1.034e-09
 96.77738      9.4 1.066e+04 1.213e-09
 96.81724     10.2 1.062e+04 1.484e-09
 96.85711     11.1 1.052e+04 1.803e-09
 96.88323     12.0 1.055e+04 1.838e-09
 96.90317     12.5 1.056e+04 1.838e-09
 96.93684     13.3 1.055e+04 1.721e-09
 96.97671     13.9 1.044e+04 1.688e-09
 97.01658     14.7 1.032e+04 1.807e-09
 97.05644     15.8 1.042e+04 2.088e-09
 97.08891     16.5 1.059e+04 2.551e-09
 97.10875     16.1 1.065e+04 2.817e-09
 97.12601     16.2 1.078e+04 3.479e-09
 97.14595     16.2 1.103e+04 4.593e-09
 97.16588     16.1 1.121e+04 6.041e-09
 97.18582     16.4 1.125e+04 7.559e-09
 97.20152     16.7 1.123e+04 7.801e-09
 97.21149     16.7 1.120e+04 6.917e-09
 97.22568     16.9 1.116e+04 6.007e-09
 97.24378     16.4 1.113e+04 5.201e-09
 97.25374     16.0 1.089e+04 4.437e-09
 97.26555     15.6 1.075e+04 4.160e-09
 97.28548     15.3 1.070e+04 4.111e-09
 97.30436     15.1 1.073e+04 4.213e-09
 97.31432     15.0 1.086e+04 4.855e-09
 97.32535     15.0 1.088e+04 5.085e-09
 97.34528     15.0 1.082e+04 5.105e-09
 97.36522     15.6 1.067e+04 4.778e-09
 97.38515     16.3 1.050e+04 4.093e-09
 97.40508     16.8 1.050e+04 3.211e-09
 97.41716     16.8 1.052e+04 2.762e-09
 97.42713     16.5 1.072e+04 3.425e-09
 97.45501     17.5 1.026e+04 2.576e-09
 97.49498     19.1 1.008e+04 2.554e-09
 97.52019     20.9 1.013e+04 2.647e-09
 97.54013     21.2 1.065e+04 4.550e-09
 97.57471     23.3 1.072e+04 4.985e-09
 97.61458     25.7 1.097e+04 6.287e-09
 97.65444     27.9 1.145e+04 8.481e-09
 97.68425     28.8 1.177e+04 1.032e-08
 97.70408     29.7 1.192e+04 1.223e-08
 97.72402     30.6 1.208e+04 1.454e-08
 97.73564     31.5 1.225e+04 1.634e-08
 97.74561     31.8 1.303e+04 2.377e-08
 97.75516     32.7 1.331e+04 2.568e-08
 97.76513     31.9 1.252e+04 1.790e-08
 97.78382     32.1 1.279e+04 2.077e-08
 97.80375     31.9 1.318e+04 2.469e-08
 97.82368     30.6 1.449e+04 3.811e-08
 97.83848     28.1 1.592e+04 6.661e-08
 97.84341     27.1 1.666e+04 9.021e-08
 97.84850     27.2 1.676e+04 1.039e-07
 97.85847     25.3 1.763e+04 1.850e-07
 97.86844     25.5 1.760e+04 2.094e-07
 97.87793     24.7 1.761e+04 2.237e-07
 97.88291     25.1 1.774e+04 2.371e-07
 97.88837     24.8 1.760e+04 2.264e-07
 97.90337     25.9 1.668e+04 1.331e-07
 97.92335     25.6 1.526e+04 5.141e-08
 97.94132     23.2 1.388e+04 1.840e-08
 97.95128     21.2 1.338e+04 1.426e-08
 97.96322     20.1 1.193e+04 8.645e-09
 97.98315     20.8 1.146e+04 7.168e-09
 98.00089     21.8 1.128e+04 6.363e-09
 98.01085     22.5 1.153e+04 7.577e-09
 98.02302     23.3 1.136e+04 6.773e-09
 98.04295     24.2 1.125e+04 6.207e-09
 98.05412     24.8 1.139e+04 6.080e-09
 98.06409     25.0 1.145e+04 6.109e-09
 98.08282     25.9 1.147e+04 5.673e-09
 98.10275     26.1 1.150e+04 5.699e-09
 98.13275     26.6 1.139e+04 7.055e-09
 98.15715     27.3 1.149e+04 9.252e-09
 98.17709     28.4 1.206e+04 1.105e-08
 98.20252     28.4 1.192e+04 1.279e-08
 98.22235     28.9 1.175e+04 1.327e-08
 98.24228     29.4 1.176e+04 1.292e-08
 98.25658     29.7 1.166e+04 1.153e-08
 98.26412     30.6 1.142e+04 9.575e-09
 98.26976     31.3 1.176e+04 1.242e-08
 98.28215     31.3 1.171e+04 1.084e-08
 98.30208     31.2 1.158e+04 9.546e-09
 98.32202     30.9 1.140e+04 8.847e-09
 98.34195     30.9 1.123e+04 8.469e-09
 98.36273     31.5 1.082e+04 6.942e-09
 98.38276     32.5 1.153e+04 9.805e-09
 98.41191     33.2 1.090e+04 6.601e-09
 98.45178     34.0 1.052e+04 4.615e-09
 98.49165     35.2 1.026e+04 4.042e-09
 98.53151     37.1 1.017e+04 3.943e-09
 98.56850     39.2 1.020e+04 3.864e-09
 98.58844     40.4 1.041e+04 4.458e-09
 98.61125     42.5 1.049e+04 4.404e-09
 98.65111     44.6 1.052e+04 4.263e-09
 98.69098     46.8 1.052e+04 4.146e-09
 98.73085     48.8 1.060e+04 4.182e-09
 98.75819     50.8 1.068e+04 4.333e-09
 98.76806     50.6 1.098e+04 5.221e-09
 98.78049     51.7 1.106e+04 5.630e-09
 98.79392     52.8 1.116e+04 5.790e-09
 98.80388     53.5 1.129e+04 6.358e-09
 98.82035     54.4 1.141e+04 6.462e-09
 98.84029     55.6 1.141e+04 6.191e-09
 98.86022     55.9 1.143e+04 6.075e-09
 98.89022     57.9 1.141e+04 5.503e-09
 98.93018     60.1 1.128e+04 3.974e-09
 98.95998     61.2 1.121e+04 3.422e-09
 98.97982     62.2 1.121e+04 2.971e-09
 98.99969     63.5 1.147e+04 2.516e-09
 99.01363     64.3 1.144e+04 2.520e-09
 99.02366     64.5 1.155e+04 2.503e-09
 99.03962     65.5 1.171e+04 2.306e-09
 99.05955     66.5 1.179e+04 2.266e-09
 99.07949     67.4 1.186e+04 2.261e-09
 99.09942     68.2 1.193e+04 2.279e-09
 99.11240     68.9 1.196e+04 2.335e-09
 99.12236     69.3 1.196e+04 2.359e-09
 99.13929     70.0 1.196e+04 2.435e-09
 99.15922     70.5 1.197e+04 2.614e-09
 99.17915     70.6 1.205e+04 2.988e-09
 99.19909     70.6 1.223e+04 3.728e-09
 99.21523     70.3 1.253e+04 5.250e-09
 99.22520     71.0 1.241e+04 5.188e-09
 99.23895     70.7 1.270e+04 7.553e-09
 99.25889     69.9 1.310e+04 1.125e-08
 99.26939     67.4 1.390e+04 1.972e-08
 99.27935     67.1 1.375e+04 2.188e-08
 99.29875     64.2 1.436e+04 3.036e-08
 99.31807     61.2 1.478e+04 3.724e-08
 99.32804     61.3 1.475e+04 3.753e-08
 99.33862     57.9 1.478e+04 3.421e-08
 99.35855     52.8 1.500e+04 3.044e-08
 99.37849     47.0 1.491e+04 3.009e-08
 99.39842     42.6 1.423e+04 2.721e-08
 99.41835     40.8 1.321e+04 1.871e-08
 99.43087     39.4 1.252e+04 9.796e-09
 99.44084     40.2 1.239e+04 9.545e-09
 99.45822     37.8 1.230e+04 4.594e-09
 99.47815     34.6 1.183e+04 2.994e-09
 99.49809     33.4 1.112e+04 2.819e-09
 99.51511     32.9 1.123e+04 3.108e-09
 99.52508     33.1 1.118e+04 2.918e-09
 99.53371     33.2 1.112e+04 3.026e-09
 99.54368     33.9 1.106e+04 3.028e-09
 99.56795     32.8 1.132e+04 4.082e-09
 99.60792     32.0 1.149e+04 6.084e-09
 99.63675     31.9 1.136e+04 5.463e-09
 99.65668     32.9 1.133e+04 5.700e-09
 99.68765     34.1 1.097e+04 2.596e-09
 99.72752     33.2 1.124e+04 9.606e-10
 99.76103     33.1 1.078e+04 8.091e-10
 99.78097     33.9 1.084e+04 1.021e-09
 99.80725     34.4 1.067e+04 1.155e-09
 99.84242     35.8 1.059e+04 1.499e-09
 99.86235     36.4 1.056e+04 1.534e-09
 99.88698     38.0 1.058e+04 1.557e-09
 99.92685     40.1 1.047e+04 1.342e-09
 99.96672     42.0 1.047e+04 9.016e-10
100.00658     43.4 1.052e+04 6.341e-10
