# Columns:
#   distance along LOS (in CHIMPs)
#   peculiar velocity  (in km/s)
#   temperature (K)
#   HI number density
# pos=(130.714,133.994,244.829), angles=(1.54403,1.49381)
  0.00055   -100.4 1.233e+04 1.518e-08
  0.01089    -99.8 1.248e+04 1.606e-08
  0.03049    -99.2 1.261e+04 1.710e-08
  0.05009    -98.5 1.276e+04 1.791e-08
  0.06662    -97.9 1.287e+04 1.825e-08
  0.07641    -97.8 1.293e+04 1.815e-08
  0.08928    -97.1 1.297e+04 1.839e-08
  0.10887    -96.4 1.297e+04 1.808e-08
  0.12847    -95.4 1.295e+04 1.655e-08
  0.14807    -94.5 1.281e+04 1.444e-08
  0.16766    -93.6 1.265e+04 1.214e-08
  0.18726    -92.7 1.245e+04 9.960e-09
  0.20686    -91.6 1.228e+04 8.253e-09
  0.22645    -90.5 1.218e+04 6.992e-09
  0.24605    -89.4 1.214e+04 6.172e-09
  0.26167    -88.3 1.211e+04 5.698e-09
  0.27146    -87.4 1.200e+04 4.866e-09
  0.28524    -86.3 1.199e+04 4.655e-09
  0.30484    -85.0 1.199e+04 4.624e-09
  0.32101    -83.7 1.204e+04 4.694e-09
  0.33081    -83.5 1.216e+04 6.147e-09
  0.34403    -82.3 1.223e+04 6.414e-09
  0.36363    -81.1 1.224e+04 6.564e-09
  0.38322    -79.8 1.222e+04 6.349e-09
  0.40282    -78.6 1.221e+04 5.787e-09
  0.42241    -77.4 1.218e+04 5.168e-09
  0.44201    -76.2 1.216e+04 4.527e-09
  0.46161    -75.0 1.212e+04 3.885e-09
  0.48120    -73.8 1.208e+04 3.269e-09
  0.50080    -72.5 1.211e+04 2.731e-09
  0.53029    -71.4 1.221e+04 2.241e-09
  0.56581    -69.3 1.220e+04 1.950e-09
  0.58540    -68.6 1.240e+04 2.138e-09
  0.60878    -66.6 1.240e+04 1.842e-09
  0.64797    -63.6 1.230e+04 1.533e-09
  0.68716    -60.6 1.234e+04 1.323e-09
  0.72635    -57.7 1.245e+04 1.205e-09
  0.76555    -54.7 1.249e+04 1.119e-09
  0.80474    -51.7 1.245e+04 1.045e-09
  0.84393    -48.8 1.242e+04 1.013e-09
  0.88312    -45.9 1.240e+04 1.021e-09
  0.92232    -43.2 1.235e+04 1.150e-09
  0.96151    -40.6 1.226e+04 1.445e-09
  0.98933    -37.8 1.222e+04 1.844e-09
  1.00893    -37.5 1.237e+04 1.401e-09
  1.03989    -34.8 1.236e+04 1.462e-09
  1.07460    -32.0 1.235e+04 1.366e-09
  1.09419    -31.9 1.236e+04 1.379e-09
  1.11828    -29.0 1.236e+04 1.212e-09
  1.15747    -26.2 1.234e+04 1.061e-09
  1.19666    -23.3 1.229e+04 1.006e-09
  1.23586    -20.5 1.240e+04 1.023e-09
  1.27505    -18.4 1.241e+04 1.339e-09
  1.31424    -16.2 1.231e+04 2.388e-09
  1.35343    -13.8 1.237e+04 4.522e-09
  1.39263    -11.5 1.263e+04 6.825e-09
  1.43182    -10.0 1.279e+04 7.587e-09
  1.47101     -9.0 1.291e+04 7.665e-09
  1.51020     -8.5 1.305e+04 8.526e-09
  1.54940     -8.1 1.307e+04 1.026e-08
  1.58339     -8.1 1.312e+04 1.026e-08
  1.60298     -9.1 1.301e+04 9.703e-09
  1.62778     -9.2 1.258e+04 1.047e-08
  1.66697     -8.7 1.238e+04 6.632e-09
  1.70617     -8.8 1.198e+04 5.221e-09
  1.74536     -7.7 1.147e+04 4.527e-09
  1.78455     -5.9 1.133e+04 3.092e-09
  1.82375     -4.5 1.125e+04 1.939e-09
  1.86294     -3.3 1.112e+04 1.692e-09
  1.90213     -1.9 1.112e+04 1.888e-09
  1.94132     -0.2 1.121e+04 2.316e-09
  1.98052      1.4 1.135e+04 2.567e-09
  2.01971      2.5 1.153e+04 2.764e-09
  2.05890      3.3 1.178e+04 3.108e-09
  2.08820      3.7 1.176e+04 3.421e-09
  2.10178      4.0 1.174e+04 3.427e-09
  2.11168      3.4 1.180e+04 3.690e-09
  2.13729      4.0 1.191e+04 3.829e-09
  2.17648      4.5 1.179e+04 3.779e-09
  2.21567      5.2 1.159e+04 3.758e-09
  2.25486      6.2 1.137e+04 3.714e-09
  2.29406      7.5 1.124e+04 3.865e-09
  2.33325      8.4 1.114e+04 4.433e-09
  2.37244      9.2 1.121e+04 5.487e-09
  2.41163     10.3 1.122e+04 6.312e-09
  2.44093     10.8 1.118e+04 6.553e-09
  2.45388     11.0 1.117e+04 6.678e-09
  2.46368     11.5 1.090e+04 5.467e-09
  2.48003     11.6 1.089e+04 5.933e-09
  2.49962     12.2 1.088e+04 6.304e-09
  2.51922     12.1 1.105e+04 7.548e-09
  2.53881     12.6 1.108e+04 8.743e-09
  2.55841     12.4 1.137e+04 1.083e-08
  2.57801     12.8 1.138e+04 1.249e-08
  2.59760     12.9 1.150e+04 1.449e-08
  2.61057     13.1 1.150e+04 1.502e-08
  2.62037     13.2 1.136e+04 1.362e-08
  2.63680     13.4 1.134e+04 1.395e-08
  2.65639     13.9 1.117e+04 1.306e-08
  2.67599     14.6 1.083e+04 1.098e-08
  2.69558     15.4 1.042e+04 8.530e-09
  2.71518     16.0 1.016e+04 6.551e-09
  2.73478     16.1 9.966e+03 5.089e-09
  2.75437     16.2 9.723e+03 4.302e-09
  2.77397     16.8 9.718e+03 4.318e-09
  2.79357     17.1 9.893e+03 4.688e-09
  2.81316     17.3 1.020e+04 5.650e-09
  2.83276     17.3 1.063e+04 7.534e-09
  2.85235     17.0 1.120e+04 1.102e-08
  2.86497     17.0 1.174e+04 1.609e-08
  2.87477     16.8 1.175e+04 1.615e-08
  2.89155     17.0 1.220e+04 2.058e-08
  2.91114     16.7 1.258e+04 2.093e-08
  2.93074     14.6 1.326e+04 2.244e-08
  2.95034      9.2 1.445e+04 3.093e-08
  2.96993      5.8 1.413e+04 3.974e-08
  2.98953      6.3 1.322e+04 2.699e-08
  3.00913      4.5 1.274e+04 1.568e-08
  3.02872      2.3 1.197e+04 7.867e-09
  3.04832      1.2 1.095e+04 5.866e-09
  3.06791      1.9 1.059e+04 3.701e-09
  3.08751      2.2 1.070e+04 3.303e-09
  3.10711      3.1 1.074e+04 2.664e-09
  3.11937      3.3 1.067e+04 2.631e-09
  3.12926      3.4 1.061e+04 2.909e-09
  3.15629      5.0 1.071e+04 2.745e-09
  3.19549      6.4 1.079e+04 3.038e-09
  3.23468      7.9 1.086e+04 3.331e-09
  3.27387      8.9 1.081e+04 3.487e-09
  3.30317      9.7 1.077e+04 3.570e-09
  3.32267     10.1 1.078e+04 3.991e-09
  3.34226     10.4 1.079e+04 4.439e-09
  3.36186     10.7 1.082e+04 4.799e-09
  3.37376     11.1 1.065e+04 4.705e-09
  3.38356     11.1 1.050e+04 4.038e-09
  3.40105     11.3 1.039e+04 3.696e-09
  3.42065     11.4 1.033e+04 2.988e-09
  3.44024     11.2 1.032e+04 2.706e-09
  3.45984     10.8 1.035e+04 2.766e-09
  3.47944     10.7 1.033e+04 2.818e-09
  3.49903     10.1 1.049e+04 3.605e-09
  3.51863     10.6 1.042e+04 4.566e-09
  3.53823     10.6 1.066e+04 6.109e-09
  3.55782     11.1 1.060e+04 7.130e-09
  3.57742     12.1 1.052e+04 6.384e-09
  3.59701     12.0 1.064e+04 5.911e-09
  3.61846     11.9 1.043e+04 4.212e-09
  3.63815     12.8 9.984e+03 4.197e-09
  3.66580     12.8 9.929e+03 3.691e-09
  3.70499     12.8 1.001e+04 3.946e-09
  3.74418     13.2 1.013e+04 3.823e-09
  3.78337     14.1 1.009e+04 2.507e-09
  3.82257     13.5 1.012e+04 1.442e-09
  3.86176     13.3 9.915e+03 1.404e-09
  3.89922     13.2 9.886e+03 2.020e-09
  3.91882     13.7 1.015e+04 3.295e-09
  3.94014     14.3 1.022e+04 3.268e-09
  3.97934     15.6 1.022e+04 2.882e-09
  4.01853     17.2 1.016e+04 2.043e-09
  4.05772     18.5 1.009e+04 1.337e-09
  4.09691     19.8 9.996e+03 1.105e-09
  4.12735     21.3 1.003e+04 1.198e-09
  4.14694     21.3 9.888e+03 1.056e-09
  4.17530     22.7 1.000e+04 1.454e-09
  4.21449     24.1 1.013e+04 2.736e-09
  4.25369     25.7 1.033e+04 4.877e-09
  4.29288     26.8 1.033e+04 5.813e-09
  4.33207     27.6 1.016e+04 5.458e-09
  4.37126     28.4 9.733e+03 4.337e-09
  4.41046     29.4 9.281e+03 3.123e-09
  4.44965     30.6 8.937e+03 2.183e-09
  4.48884     32.1 8.682e+03 1.540e-09
  4.52803     33.5 8.479e+03 1.155e-09
  4.56723     35.0 8.344e+03 1.037e-09
  4.60642     36.5 8.383e+03 1.146e-09
  4.63614     37.9 8.512e+03 1.593e-09
  4.65573     37.5 8.843e+03 2.480e-09
  4.68480     39.1 9.183e+03 3.932e-09
  4.72400     40.5 9.481e+03 5.140e-09
  4.76319     41.9 9.702e+03 5.427e-09
  4.79249     43.0 9.554e+03 4.956e-09
  4.81198     43.7 9.454e+03 4.571e-09
  4.83158     44.4 9.451e+03 4.328e-09
  4.85118     45.2 9.477e+03 4.323e-09
  4.87077     46.1 9.565e+03 4.413e-09
  4.89034     46.9 9.762e+03 4.745e-09
  4.90994     47.6 1.011e+04 5.954e-09
  4.92956     48.5 1.030e+04 6.634e-09
  4.94916     49.3 1.056e+04 7.562e-09
  4.96875     50.0 1.086e+04 8.879e-09
  4.98835     50.5 1.115e+04 1.064e-08
  5.00795     51.1 1.134e+04 1.306e-08
  5.02754     51.7 1.159e+04 1.599e-08
  5.04714     52.5 1.188e+04 1.928e-08
  5.06674     53.4 1.236e+04 2.283e-08
  5.08633     54.1 1.252e+04 2.252e-08
  5.10593     54.4 1.261e+04 2.065e-08
  5.12552     54.4 1.245e+04 1.669e-08
  5.14473     54.1 1.212e+04 1.263e-08
  5.15453     54.3 1.195e+04 1.147e-08
  5.16472     54.1 1.156e+04 8.208e-09
  5.18431     53.6 1.109e+04 6.387e-09
  5.20391     53.3 1.093e+04 6.285e-09
  5.22351     52.7 1.109e+04 6.786e-09
  5.24310     50.9 1.200e+04 9.871e-09
  5.26270     48.7 1.334e+04 1.882e-08
  5.28229     47.1 1.405e+04 2.883e-08
  5.30189     45.9 1.402e+04 2.732e-08
  5.32149     44.5 1.378e+04 1.882e-08
  5.34108     41.8 1.339e+04 1.016e-08
  5.36068     38.4 1.243e+04 5.685e-09
  5.37356     35.5 1.142e+04 4.141e-09
  5.38336     39.1 1.212e+04 5.970e-09
  5.39913     36.5 1.138e+04 4.010e-09
  5.40893     37.3 1.232e+04 6.027e-09
  5.41947     34.4 1.175e+04 4.744e-09
  5.43907     32.3 1.231e+04 5.581e-09
  5.45866     29.2 1.324e+04 8.912e-09
  5.47826     24.9 1.419e+04 2.237e-08
  5.49785     22.3 1.507e+04 5.760e-08
  5.51745     22.1 1.533e+04 7.396e-08
  5.53705     22.3 1.508e+04 5.159e-08
  5.55664     18.7 1.550e+04 2.480e-08
  5.57624     11.2 1.448e+04 1.593e-08
  5.59584      6.0 1.336e+04 1.614e-08
  5.61543      4.5 1.341e+04 2.250e-08
  5.63503      3.8 1.361e+04 2.363e-08
  5.65353      2.7 1.369e+04 1.977e-08
  5.66332      1.4 1.395e+04 2.200e-08
  5.67422     -0.6 1.337e+04 1.699e-08
  5.69382     -1.4 1.272e+04 1.518e-08
  5.71341     -1.2 1.230e+04 1.279e-08
  5.73301     -1.1 1.190e+04 8.574e-09
  5.75261     -1.2 1.105e+04 6.581e-09
  5.77220     -0.8 1.071e+04 3.823e-09
  5.79180     -0.8 1.019e+04 2.976e-09
  5.82129     -0.4 1.007e+04 2.112e-09
  5.86058      1.1 9.588e+03 1.330e-09
  5.89977      2.5 9.372e+03 9.353e-10
  5.93897      3.9 9.195e+03 8.519e-10
  5.97816      5.4 9.147e+03 9.255e-10
  6.01735      7.0 9.055e+03 1.124e-09
  6.05654      8.6 9.200e+03 1.390e-09
  6.09574     10.1 9.370e+03 1.877e-09
  6.13493     11.5 9.555e+03 2.548e-09
  6.16251     12.7 9.901e+03 3.720e-09
  6.18211     12.4 9.868e+03 3.720e-09
  6.21331     13.7 1.076e+04 7.124e-09
  6.24261     13.1 1.148e+04 1.033e-08
  6.26211     11.6 1.252e+04 1.758e-08
  6.28171     10.9 1.358e+04 3.373e-08
  6.30130     11.3 1.424e+04 4.799e-08
  6.32090     12.0 1.409e+04 4.448e-08
  6.34049     12.4 1.362e+04 3.173e-08
  6.36009     11.5 1.323e+04 2.003e-08
  6.37969     10.1 1.257e+04 1.292e-08
  6.39928      9.1 1.192e+04 9.937e-09
  6.41671      8.8 1.164e+04 9.162e-09
  6.42651      7.8 1.155e+04 9.664e-09
  6.43848      7.5 1.158e+04 9.652e-09
  6.45807      7.2 1.166e+04 1.011e-08
  6.47767      6.8 1.169e+04 1.129e-08
  6.49726      6.6 1.167e+04 1.222e-08
  6.51686      6.5 1.162e+04 1.253e-08
  6.53646      6.0 1.167e+04 1.244e-08
  6.55605      4.6 1.188e+04 1.273e-08
  6.57565      2.9 1.206e+04 1.448e-08
  6.59525      1.5 1.209e+04 1.610e-08
  6.61484      0.6 1.217e+04 1.817e-08
  6.63444     -0.6 1.204e+04 1.753e-08
  6.65404     -2.4 1.201e+04 1.701e-08
  6.67111     -4.7 1.214e+04 1.987e-08
  6.68091     -5.0 1.167e+04 1.603e-08
  6.69323     -8.9 1.286e+04 2.296e-08
  6.71282    -12.6 1.378e+04 4.119e-08
  6.73242    -14.6 1.510e+04 6.290e-08
  6.75202    -17.6 1.586e+04 7.120e-08
  6.77161    -22.0 1.494e+04 4.753e-08
  6.79121    -26.6 1.282e+04 2.579e-08
  6.81081    -29.7 1.141e+04 1.421e-08
  6.82851    -32.1 1.031e+04 8.550e-09
  6.83831    -32.3 1.155e+04 1.271e-08
  6.85000    -34.4 1.109e+04 9.024e-09
  6.86959    -36.1 1.113e+04 8.548e-09
  6.88919    -37.1 1.139e+04 1.034e-08
  6.90879    -37.5 1.169e+04 1.319e-08
  6.92551    -37.2 1.177e+04 1.587e-08
  6.93530    -36.8 1.162e+04 1.468e-08
  6.94798    -36.1 1.160e+04 1.652e-08
  6.96758    -35.1 1.146e+04 1.719e-08
  6.98717    -34.0 1.126e+04 1.637e-08
  7.00677    -32.8 1.106e+04 1.480e-08
  7.02636    -31.7 1.085e+04 1.252e-08
  7.04596    -30.6 1.057e+04 1.005e-08
  7.06556    -29.6 1.026e+04 7.957e-09
  7.08515    -28.5 1.005e+04 6.590e-09
  7.10475    -27.4 9.890e+03 5.615e-09
  7.12435    -26.2 9.712e+03 4.814e-09
  7.14394    -25.0 9.539e+03 4.282e-09
  7.16354    -23.8 9.554e+03 4.133e-09
  7.18000    -22.8 9.773e+03 4.213e-09
  7.18980    -22.2 9.874e+03 4.498e-09
  7.20273    -21.8 9.952e+03 4.619e-09
  7.23222    -20.8 9.882e+03 4.820e-09
  7.27151    -18.6 9.981e+03 5.527e-09
  7.31071    -16.7 1.015e+04 6.272e-09
  7.34990    -15.0 1.042e+04 6.972e-09
  7.38909    -13.8 1.089e+04 8.284e-09
  7.41839    -12.0 1.111e+04 1.035e-08
  7.43430    -11.6 1.147e+04 1.246e-08
  7.44410    -12.5 1.184e+04 1.374e-08
  7.45748    -12.5 1.197e+04 1.495e-08
  7.47708    -17.4 1.547e+04 1.904e-08
  7.49668    -29.4 1.951e+04 4.471e-08
  7.51627    -38.2 1.834e+04 1.217e-07
  7.53587    -41.7 1.753e+04 1.611e-07
  7.55546    -43.3 1.656e+04 1.168e-07
  7.56578    -45.4 1.487e+04 4.667e-08
  7.57558    -42.8 1.524e+04 6.490e-08
  7.59466    -45.4 1.320e+04 2.591e-08
  7.61425    -48.4 1.072e+04 1.105e-08
  7.63385    -49.6 9.571e+03 7.003e-09
  7.65345    -49.4 9.174e+03 5.606e-09
  7.67304    -48.7 8.934e+03 4.509e-09
  7.68869    -48.0 8.702e+03 3.517e-09
  7.69849    -48.2 8.612e+03 3.244e-09
  7.71223    -47.7 8.531e+03 2.747e-09
  7.74173    -47.1 8.502e+03 2.460e-09
  7.78102    -45.7 8.307e+03 2.084e-09
  7.82021    -44.0 8.225e+03 1.955e-09
  7.85940    -42.2 8.246e+03 1.967e-09
  7.89860    -40.3 8.283e+03 1.995e-09
  7.93779    -38.5 8.307e+03 1.985e-09
  7.97698    -36.9 8.338e+03 1.983e-09
  8.01617    -35.3 8.514e+03 2.240e-09
  8.05537    -34.0 8.775e+03 2.784e-09
  8.09456    -32.9 9.098e+03 3.665e-09
  8.13375    -31.8 9.380e+03 4.426e-09
  8.17294    -30.9 9.477e+03 4.564e-09
  8.19768    -30.2 9.402e+03 3.598e-09
  8.21728    -30.8 9.473e+03 3.585e-09
  8.25133    -30.4 9.456e+03 2.714e-09
  8.28365    -29.7 9.457e+03 2.467e-09
  8.30324    -28.7 9.178e+03 1.688e-09
  8.32971    -27.5 9.209e+03 1.668e-09
  8.36891    -26.1 9.226e+03 1.593e-09
  8.40810    -24.4 9.173e+03 1.360e-09
  8.44729    -22.8 9.236e+03 1.123e-09
  8.48648    -21.5 9.324e+03 9.978e-10
  8.52568    -20.8 9.819e+03 1.140e-09
  8.56487    -20.4 9.991e+03 2.325e-09
  8.60406    -19.1 1.036e+04 4.606e-09
  8.64325    -17.7 1.077e+04 6.078e-09
  8.68245    -17.2 1.089e+04 5.928e-09
  8.70647    -16.9 1.101e+04 5.005e-09
  8.72607    -18.3 1.103e+04 4.686e-09
  8.75094    -17.9 1.122e+04 4.836e-09
  8.77043    -18.0 1.131e+04 5.016e-09
  8.79003    -18.4 1.165e+04 6.754e-09
  8.80963    -18.8 1.178e+04 7.534e-09
  8.82922    -18.7 1.236e+04 1.230e-08
  8.84882    -19.0 1.261e+04 1.349e-08
  8.86842    -19.5 1.310e+04 1.787e-08
  8.88801    -19.6 1.336e+04 1.836e-08
  8.90761    -20.5 1.328e+04 1.457e-08
  8.92720    -20.7 1.321e+04 1.227e-08
  8.94680    -21.4 1.289e+04 7.774e-09
  8.96067    -21.2 1.277e+04 5.821e-09
  8.97047    -21.4 1.262e+04 5.198e-09
  8.98599    -21.9 1.246e+04 3.069e-09
  9.00559    -21.4 1.232e+04 2.412e-09
  9.03508    -20.8 1.259e+04 1.813e-09
  9.07437    -19.5 1.246e+04 1.176e-09
  9.11357    -18.1 1.236e+04 9.064e-10
  9.15276    -16.5 1.221e+04 8.118e-10
  9.19195    -14.7 1.211e+04 7.789e-10
  9.21526    -12.6 1.204e+04 7.497e-10
  9.23486    -13.0 1.211e+04 7.154e-10
  9.27034    -10.8 1.212e+04 6.513e-10
  9.30953     -8.9 1.221e+04 5.652e-10
  9.34872     -7.0 1.210e+04 5.518e-10
  9.38791     -5.0 1.211e+04 5.579e-10
  9.42711     -2.7 1.209e+04 5.190e-10
  9.46630     -0.1 1.201e+04 4.296e-10
  9.50549      2.0 1.204e+04 3.768e-10
  9.54468      4.3 1.206e+04 3.800e-10
  9.58388      6.4 1.209e+04 4.324e-10
  9.62307      8.4 1.190e+04 6.013e-10
  9.66226     10.5 1.185e+04 8.629e-10
  9.70145     12.6 1.203e+04 1.091e-09
  9.72405     14.5 1.220e+04 1.210e-09
  9.74160     14.4 1.217e+04 9.810e-10
  9.75819     14.1 1.211e+04 9.916e-10
  9.77984     15.7 1.220e+04 1.130e-09
  9.81903     17.0 1.228e+04 1.526e-09
  9.85822     17.6 1.227e+04 2.215e-09
  9.88752     18.3 1.214e+04 2.821e-09
  9.90702     18.9 1.214e+04 3.658e-09
  9.92662     19.4 1.223e+04 4.510e-09
  9.94621     19.9 1.232e+04 5.215e-09
  9.96581     20.1 1.241e+04 5.827e-09
  9.97825     20.1 1.251e+04 6.505e-09
  9.98805     20.3 1.251e+04 5.610e-09
 10.00500     20.0 1.265e+04 6.663e-09
 10.02460     19.4 1.287e+04 9.023e-09
 10.04419     18.4 1.326e+04 1.420e-08
 10.06379     17.5 1.374e+04 2.300e-08
 10.08339     16.6 1.407e+04 2.881e-08
 10.10298     15.7 1.394e+04 2.699e-08
 10.12258     15.2 1.340e+04 1.934e-08
 10.14217     14.1 1.274e+04 1.115e-08
 10.16177     13.3 1.201e+04 5.712e-09
 10.18137     12.9 1.194e+04 4.911e-09
 10.21086     11.7 1.120e+04 2.966e-09
 10.23285     12.2 1.080e+04 2.480e-09
 10.25244     11.8 1.099e+04 2.817e-09
 10.28934     12.7 1.091e+04 3.317e-09
 10.32854     14.0 1.084e+04 3.803e-09
 10.36773     15.3 1.073e+04 3.795e-09
 10.40692     16.8 1.059e+04 3.542e-09
 10.44611     18.3 1.036e+04 2.920e-09
 10.48531     19.6 1.016e+04 2.376e-09
 10.52450     21.1 1.001e+04 2.282e-09
 10.56369     22.5 9.999e+03 2.452e-09
 10.60288     23.8 1.005e+04 2.968e-09
 10.64208     25.0 1.010e+04 3.467e-09
 10.67137     25.5 9.976e+03 3.425e-09
 10.69087     26.2 9.964e+03 3.583e-09
 10.71047     26.8 1.009e+04 3.932e-09
 10.73006     27.2 1.025e+04 4.441e-09
 10.74144     27.4 1.044e+04 5.335e-09
 10.75124     26.7 1.030e+04 4.867e-09
 10.76926     26.7 1.055e+04 6.784e-09
 10.78885     26.9 1.081e+04 1.002e-08
 10.80845     27.3 1.124e+04 1.437e-08
 10.82805     28.0 1.173e+04 1.931e-08
 10.84764     28.6 1.221e+04 2.367e-08
 10.86724     29.1 1.238e+04 2.413e-08
 10.88683     29.4 1.232e+04 2.289e-08
 10.90643     29.6 1.208e+04 2.004e-08
 10.92603     29.8 1.178e+04 1.745e-08
 10.94562     30.1 1.152e+04 1.576e-08
 10.96522     30.6 1.137e+04 1.498e-08
 10.98482     31.3 1.135e+04 1.462e-08
 10.99584     31.9 1.143e+04 1.477e-08
 11.00564     32.3 1.175e+04 1.675e-08
 11.02401     32.7 1.210e+04 1.896e-08
 11.04360     32.8 1.256e+04 2.314e-08
 11.06320     32.8 1.310e+04 2.865e-08
 11.08280     32.7 1.369e+04 3.552e-08
 11.10239     32.3 1.431e+04 4.396e-08
 11.12199     31.5 1.484e+04 5.483e-08
 11.14159     30.7 1.531e+04 6.869e-08
 11.16118     30.1 1.567e+04 8.265e-08
 11.18078     29.5 1.592e+04 8.944e-08
 11.20037     28.9 1.595e+04 8.762e-08
 11.21294     28.7 1.574e+04 8.047e-08
 11.22273     27.4 1.550e+04 7.360e-08
 11.23957     27.7 1.465e+04 5.645e-08
 11.25023     28.3 1.379e+04 4.122e-08
 11.26003     28.4 1.367e+04 3.777e-08
 11.27876     29.2 1.314e+04 2.772e-08
 11.29836     30.0 1.270e+04 1.967e-08
 11.31795     30.8 1.231e+04 1.330e-08
 11.33755     31.5 1.201e+04 8.800e-09
 11.35714     32.1 1.166e+04 6.044e-09
 11.37674     32.7 1.113e+04 4.546e-09
 11.39634     33.5 1.048e+04 3.936e-09
 11.41593     34.7 1.028e+04 3.912e-09
 11.43553     35.9 1.028e+04 4.121e-09
 11.45513     37.0 1.035e+04 4.620e-09
 11.47472     38.2 1.044e+04 5.336e-09
 11.49432     39.3 1.063e+04 6.485e-09
 11.50463     40.2 1.089e+04 8.293e-09
 11.51443     40.4 1.124e+04 1.099e-08
 11.53351     41.1 1.159e+04 1.410e-08
 11.55311     41.8 1.204e+04 1.802e-08
 11.57270     42.3 1.258e+04 2.117e-08
 11.59230     42.3 1.286e+04 2.109e-08
 11.61190     42.3 1.282e+04 1.840e-08
 11.63149     41.8 1.235e+04 1.303e-08
 11.65109     40.7 1.158e+04 8.907e-09
 11.67069     39.1 1.106e+04 6.863e-09
 11.69028     38.2 1.090e+04 6.419e-09
 11.70988     38.0 1.092e+04 6.345e-09
 11.72947     38.0 1.100e+04 6.210e-09
 11.74907     38.2 1.109e+04 5.824e-09
 11.75903     38.4 1.121e+04 5.289e-09
 11.76882     38.9 1.116e+04 5.111e-09
 11.78826     39.2 1.122e+04 4.565e-09
 11.80786     39.5 1.124e+04 4.250e-09
 11.82746     39.9 1.121e+04 4.216e-09
 11.84705     40.6 1.121e+04 4.292e-09
 11.86665     41.5 1.123e+04 4.514e-09
 11.88624     42.4 1.128e+04 4.874e-09
 11.90584     43.4 1.138e+04 5.394e-09
 11.92544     44.4 1.157e+04 6.193e-09
 11.94041     45.2 1.190e+04 7.504e-09
 11.95021     45.4 1.175e+04 7.356e-09
 11.96463     45.9 1.217e+04 9.393e-09
 11.98423     45.8 1.280e+04 1.265e-08
 12.00362     44.8 1.390e+04 1.994e-08
 12.01342     46.4 1.331e+04 1.586e-08
 12.02342     44.8 1.451e+04 2.726e-08
 12.04302     43.0 1.551e+04 4.971e-08
 12.06261     41.3 1.607e+04 7.349e-08
 12.08221     39.6 1.614e+04 7.537e-08
 12.10180     37.8 1.591e+04 6.835e-08
 12.12140     36.3 1.531e+04 5.020e-08
 12.14100     35.0 1.448e+04 3.150e-08
 12.16059     34.3 1.356e+04 1.700e-08
 12.18019     33.7 1.262e+04 9.462e-09
 12.20968     32.5 1.156e+04 3.947e-09
 12.24842     32.2 1.074e+04 2.714e-09
 12.26801     34.8 1.163e+04 6.387e-09
 12.28816     34.9 1.106e+04 4.779e-09
 12.32736     36.0 1.088e+04 4.157e-09
 12.36655     37.4 1.082e+04 3.540e-09
 12.40574     38.5 1.067e+04 3.274e-09
 12.44493     38.9 1.069e+04 3.989e-09
 12.48413     39.5 1.107e+04 6.851e-09
 12.52332     40.3 1.161e+04 1.151e-08
 12.56251     40.5 1.190e+04 1.281e-08
 12.59181     40.3 1.194e+04 1.271e-08
 12.61131     40.3 1.194e+04 1.223e-08
 12.63090     40.3 1.191e+04 1.141e-08
 12.65050     39.9 1.203e+04 1.176e-08
 12.66788     37.0 1.315e+04 1.784e-08
 12.67768     35.2 1.348e+04 2.042e-08
 12.68969     30.6 1.535e+04 4.835e-08
 12.70434     28.2 1.658e+04 1.006e-07
 12.71409     27.4 1.714e+04 1.424e-07
 12.72884     24.5 1.695e+04 1.208e-07
 12.74848     22.5 1.583e+04 6.788e-08
 12.76681     18.8 1.389e+04 2.132e-08
 12.77661     18.5 1.368e+04 1.669e-08
 12.78767     13.0 1.148e+04 5.813e-09
 12.80727     10.4 1.081e+04 3.201e-09
 12.82687      9.3 1.071e+04 2.494e-09
 12.84646      8.3 1.078e+04 2.049e-09
 12.86606      6.8 1.081e+04 1.970e-09
 12.88566      5.2 1.078e+04 2.040e-09
 12.90525      3.6 1.076e+04 2.318e-09
 12.92485      2.1 1.079e+04 2.613e-09
 12.94444      0.6 1.086e+04 3.101e-09
 12.96404     -1.5 1.116e+04 3.258e-09
 12.98364     -4.2 1.089e+04 4.326e-09
 13.00323     -6.0 1.084e+04 5.490e-09
 13.02121     -9.1 1.174e+04 6.401e-09
 13.03100     -9.0 1.183e+04 6.744e-09
 13.04243    -12.2 1.217e+04 1.005e-08
 13.07192    -15.7 1.204e+04 1.307e-08
 13.11121    -20.6 1.180e+04 1.454e-08
 13.15040    -24.9 1.078e+04 6.881e-09
 13.18959    -32.0 9.939e+03 3.593e-09
 13.22879    -36.6 9.853e+03 3.644e-09
 13.26600    -40.5 9.968e+03 4.980e-09
 13.28560    -43.1 1.055e+04 7.724e-09
 13.30717    -46.8 1.015e+04 6.848e-09
 13.34636    -50.1 9.689e+03 5.372e-09
 13.38556    -52.2 9.563e+03 5.103e-09
 13.42475    -53.5 9.553e+03 5.105e-09
 13.46394    -54.3 9.441e+03 4.890e-09
 13.50313    -54.5 9.082e+03 3.678e-09
 13.54233    -54.6 8.644e+03 2.470e-09
 13.58152    -54.4 8.372e+03 1.913e-09
 13.62071    -53.8 8.302e+03 1.805e-09
 13.65990    -52.9 8.316e+03 1.826e-09
 13.69910    -52.0 8.446e+03 2.048e-09
 13.73829    -51.4 8.636e+03 2.273e-09
 13.77479    -51.7 8.922e+03 2.410e-09
 13.79439    -55.2 9.768e+03 3.187e-09
 13.80678    -57.8 1.069e+04 4.239e-09
 13.82628    -60.0 1.148e+04 7.291e-09
 13.84587    -61.7 1.206e+04 1.250e-08
 13.86547    -62.5 1.282e+04 2.176e-08
 13.88507    -63.1 1.328e+04 2.818e-08
 13.90466    -64.1 1.334e+04 2.874e-08
 13.92426    -65.2 1.290e+04 2.067e-08
 13.94386    -66.8 1.236e+04 1.409e-08
 13.97335    -69.2 1.194e+04 9.598e-09
 14.01264    -69.7 1.161e+04 6.939e-09
 14.05183    -69.7 1.141e+04 4.971e-09
 14.08113    -69.5 1.127e+04 4.270e-09
 14.10063    -68.9 1.124e+04 4.228e-09
 14.12022    -68.5 1.124e+04 4.263e-09
 14.13262    -68.3 1.128e+04 4.648e-09
 14.14242    -68.4 1.151e+04 3.828e-09
 14.15941    -68.3 1.161e+04 4.385e-09
 14.17901    -68.4 1.182e+04 5.265e-09
 14.19861    -69.3 1.237e+04 7.396e-09
 14.21820    -72.1 1.351e+04 1.396e-08
 14.23780    -75.8 1.514e+04 3.343e-08
 14.25740    -79.3 1.675e+04 7.770e-08
 14.27699    -83.7 1.795e+04 1.275e-07
 14.29319    -89.8 1.828e+04 1.406e-07
 14.30298    -94.2 1.780e+04 9.831e-08
 14.31618   -101.5 1.683e+04 7.222e-08
 14.33578   -108.0 1.554e+04 3.610e-08
 14.35538   -114.3 1.448e+04 1.863e-08
 14.37497   -119.8 1.378e+04 1.379e-08
 14.39457   -123.3 1.362e+04 1.311e-08
 14.41417   -125.9 1.360e+04 1.324e-08
 14.43376   -128.2 1.369e+04 1.394e-08
 14.45336   -130.2 1.375e+04 1.408e-08
 14.47296   -132.4 1.380e+04 1.395e-08
 14.49255   -134.7 1.387e+04 1.389e-08
 14.51215   -137.2 1.422e+04 1.476e-08
 14.53174   -139.9 1.454e+04 1.797e-08
 14.54758   -142.7 1.481e+04 2.181e-08
 14.55738   -142.8 1.490e+04 2.262e-08
 14.57094   -145.5 1.514e+04 2.696e-08
 14.59053   -148.2 1.520e+04 2.823e-08
 14.61013   -150.5 1.519e+04 2.818e-08
 14.62973   -152.5 1.518e+04 2.640e-08
 14.64932   -154.4 1.512e+04 2.369e-08
 14.66892   -155.9 1.496e+04 2.074e-08
 14.68851   -157.5 1.477e+04 1.794e-08
 14.70811   -159.2 1.466e+04 1.632e-08
 14.72771   -160.9 1.454e+04 1.637e-08
 14.74730   -162.6 1.445e+04 1.661e-08
 14.76690   -164.5 1.444e+04 1.552e-08
 14.78650   -166.6 1.440e+04 1.272e-08
 14.80198   -169.1 1.420e+04 9.384e-09
 14.81178   -168.8 1.502e+04 1.573e-08
 14.82569   -171.9 1.461e+04 9.298e-09
 14.84528   -174.9 1.380e+04 6.699e-09
 14.86009   -177.3 1.347e+04 5.902e-09
 14.86989   -178.4 1.336e+04 5.680e-09
 14.88448   -179.4 1.313e+04 4.973e-09
 14.90407   -180.1 1.292e+04 4.536e-09
 14.92367   -180.7 1.280e+04 4.336e-09
 14.94327   -181.2 1.275e+04 4.269e-09
 14.96286   -181.6 1.274e+04 4.235e-09
 14.98246   -182.0 1.276e+04 4.199e-09
 15.00206   -182.1 1.279e+04 4.168e-09
 15.02165   -182.2 1.284e+04 4.126e-09
 15.04125   -182.1 1.290e+04 4.044e-09
 15.05637   -181.8 1.299e+04 3.972e-09
 15.06617   -182.7 1.292e+04 3.895e-09
 15.08044   -182.3 1.298e+04 3.805e-09
 15.10004   -181.9 1.302e+04 3.731e-09
 15.11963   -181.4 1.302e+04 3.645e-09
 15.13923   -180.8 1.299e+04 3.532e-09
 15.15883   -180.2 1.290e+04 3.399e-09
 15.17842   -179.5 1.276e+04 3.255e-09
 15.19802   -178.7 1.262e+04 3.126e-09
 15.21761   -177.8 1.250e+04 3.015e-09
 15.23721   -176.9 1.239e+04 2.920e-09
 15.25681   -175.9 1.232e+04 2.846e-09
 15.27640   -174.9 1.229e+04 2.785e-09
 15.29600   -173.8 1.229e+04 2.746e-09
 15.31077   -173.1 1.229e+04 2.740e-09
 15.32066   -173.4 1.205e+04 2.453e-09
 15.34519   -171.5 1.196e+04 2.333e-09
 15.37448   -170.3 1.201e+04 2.427e-09
 15.39398   -169.6 1.197e+04 2.438e-09
 15.42347   -168.0 1.187e+04 2.314e-09
 15.46276   -166.2 1.182e+04 2.354e-09
 15.50196   -164.4 1.170e+04 2.355e-09
 15.54115   -162.5 1.155e+04 2.206e-09
 15.57796   -160.4 1.144e+04 2.012e-09
 15.59746   -160.0 1.167e+04 2.410e-09
 15.60954   -158.6 1.168e+04 2.315e-09
 15.62914   -157.8 1.168e+04 2.242e-09
 15.64873   -156.2 1.171e+04 2.129e-09
 15.66833   -155.4 1.172e+04 2.070e-09
 15.68793   -153.6 1.175e+04 1.981e-09
 15.70752   -152.8 1.176e+04 1.957e-09
 15.72712   -151.0 1.178e+04 1.942e-09
 15.74671   -150.2 1.181e+04 1.938e-09
 15.76631   -148.5 1.194e+04 1.995e-09
 15.78591   -147.9 1.197e+04 2.029e-09
 15.80550   -146.3 1.211e+04 2.218e-09
 15.81956   -145.9 1.215e+04 2.330e-09
 15.82946   -146.2 1.196e+04 2.134e-09
 15.84479   -144.4 1.206e+04 2.363e-09
 15.86429   -143.8 1.209e+04 2.561e-09
 15.88389   -142.7 1.214e+04 2.914e-09
 15.90348   -141.9 1.211e+04 3.235e-09
 15.92308   -140.7 1.206e+04 3.568e-09
 15.94268   -139.7 1.201e+04 3.728e-09
 15.96227   -139.0 1.205e+04 3.787e-09
 15.98187   -139.0 1.219e+04 3.770e-09
 16.00147   -140.5 1.356e+04 4.645e-09
 16.02106   -142.9 1.506e+04 1.319e-08
 16.04066   -144.1 1.574e+04 3.776e-08
 16.05531   -144.7 1.615e+04 6.193e-08
 16.06506   -145.3 1.651e+04 7.208e-08
 16.07386   -146.7 1.725e+04 1.197e-07
 16.07876   -146.0 1.644e+04 7.753e-08
 16.08465   -147.2 1.713e+04 1.101e-07
 16.09445   -148.6 1.761e+04 1.571e-07
 16.10425   -150.0 1.779e+04 1.835e-07
 16.11405   -151.3 1.779e+04 1.929e-07
 16.12384   -152.4 1.769e+04 1.929e-07
 16.13364   -153.4 1.750e+04 1.815e-07
 16.14344   -154.3 1.732e+04 1.629e-07
 16.15324   -155.2 1.714e+04 1.447e-07
 16.16304   -155.9 1.693e+04 1.294e-07
 16.17284   -156.4 1.668e+04 1.157e-07
 16.18263   -156.8 1.648e+04 1.033e-07
 16.19243   -157.2 1.631e+04 9.385e-08
 16.20106   -157.4 1.619e+04 8.489e-08
 16.20596   -157.0 1.606e+04 7.889e-08
 16.21698   -157.5 1.596e+04 7.280e-08
 16.23662   -158.4 1.569e+04 5.254e-08
 16.25622   -159.5 1.522e+04 3.349e-08
 16.27581   -160.4 1.478e+04 2.039e-08
 16.29541   -161.2 1.450e+04 1.413e-08
 16.31501   -161.8 1.438e+04 1.267e-08
 16.32835   -162.7 1.454e+04 3.042e-08
 16.33815   -161.8 1.415e+04 1.820e-08
 16.35420   -161.7 1.398e+04 1.977e-08
 16.37380   -161.1 1.384e+04 2.269e-08
 16.39339   -160.2 1.379e+04 2.508e-08
 16.41299   -159.4 1.373e+04 2.593e-08
 16.43258   -158.5 1.363e+04 2.470e-08
 16.45218   -157.6 1.349e+04 2.253e-08
 16.47178   -156.7 1.335e+04 1.922e-08
 16.49137   -155.9 1.320e+04 1.625e-08
 16.51097   -155.2 1.306e+04 1.350e-08
 16.53057   -154.5 1.290e+04 1.139e-08
 16.56006   -153.4 1.276e+04 1.010e-08
 16.59935   -151.7 1.248e+04 9.205e-09
 16.63854   -150.1 1.219e+04 8.118e-09
 16.67773   -148.7 1.198e+04 6.469e-09
 16.71693   -147.3 1.180e+04 4.725e-09
 16.75612   -145.7 1.165e+04 3.233e-09
 16.79531   -143.8 1.153e+04 2.261e-09
 16.82754   -141.7 1.147e+04 1.765e-09
 16.84714   -141.7 1.150e+04 1.754e-09
 16.87370   -139.5 1.147e+04 1.380e-09
 16.91289   -137.2 1.149e+04 1.226e-09
 16.95208   -134.9 1.150e+04 1.186e-09
 16.99127   -132.7 1.153e+04 1.193e-09
 17.03047   -130.5 1.161e+04 1.274e-09
 17.05250   -128.4 1.168e+04 1.458e-09
 17.07210   -128.8 1.165e+04 1.401e-09
 17.10885   -126.9 1.173e+04 1.713e-09
 17.14804   -125.1 1.185e+04 2.071e-09
 17.18724   -123.4 1.198e+04 2.382e-09
 17.22643   -121.8 1.210e+04 2.624e-09
 17.26562   -120.3 1.222e+04 2.888e-09
 17.30481   -118.8 1.236e+04 3.325e-09
 17.33633   -117.5 1.250e+04 4.079e-09
 17.35593   -117.3 1.240e+04 3.365e-09
 17.38320   -116.1 1.255e+04 4.035e-09
 17.42239   -115.1 1.271e+04 4.878e-09
 17.46158   -114.3 1.289e+04 5.875e-09
 17.50078   -113.6 1.308e+04 6.911e-09
 17.53997   -113.1 1.325e+04 7.657e-09
 17.57916   -112.7 1.332e+04 7.959e-09
 17.61836   -112.2 1.330e+04 6.159e-09
 17.65755   -111.3 1.321e+04 4.092e-09
 17.69674   -109.8 1.313e+04 2.526e-09
 17.73593   -107.8 1.322e+04 1.812e-09
 17.77513   -105.6 1.332e+04 1.651e-09
 17.81432   -103.4 1.335e+04 1.648e-09
 17.84512   -101.4 1.352e+04 1.774e-09
 17.86472   -100.3 1.362e+04 1.671e-09
 17.89270    -98.4 1.366e+04 1.957e-09
 17.93190    -96.6 1.375e+04 2.265e-09
 17.97109    -95.0 1.383e+04 2.540e-09
 18.01028    -93.5 1.388e+04 2.614e-09
 18.04947    -92.0 1.395e+04 2.371e-09
 18.08867    -90.3 1.404e+04 1.923e-09
 18.12786    -88.5 1.417e+04 1.492e-09
 18.16705    -86.5 1.427e+04 1.226e-09
 18.20624    -84.2 1.431e+04 1.143e-09
 18.24544    -81.8 1.432e+04 1.139e-09
 18.28463    -79.3 1.440e+04 1.184e-09
 18.32382    -77.0 1.442e+04 1.309e-09
 18.35392    -74.7 1.444e+04 1.439e-09
 18.37351    -74.0 1.461e+04 1.670e-09
 18.40221    -71.8 1.465e+04 1.884e-09
 18.44140    -69.7 1.468e+04 1.981e-09
 18.48059    -67.7 1.468e+04 1.989e-09
 18.50744    -65.5 1.472e+04 1.889e-09
 18.52704    -65.6 1.464e+04 1.807e-09
 18.55898    -63.4 1.473e+04 1.711e-09
 18.59817    -61.3 1.483e+04 1.554e-09
 18.63736    -59.0 1.490e+04 1.343e-09
 18.67655    -56.7 1.498e+04 1.076e-09
 18.71575    -54.3 1.503e+04 8.212e-10
 18.75494    -51.8 1.500e+04 6.338e-10
 18.79413    -49.3 1.494e+04 5.165e-10
 18.83333    -46.6 1.487e+04 4.587e-10
 18.86271    -43.9 1.474e+04 4.332e-10
 18.88230    -43.5 1.483e+04 4.558e-10
 18.91171    -40.8 1.476e+04 4.225e-10
 18.95090    -38.1 1.470e+04 4.007e-10
 18.99010    -35.5 1.464e+04 3.908e-10
 19.02929    -32.9 1.460e+04 3.939e-10
 19.06848    -30.8 1.464e+04 4.445e-10
 19.10767    -28.6 1.463e+04 5.916e-10
 19.14687    -26.5 1.422e+04 8.809e-10
 19.18606    -24.4 1.395e+04 1.217e-09
 19.22525    -22.3 1.371e+04 1.448e-09
 19.26444    -20.0 1.377e+04 1.273e-09
 19.30364    -18.3 1.388e+04 1.053e-09
 19.34283    -16.6 1.375e+04 1.127e-09
 19.37150    -15.0 1.334e+04 1.512e-09
 19.39110    -14.9 1.325e+04 1.717e-09
 19.42121    -13.0 1.301e+04 2.069e-09
 19.46041    -11.4 1.293e+04 1.926e-09
 19.49960     -9.9 1.285e+04 1.489e-09
 19.53879     -8.8 1.277e+04 1.191e-09
 19.57798     -7.6 1.251e+04 1.142e-09
 19.61718     -6.2 1.241e+04 1.215e-09
 19.65637     -5.3 1.234e+04 1.573e-09
 19.69556     -5.0 1.228e+04 2.244e-09
 19.73475     -5.3 1.230e+04 2.915e-09
 19.77395     -6.4 1.235e+04 3.924e-09
 19.81314     -7.9 1.225e+04 5.507e-09
 19.85233     -9.7 1.215e+04 6.142e-09
 19.88029    -10.3 1.173e+04 4.690e-09
 19.89989     -9.9 1.151e+04 4.126e-09
 19.93072    -10.1 1.122e+04 2.404e-09
 19.96239    -10.5 1.107e+04 1.785e-09
 19.98198    -11.1 1.101e+04 1.635e-09
 20.00910    -10.7 1.092e+04 1.797e-09
 20.04830    -10.1 1.097e+04 2.277e-09
 20.08749     -9.3 1.105e+04 2.640e-09
 20.12668     -8.2 1.105e+04 2.246e-09
 20.16587     -6.9 1.104e+04 1.534e-09
 20.20507     -5.8 1.105e+04 1.005e-09
 20.24426     -4.6 1.104e+04 7.533e-10
 20.28345     -3.2 1.097e+04 6.860e-10
 20.32264     -1.7 1.099e+04 7.282e-10
 20.36184     -0.3 1.094e+04 8.670e-10
 20.38908      1.0 1.092e+04 1.147e-09
 20.40868      1.7 1.090e+04 1.133e-09
 20.44022      2.8 1.094e+04 1.572e-09
 20.47941      4.0 1.103e+04 1.956e-09
 20.51861      5.0 1.103e+04 1.885e-09
 20.55780      6.4 1.099e+04 1.482e-09
 20.59699      7.6 1.110e+04 9.451e-10
 20.63618      8.8 1.084e+04 7.783e-10
 20.67538     10.2 1.078e+04 8.121e-10
 20.71457     11.7 1.065e+04 9.656e-10
 20.75376     13.2 1.066e+04 1.141e-09
 20.79295     14.6 1.080e+04 1.293e-09
 20.83215     15.8 1.080e+04 1.368e-09
 20.87134     16.8 1.084e+04 1.413e-09
 20.89787     17.6 1.098e+04 1.647e-09
 20.91747     17.5 1.122e+04 2.241e-09
 20.94972     18.0 1.134e+04 3.333e-09
 20.98892     18.5 1.155e+04 4.708e-09
 21.02811     18.9 1.175e+04 5.732e-09
 21.06730     19.2 1.186e+04 6.309e-09
 21.10649     19.4 1.200e+04 5.974e-09
 21.14569     19.8 1.206e+04 4.842e-09
 21.18488     20.4 1.201e+04 3.371e-09
 21.22407     20.7 1.205e+04 2.285e-09
 21.26327     20.8 1.181e+04 2.053e-09
 21.30246     21.0 1.170e+04 2.059e-09
 21.34165     21.3 1.166e+04 1.987e-09
 21.38084     22.0 1.159e+04 1.721e-09
 21.40667     22.8 1.158e+04 1.387e-09
 21.42356     22.8 1.163e+04 1.385e-09
 21.43693     21.7 1.185e+04 1.154e-09
 21.45923     22.8 1.187e+04 1.131e-09
 21.49842     23.8 1.188e+04 1.276e-09
 21.53761     24.5 1.222e+04 1.835e-09
 21.57681     25.2 1.247e+04 2.848e-09
 21.61600     25.8 1.265e+04 3.660e-09
 21.64530     26.2 1.273e+04 4.004e-09
 21.66087     26.3 1.271e+04 4.124e-09
 21.67066     26.3 1.268e+04 4.036e-09
 21.68439     26.5 1.258e+04 3.944e-09
 21.70399     26.6 1.246e+04 3.740e-09
 21.72358     26.8 1.234e+04 3.512e-09
 21.74318     27.0 1.228e+04 3.310e-09
 21.76278     27.1 1.222e+04 2.981e-09
 21.78237     27.2 1.219e+04 2.898e-09
 21.81186     27.2 1.208e+04 2.738e-09
 21.85115     27.7 1.189e+04 2.785e-09
 21.89035     28.4 1.178e+04 3.166e-09
 21.91546     29.1 1.176e+04 3.647e-09
 21.93505     29.7 1.164e+04 2.957e-09
 21.96873     30.5 1.162e+04 3.183e-09
 22.00792     31.4 1.160e+04 3.118e-09
 22.04712     32.4 1.158e+04 2.777e-09
 22.08631     33.4 1.150e+04 2.434e-09
 22.12550     34.7 1.144e+04 2.408e-09
 22.16469     36.1 1.146e+04 2.587e-09
 22.20389     37.2 1.150e+04 3.206e-09
 22.24308     38.2 1.162e+04 4.288e-09
 22.28227     39.3 1.167e+04 5.185e-09
 22.32146     40.2 1.163e+04 5.144e-09
 22.35076     41.0 1.151e+04 4.674e-09
 22.37026     41.3 1.152e+04 4.547e-09
 22.38986     41.7 1.155e+04 4.584e-09
 22.40945     42.0 1.166e+04 4.736e-09
 22.42405     42.3 1.179e+04 5.069e-09
 22.43385     42.4 1.171e+04 4.785e-09
 22.44865     42.5 1.185e+04 5.347e-09
 22.46824     42.3 1.204e+04 6.076e-09
 22.48784     41.1 1.257e+04 8.270e-09
 22.50743     38.2 1.372e+04 1.926e-08
 22.52703     35.9 1.501e+04 4.945e-08
 22.54663     34.0 1.525e+04 6.163e-08
 22.56622     33.2 1.467e+04 4.820e-08
 22.58582     32.7 1.368e+04 2.084e-08
 22.60542     29.9 1.291e+04 6.392e-09
 22.62501     25.8 1.185e+04 3.388e-09
 22.64461     24.4 1.146e+04 3.148e-09
 22.66420     24.0 1.153e+04 3.213e-09
 22.67845     23.3 1.174e+04 3.541e-09
 22.68825     23.6 1.156e+04 2.857e-09
 22.70340     22.3 1.185e+04 3.576e-09
 22.72299     20.7 1.203e+04 5.654e-09
 22.74259     19.7 1.217e+04 9.704e-09
 22.76219     19.4 1.244e+04 1.413e-08
 22.78178     19.1 1.274e+04 1.454e-08
 22.80138     18.0 1.293e+04 1.278e-08
 22.82097     16.1 1.300e+04 1.074e-08
 22.84057     14.1 1.284e+04 9.390e-09
 22.86017     12.9 1.254e+04 8.257e-09
 22.87976     12.2 1.232e+04 6.860e-09
 22.89168     11.5 1.220e+04 5.394e-09
 22.90147     11.8 1.215e+04 4.829e-09
 22.91896     11.1 1.206e+04 4.004e-09
 22.93294     10.3 1.186e+04 2.965e-09
 22.94274     11.4 1.197e+04 3.610e-09
 22.95815     10.8 1.189e+04 2.997e-09
 22.98764     10.8 1.177e+04 2.696e-09
 23.02693      9.8 1.176e+04 2.719e-09
 23.06612      9.1 1.169e+04 2.986e-09
 23.10532      9.3 1.161e+04 2.811e-09
 23.14451     10.1 1.150e+04 2.102e-09
 23.18370     10.7 1.155e+04 1.423e-09
 23.22289     11.5 1.155e+04 1.354e-09
 23.26209     12.1 1.164e+04 1.545e-09
 23.30128     13.0 1.173e+04 2.165e-09
 23.34047     13.5 1.196e+04 2.834e-09
 23.36977     13.3 1.215e+04 3.685e-09
 23.38927     13.4 1.220e+04 4.358e-09
 23.40886     13.5 1.231e+04 4.882e-09
 23.42846     13.6 1.242e+04 5.413e-09
 23.44164     13.7 1.256e+04 5.841e-09
 23.45143     13.7 1.247e+04 4.743e-09
 23.46765     13.7 1.258e+04 4.689e-09
 23.48725     13.6 1.260e+04 4.538e-09
 23.50685     13.4 1.250e+04 4.410e-09
 23.53634     13.7 1.240e+04 3.944e-09
 23.57563     14.2 1.233e+04 3.639e-09
 23.61482     14.9 1.233e+04 3.482e-09
 23.65401     15.6 1.240e+04 3.688e-09
 23.69321     16.3 1.257e+04 4.229e-09
 23.73240     16.6 1.275e+04 5.625e-09
 23.77159     16.6 1.304e+04 8.382e-09
 23.81078     16.6 1.345e+04 1.226e-08
 23.84008     16.9 1.373e+04 1.622e-08
 23.85958     17.0 1.381e+04 1.749e-08
 23.87917     17.0 1.382e+04 1.774e-08
 23.89877     17.1 1.378e+04 1.707e-08
 23.92826     17.2 1.352e+04 1.323e-08
 23.95062     18.0 1.318e+04 9.749e-09
 23.97022     18.0 1.325e+04 9.287e-09
 24.00675     19.3 1.293e+04 6.658e-09
 24.04594     20.9 1.272e+04 4.974e-09
 24.08513     22.8 1.254e+04 4.253e-09
 24.12432     25.1 1.249e+04 4.256e-09
 24.16352     27.3 1.251e+04 4.420e-09
 24.20271     29.4 1.257e+04 5.155e-09
 24.24190     31.5 1.267e+04 6.796e-09
 24.28109     33.3 1.300e+04 9.379e-09
 24.32029     34.2 1.335e+04 1.258e-08
 24.34672     34.3 1.336e+04 1.479e-08
 24.35642     34.2 1.281e+04 1.074e-08
 24.36908     35.2 1.259e+04 9.316e-09
 24.38868     36.4 1.230e+04 6.975e-09
 24.40827     37.2 1.215e+04 4.928e-09
 24.42787     37.9 1.196e+04 3.463e-09
 24.44747     38.2 1.180e+04 2.815e-09
 24.45932     39.6 1.147e+04 2.453e-09
 24.47901     39.3 1.160e+04 2.578e-09
 24.51625     41.8 1.127e+04 2.204e-09
 24.55544     44.5 1.111e+04 1.975e-09
 24.59463     47.3 1.104e+04 1.840e-09
 24.63383     50.1 1.097e+04 1.750e-09
 24.67302     53.0 1.090e+04 1.679e-09
 24.71221     56.0 1.084e+04 1.617e-09
 24.75140     59.0 1.077e+04 1.586e-09
 24.79060     62.2 1.075e+04 1.590e-09
 24.82979     65.4 1.073e+04 1.623e-09
 24.86898     68.8 1.069e+04 1.748e-09
 24.90818     72.0 1.063e+04 2.039e-09
 24.94737     75.2 1.076e+04 2.536e-09
 24.96821     78.9 1.097e+04 3.527e-09
 24.98780     79.0 1.109e+04 3.790e-09
 25.01586     81.6 1.133e+04 5.037e-09
 25.03536     83.0 1.152e+04 6.090e-09
 25.05495     84.5 1.172e+04 7.154e-09
 25.07409     86.1 1.196e+04 8.595e-09
 25.08389     86.1 1.187e+04 7.838e-09
 25.09414     87.7 1.211e+04 9.134e-09
 25.11374     88.4 1.222e+04 9.770e-09
 25.13334     89.2 1.239e+04 1.160e-08
 25.15293     90.0 1.268e+04 1.505e-08
 25.17253     91.0 1.296e+04 1.921e-08
 25.19213     91.8 1.308e+04 2.203e-08
 25.21172     92.5 1.304e+04 2.256e-08
 25.22241     93.1 1.296e+04 2.215e-08
 25.23221     92.8 1.336e+04 2.776e-08
 25.25091     93.5 1.304e+04 2.427e-08
 25.27051     94.2 1.264e+04 2.014e-08
 25.29011     95.1 1.225e+04 1.656e-08
 25.30970     96.0 1.198e+04 1.422e-08
 25.33920     97.2 1.188e+04 1.302e-08
 25.37849     98.9 1.162e+04 1.086e-08
 25.41768    100.4 1.141e+04 9.381e-09
 25.45687    101.8 1.136e+04 8.677e-09
 25.47690    102.7 1.176e+04 1.085e-08
 25.48660    102.4 1.204e+04 1.392e-08
 25.50567    102.5 1.236e+04 1.586e-08
 25.52526    102.3 1.257e+04 1.712e-08
 25.54486    102.0 1.264e+04 1.747e-08
 25.56446    101.8 1.255e+04 1.692e-08
 25.58405    101.8 1.239e+04 1.563e-08
 25.60365    102.1 1.216e+04 1.349e-08
 25.62324    102.7 1.190e+04 1.128e-08
 25.65274    102.9 1.163e+04 9.064e-09
 25.68213    104.9 1.122e+04 6.976e-09
 25.70163    105.9 1.110e+04 6.475e-09
 25.72123    106.9 1.094e+04 6.043e-09
 25.73120    108.1 1.083e+04 5.959e-09
 25.74100    106.7 1.106e+04 7.672e-09
 25.76042    107.8 1.098e+04 8.014e-09
 25.78001    108.8 1.095e+04 8.697e-09
 25.79961    109.9 1.099e+04 9.665e-09
 25.81136    111.0 1.108e+04 1.082e-08
 25.82116    112.1 1.091e+04 9.501e-09
 25.83880    113.3 1.109e+04 1.104e-08
 25.85840    114.4 1.133e+04 1.271e-08
 25.87800    115.3 1.163e+04 1.410e-08
 25.89759    115.8 1.188e+04 1.513e-08
 25.91719    115.7 1.215e+04 1.506e-08
 25.93679    114.9 1.239e+04 1.495e-08
 25.95638    113.1 1.273e+04 1.490e-08
 25.97580    110.3 1.289e+04 1.562e-08
 25.98559    106.1 1.252e+04 1.537e-08
 25.99557    103.7 1.238e+04 1.659e-08
 26.01517    101.6 1.237e+04 1.564e-08
 26.03477     98.7 1.254e+04 1.538e-08
 26.05436     94.3 1.325e+04 1.739e-08
 26.07396     89.2 1.459e+04 2.827e-08
 26.09356     85.1 1.532e+04 4.770e-08
 26.11315     82.0 1.532e+04 5.213e-08
 26.13275     79.9 1.498e+04 4.533e-08
 26.15234     78.5 1.412e+04 2.713e-08
 26.17194     76.8 1.297e+04 1.256e-08
 26.19154     74.6 1.166e+04 6.293e-09
 26.21113     73.5 1.097e+04 4.999e-09
 26.23019     73.7 1.075e+04 4.754e-09
 26.23999     73.9 1.114e+04 5.680e-09
 26.25033     74.5 1.111e+04 5.414e-09
 26.26992     75.3 1.113e+04 5.246e-09
 26.28952     75.8 1.135e+04 5.444e-09
 26.30911     75.3 1.218e+04 6.667e-09
 26.32871     73.8 1.378e+04 1.268e-08
 26.34831     71.8 1.539e+04 3.171e-08
 26.36224     69.5 1.637e+04 4.637e-08
 26.36709     69.8 1.657e+04 5.792e-08
 26.37270     67.7 1.764e+04 9.628e-08
 26.38250     65.6 1.893e+04 2.003e-07
 26.39230     63.4 1.911e+04 5.520e-07
 26.40210     61.4 1.858e+04 1.404e-06
 26.41190     58.3 1.833e+04 2.450e-06
 26.42170     53.7 1.842e+04 2.391e-06
 26.43149     50.1 1.874e+04 1.506e-06
 26.44129     48.3 1.892e+04 5.737e-07
 26.45109     46.8 1.853e+04 1.892e-07
 26.46584     43.7 1.706e+04 5.379e-08
 26.48459     37.1 1.246e+04 1.653e-08
 26.49439     38.1 1.215e+04 1.467e-08
 26.50508     36.0 1.080e+04 1.042e-08
 26.52467     36.2 1.059e+04 9.706e-09
 26.53883     36.8 1.057e+04 9.440e-09
 26.54863     36.7 1.067e+04 9.921e-09
 26.56387     37.4 1.060e+04 9.307e-09
 26.58346     38.3 1.053e+04 8.487e-09
 26.60306     38.7 1.047e+04 8.012e-09
 26.62266     39.4 1.029e+04 7.255e-09
 26.64225     40.0 1.011e+04 6.593e-09
 26.66185     40.5 1.009e+04 6.455e-09
 26.68144     40.8 1.017e+04 6.683e-09
 26.70104     40.9 1.038e+04 7.466e-09
 26.72064     41.0 1.065e+04 8.785e-09
 26.73898     41.0 1.085e+04 1.015e-08
 26.74878     40.5 1.096e+04 1.100e-08
 26.75983     40.3 1.094e+04 1.108e-08
 26.77943     40.2 1.083e+04 1.067e-08
 26.79902     40.2 1.060e+04 9.759e-09
 26.81862     40.4 1.028e+04 8.407e-09
 26.83821     40.5 9.991e+03 7.039e-09
 26.85781     40.7 9.765e+03 5.943e-09
 26.87741     40.8 9.589e+03 5.147e-09
 26.89700     41.0 9.475e+03 4.650e-09
 26.91660     41.2 9.454e+03 4.431e-09
 26.93620     41.5 9.468e+03 4.426e-09
 26.95579     41.8 9.529e+03 4.543e-09
 26.97539     42.3 9.639e+03 4.811e-09
 26.99338     42.7 9.776e+03 5.224e-09
 27.00318     42.6 9.654e+03 4.877e-09
 27.01458     43.0 9.821e+03 5.390e-09
 27.03418     43.5 1.000e+04 5.977e-09
 27.05377     43.9 1.017e+04 6.599e-09
 27.07337     44.2 1.033e+04 7.156e-09
 27.09297     44.3 1.045e+04 7.572e-09
 27.11256     44.4 1.056e+04 7.963e-09
 27.13216     44.6 1.064e+04 8.394e-09
 27.15176     44.9 1.069e+04 8.700e-09
 27.17135     45.2 1.069e+04 8.740e-09
 27.19095     45.7 1.068e+04 8.702e-09
 27.21054     46.2 1.067e+04 8.630e-09
 27.23014     46.7 1.071e+04 8.603e-09
 27.24778     47.2 1.078e+04 8.692e-09
 27.25757     46.8 1.092e+04 9.195e-09
 27.26631     47.2 1.103e+04 9.676e-09
 27.27610     47.4 1.109e+04 9.528e-09
 27.28893     47.9 1.128e+04 1.034e-08
 27.30853     48.4 1.148e+04 1.132e-08
 27.32812     49.0 1.168e+04 1.241e-08
 27.34772     49.7 1.190e+04 1.365e-08
 27.36731     50.5 1.217e+04 1.523e-08
 27.38691     51.2 1.253e+04 1.754e-08
 27.40651     51.9 1.302e+04 2.138e-08
 27.42610     52.5 1.362e+04 2.763e-08
 27.44570     53.2 1.429e+04 3.711e-08
 27.46530     54.0 1.489e+04 4.843e-08
 27.48489     54.9 1.531e+04 5.476e-08
 27.50217     55.6 1.559e+04 5.578e-08
 27.51192     54.6 1.530e+04 5.044e-08
 27.52404     54.5 1.521e+04 4.480e-08
 27.54368     55.0 1.527e+04 4.162e-08
 27.55833     55.7 1.549e+04 4.247e-08
 27.56808     55.8 1.557e+04 4.276e-08
 27.57788     55.7 1.578e+04 4.451e-08
 27.58767     55.6 1.595e+04 4.738e-08
 27.59747     55.4 1.630e+04 5.450e-08
 27.60727     55.0 1.673e+04 6.575e-08
 27.61707     54.5 1.711e+04 8.361e-08
 27.62687     53.9 1.748e+04 1.026e-07
 27.63417     53.0 1.790e+04 1.176e-07
 27.63725     51.1 1.629e+04 4.443e-08
 27.63974     51.8 1.732e+04 8.013e-08
 27.64646     50.5 1.759e+04 7.504e-08
 27.65626     48.7 1.748e+04 6.184e-08
 27.66606     46.7 1.662e+04 4.810e-08
 27.67586     44.0 1.563e+04 3.724e-08
 27.68566     40.8 1.456e+04 3.204e-08
 27.69545     37.9 1.402e+04 3.401e-08
 27.70525     34.5 1.450e+04 4.292e-08
 27.71505     30.7 1.619e+04 6.365e-08
 27.72485     27.1 1.751e+04 1.002e-07
 27.73465     24.0 1.823e+04 1.552e-07
 27.74445     20.9 1.864e+04 2.364e-07
 27.75424     17.8 1.885e+04 3.147e-07
 27.76137     13.7 1.961e+04 3.684e-07
 27.76627     13.6 1.903e+04 3.220e-07
 27.77384      3.4 2.208e+04 4.422e-07
 27.78364    -13.9 2.143e+04 1.361e-06
 27.79344    -22.7 1.845e+04 3.012e-06
 27.80323    -27.0 1.803e+04 2.671e-06
 27.81303    -27.5 1.835e+04 1.581e-06
 27.82283    -27.5 1.876e+04 9.048e-07
 27.83263    -27.2 1.991e+04 4.009e-07
 27.84243    -29.0 2.299e+04 1.094e-07
 27.85222    -31.0 2.311e+04 5.077e-08
 27.86202    -35.8 2.240e+04 1.512e-08
 27.87677    -41.2 1.522e+04 2.299e-08
 27.89641    -43.2 1.263e+04 2.204e-08
 27.91601    -41.6 1.225e+04 2.185e-08
 27.93561    -39.5 1.223e+04 2.214e-08
 27.95520    -37.4 1.221e+04 2.106e-08
 27.97480    -35.4 1.195e+04 1.903e-08
 27.99378    -33.6 1.168e+04 1.650e-08
 28.00358    -32.8 1.175e+04 1.749e-08
 28.01096    -30.9 1.149e+04 1.487e-08
 28.02076    -31.2 1.122e+04 1.349e-08
 28.03359    -29.7 1.092e+04 1.069e-08
 28.05318    -29.0 1.035e+04 8.011e-09
 28.08268    -27.3 1.006e+04 6.355e-09
 28.12197    -24.3 9.857e+03 4.914e-09
 28.16116    -21.4 1.003e+04 4.763e-09
 28.20035    -18.6 1.014e+04 5.142e-09
 28.23954    -16.1 1.041e+04 5.583e-09
 28.27874    -14.1 1.099e+04 7.561e-09
 28.30803    -12.3 1.141e+04 9.876e-09
 28.32753    -11.8 1.176e+04 1.152e-08
 28.34713    -11.1 1.194e+04 1.326e-08
 28.36673    -10.3 1.217e+04 1.493e-08
 28.38632     -9.7 1.239e+04 1.520e-08
 28.40592     -9.1 1.256e+04 1.500e-08
 28.42551     -8.6 1.270e+04 1.377e-08
 28.44511     -8.3 1.285e+04 1.229e-08
 28.46471     -8.1 1.284e+04 1.085e-08
 28.48430     -7.9 1.272e+04 9.543e-09
 28.50390     -7.6 1.253e+04 8.119e-09
 28.51975     -7.2 1.230e+04 6.774e-09
 28.52955     -7.0 1.224e+04 5.749e-09
 28.54309     -6.6 1.212e+04 4.654e-09
 28.56269     -6.2 1.192e+04 3.913e-09
 28.58228     -5.6 1.179e+04 3.107e-09
 28.60188     -5.5 1.174e+04 2.779e-09
 28.63137     -4.5 1.155e+04 2.518e-09
 28.67066     -3.2 1.146e+04 2.570e-09
 28.70986     -2.2 1.138e+04 2.983e-09
 28.73124     -0.9 1.130e+04 3.337e-09
 28.75084     -1.4 1.133e+04 3.457e-09
 28.78824     -0.1 1.117e+04 3.024e-09
 28.82743      1.1 1.088e+04 2.247e-09
 28.86663      2.2 1.069e+04 1.724e-09
 28.90582      3.7 1.047e+04 1.592e-09
 28.94501      5.6 1.041e+04 1.623e-09
 28.98420      7.5 1.033e+04 1.679e-09
 29.01894      9.5 1.027e+04 1.701e-09
 29.03854     10.5 1.026e+04 1.486e-09
 29.06259     12.5 1.024e+04 1.569e-09
 29.10178     14.3 1.026e+04 1.750e-09
 29.14097     15.7 1.043e+04 2.094e-09
 29.18017     16.6 1.070e+04 2.810e-09
 29.21936     17.4 1.089e+04 3.451e-09
 29.24866     17.9 1.086e+04 3.473e-09
 29.26815     18.2 1.087e+04 3.434e-09
 29.29765     18.8 1.088e+04 2.986e-09
 29.33694     19.4 1.082e+04 2.628e-09
 29.37613     20.2 1.075e+04 2.372e-09
 29.41532     21.3 1.069e+04 2.145e-09
 29.45451     22.6 1.064e+04 1.820e-09
 29.49371     24.0 1.060e+04 1.438e-09
 29.52773     25.3 1.059e+04 1.119e-09
 29.54733     25.9 1.059e+04 1.121e-09
 29.57209     27.0 1.054e+04 9.545e-10
 29.61128     28.4 1.049e+04 9.336e-10
 29.65048     29.9 1.050e+04 9.611e-10
 29.68967     31.5 1.050e+04 1.055e-09
 29.72886     32.9 1.045e+04 1.307e-09
 29.76806     34.2 1.042e+04 1.606e-09
 29.80725     35.5 1.041e+04 1.805e-09
 29.84644     36.8 1.039e+04 1.802e-09
 29.88563     38.3 1.030e+04 1.725e-09
 29.92483     39.9 1.024e+04 1.630e-09
 29.96402     41.7 1.024e+04 1.632e-09
 30.00321     43.5 1.029e+04 1.730e-09
 30.03653     45.2 1.036e+04 2.169e-09
 30.05612     45.2 1.049e+04 2.152e-09
 30.08160     46.8 1.061e+04 3.069e-09
 30.12079     48.4 1.082e+04 4.371e-09
 30.15998     49.9 1.118e+04 5.254e-09
 30.18619     51.3 1.123e+04 5.091e-09
 30.20578     51.4 1.077e+04 3.620e-09
 30.23837     53.0 1.078e+04 3.305e-09
 30.27756     54.8 1.074e+04 2.756e-09
 30.31675     56.6 1.074e+04 2.191e-09
 30.35594     58.4 1.088e+04 1.848e-09
 30.39514     59.9 1.101e+04 1.918e-09
 30.43433     61.8 1.111e+04 1.899e-09
 30.47352     63.6 1.130e+04 1.988e-09
 30.51271     65.3 1.150e+04 2.207e-09
 30.54532     66.8 1.169e+04 2.454e-09
 30.56491     68.7 1.156e+04 2.397e-09
 30.59110     70.1 1.182e+04 2.912e-09
 30.63029     71.2 1.205e+04 3.007e-09
 30.66948     72.2 1.214e+04 2.812e-09
 30.70868     73.2 1.226e+04 2.401e-09
 30.74787     74.2 1.237e+04 2.098e-09
 30.78706     75.0 1.232e+04 2.202e-09
 30.82625     75.7 1.226e+04 2.601e-09
 30.86545     76.4 1.228e+04 3.300e-09
 30.90464     77.2 1.236e+04 4.109e-09
 30.94383     78.0 1.256e+04 4.177e-09
 30.98303     79.0 1.260e+04 3.954e-09
 31.02222     80.1 1.269e+04 3.578e-09
 31.05411     81.5 1.273e+04 3.379e-09
 31.07371     82.5 1.271e+04 3.266e-09
 31.10060     84.0 1.274e+04 3.356e-09
 31.13980     85.5 1.277e+04 3.738e-09
 31.17899     86.9 1.282e+04 4.402e-09
 31.21818     88.1 1.290e+04 5.259e-09
 31.25737     88.9 1.296e+04 6.110e-09
 31.29657     89.6 1.295e+04 6.847e-09
 31.33576     90.2 1.287e+04 7.647e-09
 31.37495     90.9 1.281e+04 8.244e-09
 31.41414     91.4 1.276e+04 8.614e-09
 31.45334     91.7 1.270e+04 8.989e-09
 31.49253     92.0 1.260e+04 9.762e-09
 31.53172     92.4 1.256e+04 1.029e-08
 31.56102     92.2 1.244e+04 9.665e-09
 31.57250     92.1 1.235e+04 9.348e-09
 31.58230     92.1 1.242e+04 8.844e-09
 31.60011     92.2 1.236e+04 8.786e-09
 31.61971     92.4 1.230e+04 8.855e-09
 31.63931     92.6 1.223e+04 8.976e-09
 31.65073     92.9 1.219e+04 8.943e-09
 31.66053     92.5 1.196e+04 7.433e-09
 31.68839     93.0 1.176e+04 6.316e-09
 31.72768     93.5 1.157e+04 5.815e-09
 31.76688     94.2 1.123e+04 4.795e-09
 31.80607     95.1 1.092e+04 3.692e-09
 31.82700     95.7 1.088e+04 3.382e-09
 31.83670     95.8 1.094e+04 3.452e-09
 31.85486     96.3 1.088e+04 3.225e-09
 31.88436     97.4 1.065e+04 2.633e-09
 31.92365     98.9 1.069e+04 2.799e-09
 31.96284    100.7 1.082e+04 3.336e-09
 31.99214    101.5 1.100e+04 4.200e-09
 32.01164    102.2 1.115e+04 5.124e-09
 32.03123    102.8 1.133e+04 6.242e-09
 32.05083    103.4 1.143e+04 7.410e-09
 32.07042    104.0 1.150e+04 8.293e-09
 32.08130    104.7 1.154e+04 8.817e-09
 32.09109    104.2 1.160e+04 9.156e-09
 32.10962    104.8 1.161e+04 9.333e-09
 32.12921    105.3 1.164e+04 9.574e-09
 32.14881    105.7 1.173e+04 1.018e-08
 32.16841    105.9 1.190e+04 1.159e-08
 32.18800    106.1 1.212e+04 1.376e-08
 32.20760    106.4 1.237e+04 1.640e-08
 32.22719    106.6 1.261e+04 1.856e-08
 32.24679    106.7 1.266e+04 1.951e-08
 32.26639    106.8 1.267e+04 1.858e-08
 32.28598    106.9 1.256e+04 1.555e-08
 32.30558    106.8 1.220e+04 1.138e-08
 32.32518    106.4 1.176e+04 8.384e-09
 32.35467    107.1 1.134e+04 7.101e-09
 32.39396    107.9 1.128e+04 7.046e-09
 32.42325    107.4 1.148e+04 7.753e-09
 32.44275    106.8 1.177e+04 9.218e-09
 32.46235    105.7 1.218e+04 1.196e-08
 32.48195    104.3 1.274e+04 1.690e-08
 32.50154    102.6 1.340e+04 2.495e-08
 32.52114    101.1 1.399e+04 3.554e-08
 32.54073     99.7 1.437e+04 4.343e-08
 32.56033     98.2 1.442e+04 4.415e-08
 32.57993     96.8 1.426e+04 4.163e-08
 32.59009     95.8 1.375e+04 3.363e-08
 32.59989     95.5 1.340e+04 2.845e-08
 32.61912     95.1 1.275e+04 2.109e-08
 32.63872     94.8 1.218e+04 1.580e-08
 32.65831     94.8 1.175e+04 1.256e-08
 32.67791     95.1 1.143e+04 1.061e-08
 32.69751     95.6 1.117e+04 9.200e-09
 32.71710     96.3 1.098e+04 8.184e-09
 32.73670     97.0 1.084e+04 7.395e-09
 32.75629     97.6 1.073e+04 6.729e-09
 32.77589     98.2 1.063e+04 6.158e-09
 32.79549     98.7 1.051e+04 5.663e-09
 32.81508     99.2 1.036e+04 5.194e-09
 32.83468     99.6 1.018e+04 4.758e-09
 32.85428    100.8 1.022e+04 4.928e-09
 32.87387    101.1 1.005e+04 4.462e-09
 32.89347    101.4 9.872e+03 4.156e-09
 32.91306    101.8 9.705e+03 3.897e-09
 32.93266    102.3 9.550e+03 3.649e-09
 32.95226    102.9 9.419e+03 3.420e-09
 32.97185    103.5 9.327e+03 3.221e-09
 32.99145    104.2 9.279e+03 3.074e-09
 33.01105    104.8 9.252e+03 2.956e-09
 33.03064    105.3 9.228e+03 2.845e-09
 33.05024    105.8 9.204e+03 2.807e-09
 33.06983    106.3 9.195e+03 2.825e-09
 33.08908    106.8 9.158e+03 2.904e-09
 33.09888    106.5 9.382e+03 2.917e-09
 33.10568    107.0 9.380e+03 3.025e-09
 33.11547    107.7 9.265e+03 2.962e-09
 33.12862    108.1 9.269e+03 3.149e-09
 33.14822    108.4 9.367e+03 3.402e-09
 33.16782    108.7 9.526e+03 3.740e-09
 33.18741    109.0 9.695e+03 4.196e-09
 33.20701    109.3 9.918e+03 4.898e-09
 33.22661    109.5 1.017e+04 5.863e-09
 33.24620    109.5 1.037e+04 7.013e-09
 33.26580    109.1 1.065e+04 8.701e-09
 33.28539    107.7 1.166e+04 1.344e-08
 33.30499    105.5 1.343e+04 2.669e-08
 33.32459    103.1 1.508e+04 5.259e-08
 33.34348    100.2 1.603e+04 7.040e-08
 33.35327     99.4 1.685e+04 1.021e-07
 33.36378     96.0 1.673e+04 9.438e-08
 33.38338     92.9 1.594e+04 6.281e-08
 33.40297     89.4 1.437e+04 3.346e-08
 33.42257     85.3 1.351e+04 2.664e-08
 33.44216     82.0 1.364e+04 2.854e-08
 33.46176     79.4 1.446e+04 4.078e-08
 33.48136     77.5 1.579e+04 7.015e-08
 33.50095     75.7 1.672e+04 1.011e-07
 33.52055     73.7 1.688e+04 1.054e-07
 33.54015     71.8 1.656e+04 8.955e-08
 33.55974     70.2 1.558e+04 5.623e-08
 33.57934     68.3 1.404e+04 2.962e-08
 33.59787     65.9 1.213e+04 1.591e-08
 33.60767     69.0 1.345e+04 2.267e-08
 33.61853     66.4 1.138e+04 1.198e-08
 33.63813     64.4 1.027e+04 9.076e-09
 33.65772     63.7 1.006e+04 8.853e-09
 33.68722     64.5 1.019e+04 9.142e-09
 33.72651     64.1 1.051e+04 1.104e-08
 33.76570     63.3 1.140e+04 1.613e-08
 33.79500     62.4 1.167e+04 1.816e-08
 33.81449     61.6 1.171e+04 1.826e-08
 33.83315     61.0 1.163e+04 1.728e-08
 33.84295     61.3 1.160e+04 1.680e-08
 33.85227     60.7 1.147e+04 1.547e-08
 33.86207     61.1 1.181e+04 1.811e-08
 33.87328     60.3 1.128e+04 1.355e-08
 33.89288     59.9 1.110e+04 1.238e-08
 33.91248     59.8 1.046e+04 8.875e-09
 33.93207     59.6 1.023e+04 7.869e-09
 33.95167     59.8 9.760e+03 5.909e-09
 33.97126     59.7 9.591e+03 5.282e-09
 34.00076     60.4 9.268e+03 4.297e-09
 34.04005     61.2 9.211e+03 3.778e-09
 34.07924     62.2 9.228e+03 3.468e-09
 34.10686     63.2 9.282e+03 3.088e-09
 34.12646     62.9 9.303e+03 2.852e-09
 34.15762     63.5 9.355e+03 2.526e-09
 34.19682     63.5 9.467e+03 2.255e-09
 34.23601     63.3 9.584e+03 2.203e-09
 34.27520     62.8 9.770e+03 2.320e-09
 34.31439     61.8 1.022e+04 3.081e-09
 34.35359     60.3 1.067e+04 4.916e-09
 34.39278     59.7 1.090e+04 6.675e-09
 34.42208     58.6 1.123e+04 8.453e-09
 34.44158     57.6 1.139e+04 9.793e-09
 34.46117     56.8 1.140e+04 1.031e-08
 34.48077     56.3 1.137e+04 1.048e-08
 34.50036     55.7 1.131e+04 1.006e-08
 34.51996     55.1 1.127e+04 9.534e-09
 34.53956     54.3 1.129e+04 9.443e-09
 34.55915     53.5 1.134e+04 9.594e-09
 34.57042     52.4 1.153e+04 1.046e-08
 34.58022     51.4 1.130e+04 9.252e-09
 34.59835     50.2 1.159e+04 1.118e-08
 34.61546     49.2 1.197e+04 1.434e-08
 34.62525     50.2 1.171e+04 1.269e-08
 34.63754     49.5 1.201e+04 1.458e-08
 34.65713     48.8 1.208e+04 1.462e-08
 34.67673     48.1 1.204e+04 1.372e-08
 34.69633     47.3 1.189e+04 1.150e-08
 34.71592     46.4 1.169e+04 9.358e-09
 34.73552     45.7 1.143e+04 8.326e-09
 34.75512     45.4 1.136e+04 8.384e-09
 34.77471     45.4 1.137e+04 8.637e-09
 34.79431     45.3 1.144e+04 9.143e-09
 34.81390     45.2 1.154e+04 9.838e-09
 34.83350     45.1 1.167e+04 1.062e-08
 34.85310     44.6 1.192e+04 1.176e-08
 34.86985     43.6 1.240e+04 1.430e-08
 34.87965     45.6 1.231e+04 1.417e-08
 34.89229     44.4 1.277e+04 1.714e-08
 34.91189     43.0 1.340e+04 2.279e-08
 34.93148     41.7 1.399e+04 3.020e-08
 34.95108     40.3 1.447e+04 3.372e-08
 34.97067     38.2 1.485e+04 3.470e-08
 34.99027     34.6 1.554e+04 3.768e-08
 35.00987     29.7 1.651e+04 5.180e-08
 35.02946     25.0 1.705e+04 7.465e-08
 35.04906     20.4 1.718e+04 8.557e-08
 35.06866     15.2 1.733e+04 8.293e-08
 35.08825      6.5 1.852e+04 9.638e-08
 35.10785     -1.8 1.826e+04 1.247e-07
 35.12425     -7.5 1.709e+04 1.008e-07
 35.13405     -4.2 1.754e+04 1.192e-07
 35.14704     -9.8 1.666e+04 6.211e-08
 35.16664    -17.0 1.457e+04 3.053e-08
 35.18623    -22.6 1.284e+04 1.852e-08
 35.20583    -26.2 1.215e+04 1.581e-08
 35.22543    -28.6 1.192e+04 1.534e-08
 35.24502    -30.2 1.184e+04 1.572e-08
 35.26462    -31.4 1.167e+04 1.534e-08
 35.28422    -32.4 1.135e+04 1.313e-08
 35.29789    -33.4 1.095e+04 1.072e-08
 35.30769    -33.9 1.115e+04 1.146e-08
 35.33330    -34.4 1.073e+04 9.194e-09
 35.37259    -35.9 1.062e+04 8.825e-09
 35.40189    -37.5 1.093e+04 1.016e-08
 35.42139    -37.6 1.096e+04 1.032e-08
 35.44099    -38.8 1.121e+04 1.205e-08
 35.46058    -40.0 1.150e+04 1.364e-08
 35.48018    -41.2 1.175e+04 1.462e-08
 35.49977    -43.0 1.182e+04 1.462e-08
 35.51937    -45.6 1.198e+04 1.363e-08
 35.53897    -49.0 1.216e+04 1.331e-08
 35.55856    -52.8 1.248e+04 1.477e-08
 35.57816    -55.7 1.265e+04 1.816e-08
 35.59776    -57.7 1.278e+04 2.006e-08
 35.61735    -59.8 1.290e+04 1.908e-08
 35.63304    -62.8 1.303e+04 1.533e-08
 35.64284    -62.6 1.364e+04 2.454e-08
 35.65655    -66.1 1.357e+04 2.216e-08
 35.67614    -69.8 1.353e+04 2.182e-08
 35.69574    -73.1 1.388e+04 2.784e-08
 35.71533    -75.5 1.440e+04 4.049e-08
 35.73493    -77.0 1.478e+04 5.298e-08
 35.75453    -78.2 1.486e+04 5.692e-08
 35.77412    -78.9 1.470e+04 5.433e-08
 35.79372    -79.6 1.440e+04 3.856e-08
 35.81332    -80.9 1.377e+04 2.545e-08
 35.83291    -82.3 1.340e+04 1.727e-08
 35.85251    -83.6 1.300e+04 1.218e-08
 35.87210    -84.9 1.265e+04 9.105e-09
 35.88743    -86.2 1.237e+04 7.590e-09
 35.89723    -84.8 1.284e+04 1.071e-08
 35.91130    -86.2 1.265e+04 8.088e-09
 35.93089    -87.5 1.259e+04 7.394e-09
 35.95049    -88.9 1.268e+04 7.494e-09
 35.97009    -90.5 1.311e+04 9.582e-09
 35.98968    -92.0 1.349e+04 1.294e-08
 36.00928    -93.9 1.382e+04 1.564e-08
 36.02536    -96.4 1.412e+04 1.699e-08
 36.03516    -95.7 1.506e+04 2.503e-08
 36.04847    -98.3 1.487e+04 1.997e-08
 36.06807   -100.8 1.434e+04 1.486e-08
 36.08766   -103.0 1.393e+04 1.184e-08
 36.10726   -104.6 1.338e+04 1.001e-08
 36.12686   -105.6 1.290e+04 8.668e-09
 36.14183   -106.2 1.258e+04 7.076e-09
 36.15163   -105.7 1.271e+04 8.017e-09
 36.16605   -106.4 1.248e+04 6.199e-09
 36.18564   -107.3 1.239e+04 4.683e-09
 36.20524   -108.5 1.244e+04 3.857e-09
 36.22484   -109.9 1.249e+04 3.677e-09
 36.24443   -111.8 1.269e+04 3.747e-09
 36.26403   -113.9 1.294e+04 4.975e-09
 36.28363   -115.7 1.305e+04 7.186e-09
 36.30322   -117.2 1.313e+04 8.834e-09
 36.32282   -118.9 1.314e+04 9.223e-09
 36.34242   -120.5 1.295e+04 8.973e-09
 36.36201   -121.8 1.259e+04 7.441e-09
 36.38161   -123.0 1.231e+04 5.893e-09
 36.39623   -124.1 1.213e+04 4.842e-09
 36.40602   -124.3 1.204e+04 3.840e-09
 36.42080   -125.2 1.208e+04 3.300e-09
 36.44040   -125.8 1.210e+04 3.018e-09
 36.45999   -126.3 1.209e+04 2.872e-09
 36.47959   -126.6 1.205e+04 2.806e-09
 36.49919   -126.7 1.202e+04 2.784e-09
 36.51878   -126.7 1.200e+04 2.801e-09
 36.53838   -126.7 1.199e+04 2.828e-09
 36.55797   -126.6 1.199e+04 2.838e-09
 36.57757   -126.5 1.198e+04 2.833e-09
 36.59717   -126.2 1.201e+04 2.730e-09
 36.62666   -125.8 1.204e+04 2.540e-09
 36.65082   -124.7 1.207e+04 2.201e-09
 36.67041   -124.0 1.205e+04 2.264e-09
 36.70514   -123.0 1.205e+04 1.993e-09
 36.74433   -122.0 1.212e+04 1.679e-09
 36.78353   -121.1 1.219e+04 1.337e-09
 36.82272   -120.0 1.223e+04 1.019e-09
 36.86191   -118.6 1.224e+04 7.765e-10
 36.90110   -116.9 1.225e+04 6.166e-10
 36.94030   -115.1 1.228e+04 5.135e-10
 36.97949   -113.2 1.233e+04 4.291e-10
 37.01868   -111.2 1.238e+04 3.529e-10
 37.05788   -109.2 1.245e+04 2.871e-10
 37.09707   -107.1 1.252e+04 2.371e-10
 37.13626   -105.0 1.257e+04 2.058e-10
 37.15961   -102.9 1.257e+04 1.957e-10
 37.17921   -102.5 1.254e+04 2.085e-10
 37.21465   -100.5 1.252e+04 2.130e-10
 37.25384    -98.4 1.248e+04 2.387e-10
 37.29303    -96.3 1.246e+04 2.747e-10
 37.33222    -94.0 1.246e+04 3.125e-10
 37.37142    -91.8 1.246e+04 3.576e-10
 37.41061    -89.5 1.245e+04 4.180e-10
 37.44980    -87.3 1.246e+04 4.882e-10
 37.48050    -85.1 1.249e+04 5.531e-10
 37.50010    -85.4 1.252e+04 5.098e-10
 37.52819    -83.2 1.256e+04 5.613e-10
 37.56738    -81.1 1.263e+04 5.982e-10
 37.60657    -79.1 1.273e+04 6.186e-10
 37.64576    -77.1 1.279e+04 6.265e-10
 37.66840    -75.2 1.281e+04 6.271e-10
 37.68800    -75.1 1.275e+04 6.738e-10
 37.72415    -73.3 1.261e+04 7.228e-10
 37.76334    -71.5 1.249e+04 7.629e-10
 37.80253    -69.6 1.241e+04 7.783e-10
 37.84173    -67.6 1.226e+04 7.689e-10
 37.88092    -65.4 1.220e+04 6.826e-10
 37.92011    -63.1 1.222e+04 5.566e-10
 37.95930    -60.9 1.227e+04 4.493e-10
 37.99850    -58.6 1.229e+04 3.749e-10
 38.03769    -56.3 1.232e+04 3.230e-10
 38.07688    -53.9 1.234e+04 2.877e-10
 38.11607    -51.6 1.235e+04 2.628e-10
 38.15527    -49.1 1.232e+04 2.488e-10
 38.17719    -46.7 1.227e+04 2.456e-10
 38.19679    -46.4 1.213e+04 2.453e-10
 38.23365    -44.0 1.213e+04 2.492e-10
 38.27285    -41.6 1.207e+04 2.734e-10
 38.31204    -39.2 1.201e+04 3.119e-10
 38.35123    -36.8 1.195e+04 3.644e-10
 38.39042    -34.5 1.188e+04 4.333e-10
 38.42962    -32.2 1.182e+04 5.143e-10
 38.46881    -29.9 1.177e+04 5.788e-10
 38.50800    -27.7 1.175e+04 5.970e-10
 38.54719    -25.8 1.170e+04 5.839e-10
 38.58639    -24.2 1.170e+04 5.731e-10
 38.62558    -22.7 1.152e+04 6.723e-10
 38.66477    -21.0 1.133e+04 8.673e-10
 38.68598    -19.1 1.129e+04 9.761e-10
 38.70558    -19.0 1.130e+04 7.921e-10
 38.74316    -17.2 1.125e+04 8.389e-10
 38.78235    -15.7 1.126e+04 8.246e-10
 38.82154    -14.3 1.122e+04 8.559e-10
 38.86073    -12.5 1.095e+04 1.055e-09
 38.89993    -10.4 1.091e+04 1.074e-09
 38.93544     -8.7 1.107e+04 9.919e-10
 38.95504     -8.3 1.091e+04 9.069e-10
 38.97831     -6.8 1.094e+04 1.016e-09
 39.01750     -5.3 1.090e+04 1.346e-09
 39.05670     -3.5 1.099e+04 1.756e-09
 39.09589     -1.9 1.112e+04 2.210e-09
 39.13508     -0.4 1.130e+04 2.480e-09
 39.17427      1.1 1.151e+04 2.287e-09
 39.19478      2.2 1.158e+04 1.859e-09
 39.21437      2.6 1.161e+04 1.922e-09
 39.25266      3.8 1.153e+04 1.487e-09
 39.29185      5.0 1.145e+04 1.441e-09
 39.33104      6.2 1.150e+04 1.633e-09
 39.37024      7.1 1.172e+04 2.253e-09
 39.39953      7.6 1.176e+04 3.069e-09
 39.41903      8.2 1.198e+04 3.412e-09
 39.43863      8.3 1.200e+04 4.197e-09
 39.44898      8.6 1.201e+04 4.840e-09
 39.45877      9.0 1.216e+04 4.083e-09
 39.47782      9.1 1.228e+04 4.673e-09
 39.49742      9.2 1.231e+04 5.366e-09
 39.51701      9.3 1.236e+04 5.837e-09
 39.53661      9.5 1.235e+04 6.392e-09
 39.55621      9.6 1.241e+04 6.656e-09
 39.57580      9.5 1.248e+04 6.902e-09
 39.59540      9.1 1.269e+04 7.099e-09
 39.61500      8.4 1.288e+04 8.492e-09
 39.63459      7.9 1.301e+04 1.134e-08
 39.65419      7.8 1.299e+04 1.490e-08
 39.67252      7.6 1.305e+04 1.753e-08
 39.68232      8.5 1.340e+04 1.868e-08
 39.69338      8.6 1.329e+04 1.870e-08
 39.70337      8.7 1.314e+04 1.754e-08
 39.71317      8.9 1.339e+04 1.995e-08
 39.73257      8.8 1.314e+04 1.723e-08
 39.75217      8.8 1.292e+04 1.390e-08
 39.77177      8.5 1.279e+04 1.251e-08
 39.79136      8.7 1.280e+04 1.228e-08
 39.81096      9.1 1.285e+04 1.264e-08
 39.83055      9.0 1.334e+04 1.513e-08
 39.85015      7.8 1.422e+04 2.169e-08
 39.86975      6.0 1.503e+04 3.969e-08
 39.88934      5.8 1.583e+04 7.658e-08
 39.90894      6.4 1.619e+04 1.045e-07
 39.92854      7.1 1.623e+04 7.284e-08
 39.94797      6.4 1.578e+04 3.001e-08
 39.95777      6.1 1.602e+04 2.875e-08
 39.96773      2.1 1.383e+04 1.035e-08
 39.98733      2.1 1.228e+04 8.700e-09
 40.00692      1.1 1.148e+04 6.347e-09
 40.03641      0.5 1.095e+04 4.245e-09
 40.07570      0.9 1.066e+04 2.535e-09
 40.11490      1.8 1.041e+04 2.102e-09
 40.15409      3.1 1.022e+04 2.015e-09
 40.19276      4.3 1.017e+04 1.944e-09
 40.21236      3.8 1.032e+04 1.998e-09
 40.23247      4.7 1.038e+04 2.055e-09
 40.27167      5.0 1.038e+04 2.676e-09
 40.31086      6.2 1.020e+04 3.595e-09
 40.35005      7.4 1.005e+04 3.564e-09
 40.38924      8.8 9.463e+03 2.964e-09
 40.40998     10.1 9.009e+03 1.956e-09
 40.42958     10.5 8.679e+03 1.661e-09
 40.46763     11.5 8.416e+03 1.129e-09
 40.50682     12.5 8.314e+03 8.896e-10
 40.54601     13.9 8.360e+03 8.962e-10
 40.58521     14.4 8.706e+03 1.109e-09
 40.62440     14.8 9.276e+03 1.846e-09
 40.66359     15.7 9.801e+03 2.824e-09
 40.70155     16.4 1.003e+04 3.070e-09
 40.72115     16.7 1.010e+04 3.204e-09
 40.74198     17.6 1.000e+04 2.682e-09
 40.78117     18.0 9.938e+03 1.721e-09
 40.82036     17.7 9.932e+03 1.205e-09
 40.85956     17.2 9.948e+03 1.315e-09
 40.89875     16.9 9.944e+03 1.997e-09
 40.93794     16.6 9.841e+03 2.647e-09
 40.97713     16.2 9.961e+03 2.467e-09
 41.01633     13.9 1.078e+04 2.614e-09
 41.05552     10.5 1.152e+04 3.645e-09
 41.08482     10.8 1.162e+04 3.467e-09
 41.10431      2.8 1.529e+04 1.138e-08
 41.12391     -1.4 1.527e+04 5.207e-08
 41.13726      1.9 1.540e+04 1.205e-07
 41.14706      1.4 1.537e+04 1.219e-07
 41.16310      5.4 1.515e+04 5.756e-08
 41.18270      2.1 1.554e+04 1.327e-08
 41.20230     -6.5 1.176e+04 4.304e-09
 41.21995     -8.8 1.046e+04 3.182e-09
 41.22975     -8.4 1.052e+04 3.396e-09
 41.24149     -8.6 1.031e+04 3.527e-09
 41.26108     -8.2 1.017e+04 3.719e-09
 41.28068     -7.8 1.027e+04 3.519e-09
 41.30028     -7.8 1.028e+04 3.120e-09
 41.31987     -8.0 1.025e+04 2.951e-09
 41.33947     -8.3 1.020e+04 2.912e-09
 41.35907     -8.6 1.006e+04 3.112e-09
 41.37866     -8.5 1.011e+04 3.470e-09
 41.39826     -9.2 1.059e+04 3.921e-09
 41.41785    -12.1 1.176e+04 5.439e-09
 41.43745    -15.2 1.176e+04 9.602e-09
 41.45705    -15.6 1.180e+04 1.759e-08
 41.47434    -13.6 1.209e+04 2.101e-08
 41.48414    -13.8 1.168e+04 1.543e-08
 41.49624    -13.1 1.140e+04 1.189e-08
 41.51584    -12.9 1.092e+04 5.606e-09
 41.53543    -14.2 1.033e+04 3.212e-09
 41.55503    -14.4 1.001e+04 2.254e-09
 41.57462    -14.0 1.001e+04 2.037e-09
 41.60412    -13.4 9.907e+03 1.737e-09
 41.64341    -11.4 9.795e+03 1.426e-09
 41.68260     -9.3 9.851e+03 1.369e-09
 41.71914     -7.5 9.974e+03 1.741e-09
 41.73873     -7.5 1.000e+04 1.814e-09
 41.76098     -4.8 1.021e+04 2.602e-09
 41.79028     -1.9 1.034e+04 2.820e-09
 41.80978     -1.5 1.040e+04 2.879e-09
 41.82938      0.1 1.042e+04 3.117e-09
 41.84897      0.9 1.058e+04 3.285e-09
 41.86473      1.9 1.069e+04 4.502e-09
 41.88443      2.6 1.072e+04 3.924e-09
 41.91776      5.1 1.138e+04 8.582e-09
 41.94705      6.3 1.182e+04 1.150e-08
 41.96655      7.3 1.234e+04 1.474e-08
 41.98314      8.1 1.276e+04 1.875e-08
 41.99293      8.0 1.272e+04 1.777e-08
 42.00574      8.7 1.339e+04 2.304e-08
 42.02534      9.1 1.401e+04 3.058e-08
 42.04494      9.6 1.436e+04 3.957e-08
 42.06453      9.9 1.454e+04 4.497e-08
 42.08413      9.8 1.455e+04 4.570e-08
 42.10372      9.6 1.464e+04 4.135e-08
 42.12332      8.6 1.483e+04 2.984e-08
 42.14292      7.1 1.549e+04 2.696e-08
 42.16251      6.0 1.638e+04 2.664e-08
 42.18211      4.9 1.656e+04 2.893e-08
 42.20171      3.3 1.610e+04 2.836e-08
 42.22130      2.3 1.558e+04 2.285e-08
 42.23753      2.4 1.483e+04 2.019e-08
 42.24733      1.2 1.598e+04 2.160e-08
 42.26049      1.8 1.495e+04 1.469e-08
 42.28009      2.1 1.415e+04 9.975e-09
 42.29969      2.2 1.326e+04 7.988e-09
 42.31928      3.0 1.282e+04 6.420e-09
 42.33888      3.9 1.262e+04 5.591e-09
 42.35848      4.5 1.239e+04 5.364e-09
 42.37807      5.4 1.217e+04 7.129e-09
 42.39767      6.3 1.187e+04 6.884e-09
 42.42716      7.7 1.224e+04 8.102e-09
 42.46645     10.1 1.214e+04 7.436e-09
 42.50564     12.6 1.206e+04 6.285e-09
 42.54484     15.0 1.193e+04 5.110e-09
 42.58403     17.5 1.190e+04 4.783e-09
 42.62322     19.6 1.221e+04 5.293e-09
 42.65252     20.7 1.225e+04 5.736e-09
 42.67202     21.8 1.228e+04 5.897e-09
 42.69161     22.7 1.245e+04 6.151e-09
 42.71121     23.4 1.265e+04 6.566e-09
 42.73081     23.4 1.274e+04 7.234e-09
 42.74632     23.0 1.280e+04 8.563e-09
 42.75612     22.4 1.320e+04 1.013e-08
 42.77000     21.8 1.325e+04 1.370e-08
 42.78959     21.7 1.328e+04 1.604e-08
 42.80919     22.2 1.302e+04 1.477e-08
 42.82879     23.2 1.267e+04 1.081e-08
 42.84838     23.2 1.250e+04 6.881e-09
 42.86798     22.6 1.234e+04 4.786e-09
 42.88758     22.4 1.192e+04 4.456e-09
 42.90717     22.4 1.191e+04 4.647e-09
 42.92677     22.3 1.196e+04 5.771e-09
 42.94637     22.6 1.210e+04 8.284e-09
 42.96596     22.9 1.243e+04 1.120e-08
 42.98556     22.4 1.319e+04 1.360e-08
 43.00072     20.9 1.479e+04 1.701e-08
 43.01047     16.8 1.615e+04 3.554e-08
 43.02470     14.9 1.657e+04 8.486e-08
 43.04435     16.2 1.594e+04 8.698e-08
 43.06394     17.7 1.534e+04 6.573e-08
 43.08354     18.3 1.473e+04 4.048e-08
 43.10314     18.4 1.406e+04 2.642e-08
 43.12273     18.6 1.337e+04 1.803e-08
 43.14233     19.1 1.267e+04 1.239e-08
 43.16192     20.2 1.223e+04 9.037e-09
 43.18152     21.1 1.182e+04 6.662e-09
 43.21101     22.0 1.171e+04 5.377e-09
 43.24551     23.4 1.131e+04 4.055e-09
 43.26511     23.0 1.092e+04 2.219e-09
 43.28950     25.2 1.094e+04 2.254e-09
 43.31987     27.1 1.099e+04 2.513e-09
 43.33947     27.8 1.113e+04 2.881e-09
 43.36788     29.4 1.114e+04 3.330e-09
 43.40707     31.4 1.119e+04 4.206e-09
 43.43637     31.7 1.128e+04 4.780e-09
 43.45587     32.4 1.127e+04 5.160e-09
 43.47546     33.1 1.130e+04 5.388e-09
 43.49506     33.8 1.135e+04 5.443e-09
 43.50951     34.6 1.129e+04 5.343e-09
 43.51931     34.6 1.146e+04 5.841e-09
 43.53425     35.5 1.139e+04 5.686e-09
 43.55385     36.4 1.127e+04 5.136e-09
 43.57345     36.9 1.126e+04 4.528e-09
 43.59304     37.2 1.121e+04 4.100e-09
 43.61264     37.4 1.124e+04 4.118e-09
 43.64213     38.0 1.105e+04 3.987e-09
 43.68142     38.2 1.118e+04 4.974e-09
 43.72061     38.4 1.123e+04 5.711e-09
 43.75430     39.1 1.104e+04 5.185e-09
 43.77390     39.2 1.122e+04 6.186e-09
 43.79900     39.7 1.085e+04 2.893e-09
 43.83819     39.6 1.034e+04 1.661e-09
 43.87738     40.3 1.004e+04 1.645e-09
 43.91658     41.9 9.921e+03 1.836e-09
 43.95577     43.7 9.866e+03 2.215e-09
 43.99496     45.6 9.849e+03 2.387e-09
 44.03415     47.4 9.829e+03 2.366e-09
 44.07335     49.3 9.756e+03 2.221e-09
 44.11254     51.1 9.618e+03 2.062e-09
 44.15173     53.0 9.589e+03 2.069e-09
 44.19092     54.8 9.588e+03 2.257e-09
 44.23012     56.6 9.687e+03 2.989e-09
 44.26310     57.9 9.831e+03 3.915e-09
 44.28269     57.6 9.787e+03 4.395e-09
 44.30850     59.0 9.836e+03 4.715e-09
 44.34770     60.5 9.716e+03 4.268e-09
 44.38689     62.0 9.411e+03 2.755e-09
 44.42608     63.0 9.078e+03 1.307e-09
 44.46527     63.4 8.691e+03 8.534e-10
 44.50447     64.4 8.639e+03 8.735e-10
 44.54366     65.6 8.627e+03 1.060e-09
 44.58285     67.0 8.829e+03 1.592e-09
 44.62204     68.0 9.189e+03 2.387e-09
 44.65134     68.3 9.316e+03 2.839e-09
 44.67084     68.7 9.445e+03 3.351e-09
 44.69043     69.0 9.612e+03 4.285e-09
 44.71003     69.3 9.723e+03 5.526e-09
 44.72963     69.7 9.818e+03 6.729e-09
 44.74922     70.2 1.001e+04 7.361e-09
 44.76882     70.7 1.014e+04 7.326e-09
 44.78149     71.2 1.021e+04 6.982e-09
 44.78729     70.3 9.945e+03 5.216e-09
 44.79422     72.3 9.907e+03 5.034e-09
 44.80801     72.7 9.925e+03 4.788e-09
 44.82761     73.0 9.907e+03 4.236e-09
 44.84721     73.1 9.859e+03 3.680e-09
 44.86680     73.1 9.716e+03 3.282e-09
 44.88640     73.1 9.670e+03 3.270e-09
 44.90599     73.1 9.683e+03 3.442e-09
 44.92559     73.2 9.763e+03 4.099e-09
 44.94519     73.4 9.943e+03 5.300e-09
 44.96478     73.7 1.021e+04 6.948e-09
 44.98438     74.2 1.050e+04 8.848e-09
 45.00398     74.7 1.083e+04 1.086e-08
 45.02357     75.1 1.120e+04 1.288e-08
 45.03589     75.0 1.162e+04 1.494e-08
 45.04568     74.5 1.189e+04 1.681e-08
 45.06276     74.3 1.219e+04 1.860e-08
 45.08236     74.1 1.235e+04 1.987e-08
 45.10196     73.8 1.245e+04 2.049e-08
 45.12155     73.5 1.247e+04 2.068e-08
 45.14115     73.2 1.244e+04 2.050e-08
 45.16075     73.1 1.245e+04 2.050e-08
 45.18034     72.9 1.257e+04 2.102e-08
 45.19994     72.6 1.292e+04 2.305e-08
 45.21953     72.3 1.345e+04 2.706e-08
 45.23913     72.0 1.411e+04 3.313e-08
 45.25873     71.4 1.494e+04 4.145e-08
 45.27832     70.2 1.589e+04 5.255e-08
 45.29028     68.8 1.689e+04 7.376e-08
 45.30008     70.1 1.537e+04 4.703e-08
 45.31752     68.9 1.554e+04 4.915e-08
 45.33711     67.8 1.543e+04 4.720e-08
 45.35671     66.8 1.507e+04 4.248e-08
 45.37631     66.1 1.444e+04 3.483e-08
 45.39590     65.7 1.351e+04 2.576e-08
 45.41550     65.5 1.237e+04 1.756e-08
 45.43509     65.4 1.121e+04 1.155e-08
 45.45469     65.7 1.024e+04 7.665e-09
 45.47429     66.3 9.508e+03 4.982e-09
 45.49388     67.0 8.998e+03 3.326e-09
 45.51189     67.8 8.742e+03 2.294e-09
 45.52169     69.2 8.867e+03 2.775e-09
 45.53308     69.8 8.668e+03 2.126e-09
 45.56257     70.7 8.508e+03 1.537e-09
 45.60186     71.7 8.101e+03 1.071e-09
 45.64105     72.3 7.932e+03 9.661e-10
 45.68024     72.7 8.078e+03 1.083e-09
 45.71944     73.0 8.371e+03 1.318e-09
 45.75863     73.3 8.687e+03 1.735e-09
 45.78947     73.5 9.004e+03 2.106e-09
 45.80907     73.1 9.375e+03 2.247e-09
 45.83701     72.9 9.552e+03 2.469e-09
 45.86631     73.0 9.379e+03 2.256e-09
 45.88581     72.9 9.305e+03 2.130e-09
 45.90540     72.6 9.313e+03 2.132e-09
 45.92500     72.1 9.422e+03 2.204e-09
 45.94460     71.4 9.793e+03 2.483e-09
 45.96419     70.4 1.041e+04 3.149e-09
 45.98379     69.2 1.108e+04 4.388e-09
 46.00339     67.9 1.164e+04 6.501e-09
 46.02298     66.8 1.211e+04 9.479e-09
 46.04258     66.3 1.246e+04 1.284e-08
 46.05347     66.0 1.286e+04 1.569e-08
 46.06327     64.8 1.329e+04 1.787e-08
 46.08177     64.1 1.347e+04 1.765e-08
 46.10137     62.6 1.356e+04 1.664e-08
 46.12096     60.7 1.347e+04 1.555e-08
 46.14056     58.7 1.330e+04 1.524e-08
 46.16016     56.5 1.334e+04 1.588e-08
 46.17975     53.8 1.385e+04 1.854e-08
 46.19935     50.6 1.490e+04 2.493e-08
 46.21895     48.2 1.556e+04 3.199e-08
 46.23854     46.2 1.548e+04 3.227e-08
 46.24916     45.2 1.499e+04 2.910e-08
 46.25896     44.1 1.487e+04 2.749e-08
 46.27773     43.8 1.392e+04 1.945e-08
 46.29733     43.1 1.283e+04 1.208e-08
 46.30786     41.5 1.171e+04 7.182e-09
 46.31766     38.9 1.149e+04 6.714e-09
 46.33652     36.8 1.090e+04 5.163e-09
 46.35612     35.6 1.100e+04 5.414e-09
 46.37572     33.5 1.190e+04 7.029e-09
 46.39531     28.8 1.396e+04 1.437e-08
 46.41491     26.3 1.572e+04 3.735e-08
 46.43450     26.7 1.728e+04 7.496e-08
 46.45410     25.0 1.914e+04 1.168e-07
 46.46875     17.5 2.086e+04 1.348e-07
 46.47850     12.2 2.145e+04 1.330e-07
 46.48830      5.9 2.283e+04 1.282e-07
 46.49809     -2.2 2.312e+04 1.293e-07
 46.50789    -10.0 2.226e+04 1.435e-07
 46.51769    -17.0 2.167e+04 1.523e-07
 46.52749    -23.8 2.060e+04 1.469e-07
 46.53729    -28.4 2.106e+04 1.502e-07
 46.54709    -35.9 2.002e+04 1.257e-07
 46.55688    -39.8 2.084e+04 1.315e-07
 46.56216    -47.0 2.015e+04 1.187e-07
 46.56706    -46.7 2.015e+04 1.200e-07
 46.57648    -50.7 2.060e+04 1.263e-07
 46.58628    -56.6 1.983e+04 1.213e-07
 46.59608    -59.9 1.980e+04 1.251e-07
 46.60587    -63.8 1.929e+04 1.228e-07
 46.61280    -67.4 1.991e+04 1.286e-07
 46.61770    -72.8 2.259e+04 1.696e-07
 46.62300    -76.3 2.340e+04 1.744e-07
 46.62571    -79.3 2.435e+04 2.290e-07
 46.62816    -80.9 2.423e+04 2.707e-07
 46.63277    -86.7 2.355e+04 4.259e-07
 46.63767    -88.0 2.360e+04 4.661e-07
 46.64257    -92.5 2.212e+04 6.950e-07
 46.64747    -94.3 2.160e+04 8.648e-07
 46.65237    -97.4 2.025e+04 1.167e-06
 46.65727    -98.3 1.992e+04 1.296e-06
 46.66217    -99.7 1.948e+04 1.424e-06
 46.66706   -100.5 1.974e+04 1.475e-06
 46.67196   -102.6 1.985e+04 1.949e-06
 46.67686   -105.4 1.976e+04 3.908e-06
 46.68176   -109.4 1.853e+04 1.009e-05
 46.68666   -114.1 1.692e+04 2.394e-05
 46.68931   -119.0 1.627e+04 3.655e-05
 46.69176   -117.6 1.871e+04 1.025e-05
 46.69646   -122.3 1.788e+04 1.410e-05
 46.70136   -126.4 1.743e+04 1.602e-05
 46.70626   -129.6 1.713e+04 1.552e-05
 46.71363   -132.2 1.721e+04 1.314e-05
 46.72345   -135.4 1.697e+04 1.259e-05
 46.73325   -136.7 1.706e+04 1.061e-05
 46.74305   -137.2 1.734e+04 8.459e-06
 46.75285   -137.7 1.773e+04 6.316e-06
 46.76264   -137.7 1.805e+04 4.715e-06
 46.77244   -137.0 1.830e+04 3.606e-06
 46.78224   -136.0 1.858e+04 2.828e-06
 46.79204   -135.0 1.891e+04 2.258e-06
 46.80184   -134.0 1.930e+04 1.800e-06
 46.81164   -132.9 1.979e+04 1.431e-06
 46.82143   -131.9 2.000e+04 1.416e-06
 46.83123   -131.1 2.043e+04 1.133e-06
 46.84103   -130.2 2.076e+04 8.937e-07
 46.85083   -129.0 2.105e+04 7.154e-07
 46.86063   -127.8 2.134e+04 5.946e-07
 46.87042   -126.7 2.162e+04 5.136e-07
 46.88022   -125.9 2.186e+04 4.520e-07
 46.89002   -125.4 2.194e+04 3.976e-07
 46.89982   -124.6 2.191e+04 3.521e-07
 46.90962   -123.4 2.196e+04 3.208e-07
 46.91942   -122.2 2.210e+04 3.029e-07
 46.92921   -121.1 2.226e+04 2.912e-07
 46.93886   -120.3 2.233e+04 2.814e-07
 46.94376   -120.6 2.173e+04 3.348e-07
 46.94881   -120.0 2.145e+04 3.369e-07
 46.95861   -119.0 2.097e+04 3.554e-07
 46.96841   -117.9 2.061e+04 4.055e-07
 46.97653   -117.2 2.044e+04 4.847e-07
 46.98143   -116.2 2.234e+04 2.406e-07
 46.98800   -115.6 2.210e+04 2.698e-07
 46.99780   -115.2 2.181e+04 3.082e-07
 47.00760   -115.0 2.154e+04 3.498e-07
 47.01740   -114.8 2.133e+04 3.853e-07
 47.02719   -114.8 2.120e+04 4.024e-07
 47.03699   -114.8 2.111e+04 4.064e-07
 47.04679   -114.7 2.091e+04 4.051e-07
 47.05659   -114.2 2.084e+04 4.030e-07
 47.06606   -113.6 2.076e+04 4.162e-07
 47.07095   -115.5 1.905e+04 7.904e-07
 47.07619   -115.1 1.915e+04 7.886e-07
 47.08598   -114.6 1.916e+04 7.691e-07
 47.09578   -113.6 1.909e+04 7.491e-07
 47.10558   -112.3 1.906e+04 7.461e-07
 47.11538   -111.0 1.900e+04 8.145e-07
 47.12518   -109.9 1.896e+04 9.868e-07
 47.13497   -108.9 1.885e+04 1.292e-06
 47.14477   -108.1 1.854e+04 1.910e-06
 47.15457   -107.2 1.811e+04 3.213e-06
 47.16437   -106.7 1.759e+04 5.877e-06
 47.17417   -106.9 1.699e+04 1.091e-05
 47.18149   -106.5 1.682e+04 1.391e-05
 47.18637   -107.4 1.639e+04 2.156e-05
 47.19126   -107.8 1.608e+04 2.613e-05
 47.19565   -109.3 1.564e+04 3.675e-05
 47.19810   -110.0 1.525e+04 5.357e-05
 47.20106   -112.2 1.435e+04 1.211e-04
 47.20596   -115.5 1.418e+04 1.515e-04
 47.21086   -118.9 1.422e+04 1.411e-04
 47.21576   -121.9 1.475e+04 7.924e-05
 47.22066   -124.5 1.612e+04 2.747e-05
 47.22556   -127.2 1.677e+04 1.498e-05
 47.23046   -129.5 1.756e+04 8.842e-06
 47.23536   -132.7 1.849e+04 4.895e-06
 47.24273   -137.3 1.998e+04 1.879e-06
 47.25255   -143.1 2.104e+04 6.474e-07
 47.26235   -147.6 2.091e+04 2.116e-07
 47.27215   -151.3 1.835e+04 7.248e-08
 47.28195   -153.2 1.580e+04 4.175e-08
 47.29174   -154.2 1.410e+04 2.986e-08
 47.30154   -154.7 1.325e+04 2.445e-08
 47.31134   -154.9 1.277e+04 2.105e-08
 47.32045   -155.0 1.237e+04 1.856e-08
 47.32535   -155.1 1.234e+04 1.803e-08
 47.33589   -155.9 1.168e+04 1.414e-08
 47.35553   -156.9 1.070e+04 1.027e-08
 47.37513   -157.3 9.915e+03 7.964e-09
 47.39472   -157.4 9.493e+03 6.765e-09
 47.41432   -157.3 9.288e+03 6.182e-09
 47.43392   -157.2 9.223e+03 6.012e-09
 47.45351   -157.2 9.210e+03 5.986e-09
 47.47311   -157.2 9.203e+03 6.083e-09
 47.49270   -157.4 9.283e+03 6.385e-09
 47.51230   -157.6 9.425e+03 6.836e-09
 47.53190   -157.9 9.569e+03 7.273e-09
 47.55149   -158.3 9.692e+03 7.604e-09
 47.57005   -158.7 9.783e+03 7.849e-09
 47.57984   -158.1 9.601e+03 7.384e-09
 47.59069   -158.3 9.560e+03 7.212e-09
 47.61028   -158.3 9.500e+03 7.069e-09
 47.62988   -158.3 9.448e+03 7.032e-09
 47.64947   -157.8 9.412e+03 7.032e-09
 47.66907   -157.1 9.381e+03 7.108e-09
 47.68867   -156.2 9.449e+03 7.318e-09
 47.70410   -155.3 9.610e+03 7.806e-09
 47.71390   -155.5 9.539e+03 7.529e-09
 47.72786   -154.4 9.741e+03 8.082e-09
 47.74746   -153.4 1.008e+04 9.150e-09
 47.76705   -152.3 1.053e+04 1.095e-08
 47.78665   -151.2 1.103e+04 1.359e-08
 47.80625   -150.0 1.155e+04 1.705e-08
 47.82444   -148.6 1.203e+04 2.112e-08
 47.83424   -147.5 1.095e+04 1.281e-08
 47.84544   -146.2 1.144e+04 1.599e-08
 47.86503   -144.8 1.187e+04 1.953e-08
 47.88463   -143.3 1.219e+04 2.308e-08
 47.90423   -141.8 1.246e+04 2.615e-08
 47.92382   -140.2 1.257e+04 2.784e-08
 47.94342   -138.5 1.255e+04 2.788e-08
 47.96302   -136.9 1.240e+04 2.632e-08
 47.98261   -135.1 1.215e+04 2.376e-08
 48.00221   -133.4 1.185e+04 2.091e-08
 48.02180   -131.7 1.146e+04 1.758e-08
 48.04140   -130.0 1.100e+04 1.400e-08
 48.06100   -128.2 1.053e+04 1.089e-08
 48.07884   -126.6 1.009e+04 8.387e-09
 48.08864   -126.1 1.044e+04 1.034e-08
 48.10019   -124.5 1.003e+04 7.996e-09
 48.11979   -122.9 9.627e+03 6.159e-09
 48.13938   -121.2 9.279e+03 4.834e-09
 48.15898   -119.4 9.049e+03 3.955e-09
 48.17857   -117.6 8.928e+03 3.367e-09
 48.19817   -116.0 8.881e+03 2.991e-09
 48.22766   -114.1 8.879e+03 2.745e-09
 48.26695   -110.1 8.727e+03 2.518e-09
 48.30615   -106.2 8.622e+03 2.438e-09
 48.33343   -102.5 8.800e+03 2.536e-09
 48.35302   -102.8 8.795e+03 2.536e-09
 48.38453    -99.2 8.981e+03 2.724e-09
 48.42372    -95.9 9.251e+03 3.112e-09
 48.45302    -93.9 9.401e+03 3.520e-09
 48.47252    -92.5 9.480e+03 3.923e-09
 48.49212    -90.8 9.627e+03 4.531e-09
 48.51171    -89.4 9.774e+03 5.089e-09
 48.53131    -88.1 9.924e+03 5.700e-09
 48.55090    -86.8 1.008e+04 6.358e-09
 48.57050    -85.5 1.026e+04 7.070e-09
 48.58763    -84.3 1.046e+04 7.848e-09
 48.59743    -83.9 1.052e+04 8.096e-09
 48.60969    -82.9 1.074e+04 9.106e-09
 48.62929    -82.2 1.080e+04 9.549e-09
 48.65878    -80.6 1.108e+04 1.138e-08
 48.69807    -79.2 1.117e+04 1.199e-08
 48.73726    -78.0 1.100e+04 1.109e-08
 48.77646    -76.4 1.065e+04 9.072e-09
 48.80575    -75.2 1.074e+04 9.392e-09
 48.82525    -74.5 1.068e+04 8.992e-09
 48.84202    -73.6 1.065e+04 8.642e-09
 48.85182    -73.6 1.096e+04 1.007e-08
 48.86444    -72.8 1.093e+04 9.624e-09
 48.88404    -71.9 1.088e+04 9.157e-09
 48.90364    -71.1 1.079e+04 8.542e-09
 48.92323    -70.2 1.066e+04 7.811e-09
 48.94283    -69.2 1.053e+04 7.042e-09
 48.96243    -68.2 1.039e+04 6.282e-09
 48.98202    -67.1 1.029e+04 5.624e-09
 49.00162    -66.1 1.024e+04 5.157e-09
 49.02122    -65.2 1.020e+04 4.804e-09
 49.04081    -64.1 1.016e+04 4.512e-09
 49.06041    -63.0 1.018e+04 4.291e-09
 49.08000    -62.1 1.020e+04 4.060e-09
 49.09642    -61.0 1.018e+04 3.803e-09
 49.10622    -60.9 1.021e+04 3.649e-09
 49.11920    -59.9 1.026e+04 3.426e-09
 49.13879    -59.4 1.027e+04 3.346e-09
 49.15839    -58.2 1.032e+04 3.258e-09
 49.16884    -57.8 1.028e+04 3.190e-09
 49.17874    -58.4 1.008e+04 2.691e-09
 49.20758    -57.0 9.958e+03 2.470e-09
 49.24677    -55.9 9.902e+03 2.435e-09
 49.28596    -55.6 9.950e+03 2.858e-09
 49.31526    -55.6 1.020e+04 3.838e-09
 49.33476    -55.8 1.055e+04 4.820e-09
 49.35082    -56.2 1.092e+04 7.099e-09
 49.36061    -56.0 1.104e+04 7.154e-09
 49.37395    -56.1 1.154e+04 9.781e-09
 49.39354    -56.1 1.205e+04 1.346e-08
 49.41314    -56.0 1.258e+04 1.841e-08
 49.43274    -56.0 1.301e+04 2.379e-08
 49.45233    -55.9 1.323e+04 2.717e-08
 49.47193    -55.8 1.326e+04 2.797e-08
 49.49153    -55.6 1.300e+04 2.677e-08
 49.51112    -55.1 1.249e+04 2.191e-08
 49.53072    -54.8 1.195e+04 1.661e-08
 49.55031    -54.5 1.139e+04 1.253e-08
 49.56991    -54.0 1.089e+04 9.888e-09
 49.58951    -53.3 1.047e+04 8.189e-09
 49.60521    -52.3 1.016e+04 7.043e-09
 49.61501    -52.0 1.044e+04 8.144e-09
 49.62870    -50.9 1.025e+04 7.354e-09
 49.64830    -49.7 1.017e+04 6.994e-09
 49.66789    -48.6 1.010e+04 6.808e-09
 49.68749    -47.4 1.006e+04 6.732e-09
 49.70709    -46.0 1.008e+04 6.816e-09
 49.72668    -44.9 1.009e+04 6.974e-09
 49.74628    -43.7 1.005e+04 7.025e-09
 49.76587    -42.3 1.006e+04 7.195e-09
 49.78547    -41.0 1.017e+04 7.506e-09
 49.80507    -40.0 1.019e+04 7.625e-09
 49.82466    -38.8 1.017e+04 7.763e-09
 49.84426    -37.7 1.037e+04 8.635e-09
 49.85961    -36.7 1.074e+04 1.019e-08
 49.86941    -36.0 1.101e+04 1.106e-08
 49.88345    -35.5 1.130e+04 1.258e-08
 49.89632    -35.0 1.171e+04 1.544e-08
 49.90611    -35.2 1.208e+04 1.884e-08
 49.92264    -34.6 1.254e+04 2.284e-08
 49.94224    -34.3 1.287e+04 2.640e-08
 49.96184    -34.1 1.302e+04 2.816e-08
 49.98143    -33.9 1.295e+04 2.732e-08
 50.00103    -33.9 1.249e+04 2.213e-08
 50.02063    -34.5 1.197e+04 1.788e-08
 50.04022    -35.9 1.147e+04 1.522e-08
 50.05982    -37.2 1.120e+04 1.417e-08
 50.07941    -38.1 1.109e+04 1.357e-08
 50.09901    -38.8 1.116e+04 1.312e-08
 50.11400    -40.7 1.168e+04 1.249e-08
 50.12380    -46.8 1.650e+04 2.413e-08
 50.13820    -48.9 1.701e+04 4.038e-08
 50.15780    -50.2 1.713e+04 5.683e-08
 50.17740    -51.2 1.728e+04 7.540e-08
 50.19699    -51.7 1.746e+04 9.314e-08
 50.21659    -51.9 1.762e+04 1.061e-07
 50.23619    -52.0 1.767e+04 1.121e-07
 50.25578    -52.1 1.767e+04 1.158e-07
 50.27538    -52.2 1.750e+04 1.094e-07
 50.29497    -52.2 1.711e+04 9.954e-08
 50.31457    -52.2 1.670e+04 9.084e-08
 50.33417    -51.9 1.644e+04 8.606e-08
 50.35376    -51.6 1.628e+04 8.369e-08
 50.36840    -51.3 1.614e+04 8.180e-08
 50.37820    -52.9 1.560e+04 6.832e-08
 50.39296    -52.5 1.521e+04 5.834e-08
 50.41255    -52.3 1.461e+04 4.408e-08
 50.43215    -52.3 1.372e+04 2.985e-08
 50.45174    -52.3 1.269e+04 1.975e-08
 50.47134    -52.2 1.182e+04 1.378e-08
 50.49094    -51.8 1.116e+04 1.027e-08
 50.51053    -51.1 1.070e+04 8.005e-09
 50.53013    -50.0 1.041e+04 6.223e-09
 50.54973    -48.8 1.011e+04 4.547e-09
 50.56932    -47.8 9.817e+03 3.215e-09
 50.58892    -47.0 9.595e+03 2.430e-09
 50.61409    -45.9 9.424e+03 1.965e-09
 50.63378    -45.7 9.348e+03 2.031e-09
 50.65770    -43.6 9.208e+03 1.904e-09
 50.69689    -41.5 9.125e+03 1.954e-09
 50.73609    -39.8 9.122e+03 2.257e-09
 50.77528    -38.4 9.170e+03 2.707e-09
 50.81447    -37.1 9.188e+03 3.068e-09
 50.85366    -36.1 9.175e+03 3.179e-09
 50.87739    -35.3 9.091e+03 2.994e-09
 50.89698    -35.3 8.852e+03 2.572e-09
 50.93205    -34.2 8.604e+03 2.117e-09
 50.97124    -33.1 8.397e+03 1.655e-09
 51.01043    -31.9 8.256e+03 1.436e-09
 51.04963    -30.5 8.271e+03 1.437e-09
 51.08882    -29.5 8.525e+03 1.881e-09
 51.12801    -28.3 8.946e+03 2.876e-09
 51.15731    -27.3 9.131e+03 3.452e-09
 51.17681    -27.4 9.152e+03 3.564e-09
 51.19640    -26.7 9.235e+03 3.950e-09
 51.21600    -26.4 9.256e+03 4.030e-09
 51.23560    -25.7 9.295e+03 4.118e-09
 51.25519    -25.4 9.273e+03 3.843e-09
 51.28468    -24.9 9.286e+03 3.351e-09
 51.32397    -24.8 9.192e+03 2.481e-09
 51.35136    -24.4 9.305e+03 2.348e-09
 51.36106    -25.0 9.254e+03 2.308e-09
 51.37277    -26.4 9.728e+03 2.765e-09
 51.38598    -28.0 9.975e+03 4.536e-09
 51.39578    -28.2 9.913e+03 4.510e-09
 51.41196    -28.6 1.011e+04 7.398e-09
 51.43156    -27.6 1.053e+04 1.004e-08
 51.45116    -26.6 1.075e+04 1.058e-08
 51.47075    -26.3 1.079e+04 7.125e-09
 51.49035    -28.1 1.064e+04 4.185e-09
 51.50994    -30.3 1.023e+04 3.063e-09
 51.52954    -31.0 1.014e+04 2.774e-09
 51.54914    -31.5 1.027e+04 2.876e-09
 51.56873    -32.0 1.062e+04 3.248e-09
 51.58833    -33.1 1.111e+04 4.438e-09
 51.60793    -34.8 1.183e+04 7.944e-09
 51.62752    -36.7 1.290e+04 1.763e-08
 51.64038    -38.2 1.432e+04 3.958e-08
 51.65018    -39.8 1.494e+04 5.421e-08
 51.66671    -41.3 1.621e+04 8.853e-08
 51.68631    -44.0 1.685e+04 1.123e-07
 51.70591    -47.6 1.647e+04 9.632e-08
 51.72550    -50.8 1.507e+04 5.226e-08
 51.74510    -53.6 1.331e+04 2.234e-08
 51.76470    -56.2 1.189e+04 9.885e-09
 51.78429    -58.4 1.113e+04 5.745e-09
 51.80389    -59.5 1.087e+04 4.715e-09
 51.82348    -59.8 1.081e+04 4.544e-09
 51.84308    -60.1 1.089e+04 4.567e-09
 51.86268    -60.5 1.109e+04 5.078e-09
 51.88227    -60.8 1.124e+04 5.924e-09
 51.89477    -60.9 1.141e+04 6.701e-09
 51.90457    -60.3 1.128e+04 6.106e-09
 51.92147    -60.3 1.139e+04 6.310e-09
 51.94106    -60.4 1.142e+04 6.290e-09
 51.96066    -60.5 1.149e+04 5.795e-09
 51.98025    -60.6 1.156e+04 5.302e-09
 51.99985    -60.9 1.159e+04 5.152e-09
 52.01945    -61.6 1.179e+04 5.192e-09
 52.03904    -63.1 1.235e+04 6.195e-09
 52.05864    -65.2 1.286e+04 9.582e-09
 52.07824    -67.5 1.352e+04 1.628e-08
 52.08853    -70.1 1.422e+04 2.593e-08
 52.09833    -71.0 1.454e+04 3.182e-08
 52.11743    -73.9 1.499e+04 4.255e-08
 52.13703    -76.9 1.505e+04 4.551e-08
 52.14917    -79.5 1.477e+04 4.157e-08
 52.15897    -78.3 1.476e+04 3.976e-08
 52.17622    -80.6 1.451e+04 3.557e-08
 52.19581    -82.5 1.421e+04 2.854e-08
 52.21541    -84.0 1.385e+04 2.096e-08
 52.23501    -85.2 1.342e+04 1.494e-08
 52.25460    -86.2 1.303e+04 1.191e-08
 52.27420    -86.9 1.287e+04 1.119e-08
 52.29380    -87.4 1.285e+04 1.120e-08
 52.31339    -88.0 1.296e+04 1.251e-08
 52.33299    -88.7 1.313e+04 1.466e-08
 52.35258    -89.6 1.331e+04 1.677e-08
 52.37218    -90.5 1.338e+04 1.778e-08
 52.39178    -91.5 1.335e+04 1.783e-08
 52.40357    -92.2 1.304e+04 1.534e-08
 52.41336    -91.7 1.351e+04 1.922e-08
 52.43097    -91.9 1.307e+04 1.486e-08
 52.45057    -92.0 1.266e+04 1.075e-08
 52.47016    -91.9 1.236e+04 8.077e-09
 52.48976    -91.7 1.224e+04 7.037e-09
 52.50935    -91.5 1.223e+04 6.940e-09
 52.52895    -95.5 1.472e+04 8.160e-09
 52.54855   -105.0 2.082e+04 3.340e-08
 52.56320   -107.5 1.886e+04 3.060e-07
 52.57294   -107.7 1.863e+04 8.630e-07
 52.58274   -108.9 1.856e+04 1.500e-06
 52.59254   -111.7 1.854e+04 1.698e-06
 52.60234   -115.0 1.874e+04 1.200e-06
 52.61214   -118.1 1.918e+04 4.350e-07
 52.62194   -120.8 1.865e+04 1.485e-07
 52.63173   -122.8 1.694e+04 8.197e-08
 52.64153   -123.5 1.591e+04 6.281e-08
 52.65133   -123.6 1.547e+04 5.180e-08
 52.65791   -123.6 1.501e+04 4.082e-08
 52.66776   -124.0 1.502e+04 4.271e-08
 52.68572   -123.8 1.443e+04 3.077e-08
 52.70532   -123.9 1.389e+04 2.102e-08
 52.72491   -124.0 1.353e+04 1.447e-08
 52.74451   -124.0 1.319e+04 9.416e-09
 52.76411   -124.0 1.290e+04 5.860e-09
 52.78370   -124.0 1.268e+04 3.754e-09
 52.80330   -124.1 1.245e+04 2.734e-09
 52.81600   -124.1 1.208e+04 2.446e-09
 52.82580   -124.1 1.207e+04 2.610e-09
 52.84249   -123.9 1.204e+04 2.526e-09
 52.86209   -123.8 1.205e+04 2.535e-09
 52.89158   -124.1 1.212e+04 2.643e-09
 52.91255   -124.2 1.232e+04 3.974e-09
 52.93215   -123.8 1.237e+04 3.550e-09
 52.97006   -124.3 1.282e+04 6.682e-09
 53.00926   -125.8 1.330e+04 1.252e-08
 53.04845   -128.3 1.341e+04 1.654e-08
 53.08764   -131.1 1.329e+04 1.667e-08
 53.12683   -133.1 1.262e+04 1.230e-08
 53.16603   -134.6 1.206e+04 8.231e-09
 53.20522   -135.7 1.175e+04 6.006e-09
 53.24441   -136.5 1.160e+04 4.661e-09
 53.28360   -137.5 1.147e+04 3.677e-09
 53.32280   -138.1 1.143e+04 3.405e-09
 53.36199   -138.3 1.143e+04 3.462e-09
 53.40118   -138.0 1.150e+04 3.655e-09
 53.42134   -137.4 1.163e+04 3.927e-09
 53.44094   -140.4 1.218e+04 5.784e-09
 53.47957   -139.7 1.252e+04 6.667e-09
 53.51876   -139.2 1.299e+04 8.453e-09
 53.54357   -138.3 1.326e+04 1.036e-08
 53.55327   -137.9 1.308e+04 1.001e-08
 53.56755   -137.9 1.339e+04 1.302e-08
 53.58715   -138.0 1.381e+04 1.707e-08
 53.60675   -138.2 1.429e+04 2.283e-08
 53.62634   -138.5 1.473e+04 2.934e-08
 53.64594   -138.7 1.509e+04 3.609e-08
 53.66554   -138.9 1.542e+04 4.245e-08
 53.67554   -139.2 1.576e+04 5.007e-08
 53.68534   -141.1 1.570e+04 5.005e-08
 53.70473   -141.5 1.601e+04 5.938e-08
 53.72432   -142.1 1.635e+04 7.480e-08
 53.74392   -142.8 1.666e+04 9.644e-08
 53.76352   -143.8 1.685e+04 1.144e-07
 53.78311   -145.2 1.687e+04 1.189e-07
 53.80271   -146.7 1.652e+04 1.116e-07
 53.82231   -148.0 1.565e+04 7.418e-08
 53.84190   -149.2 1.452e+04 3.796e-08
 53.86150   -150.7 1.351e+04 1.844e-08
 53.88110   -152.3 1.307e+04 1.123e-08
 53.90069   -153.6 1.291e+04 9.300e-09
 53.92014   -154.6 1.288e+04 9.032e-09
 53.92994   -154.7 1.280e+04 8.192e-09
 53.93988   -155.2 1.279e+04 8.173e-09
 53.95948   -155.6 1.277e+04 8.759e-09
 53.97908   -155.7 1.267e+04 9.210e-09
 53.99867   -155.8 1.262e+04 9.338e-09
 54.01827   -155.7 1.236e+04 9.316e-09
 54.03787   -155.4 1.215e+04 8.555e-09
 54.05746   -155.0 1.199e+04 7.591e-09
 54.07706   -154.5 1.181e+04 6.625e-09
 54.09665   -153.9 1.161e+04 5.676e-09
 54.11625   -153.0 1.139e+04 4.723e-09
 54.13585   -152.0 1.121e+04 3.757e-09
 54.15544   -150.9 1.111e+04 2.970e-09
 54.18494   -149.9 1.107e+04 2.475e-09
 54.22423   -148.5 1.092e+04 2.106e-09
 54.26342   -146.1 1.068e+04 1.843e-09
 54.30261   -143.8 1.054e+04 1.754e-09
 54.34180   -141.5 1.051e+04 1.742e-09
 54.38100   -139.3 1.051e+04 1.802e-09
 54.41933   -137.2 1.053e+04 2.102e-09
 54.43893   -137.3 1.058e+04 1.809e-09
 54.45938   -135.2 1.060e+04 2.208e-09
 54.49857   -133.0 1.063e+04 2.655e-09
 54.53777   -131.0 1.063e+04 2.935e-09
 54.57696   -129.2 1.063e+04 2.966e-09
 54.61615   -127.3 1.051e+04 2.870e-09
 54.65534   -125.3 1.028e+04 2.591e-09
 54.69454   -123.1 1.007e+04 2.332e-09
 54.73373   -120.7 9.950e+03 2.184e-09
 54.77292   -118.4 9.918e+03 2.146e-09
 54.81211   -116.1 9.919e+03 2.155e-09
 54.85131   -113.9 9.967e+03 2.283e-09
 54.89050   -111.9 1.006e+04 2.518e-09
 54.92812   -110.1 1.023e+04 2.864e-09
 54.94772   -110.5 1.039e+04 3.141e-09
 54.96888   -109.2 1.065e+04 3.821e-09
 54.99861   -108.4 1.096e+04 4.949e-09
 55.01821   -110.0 1.118e+04 6.246e-09
 55.04727   -109.6 1.150e+04 8.468e-09
 55.08646   -109.3 1.175e+04 1.016e-08
 55.12565   -109.1 1.179e+04 1.048e-08
 55.16485   -108.6 1.170e+04 8.921e-09
 55.20404   -107.7 1.154e+04 6.158e-09
 55.24323   -106.3 1.127e+04 4.133e-09
 55.28243   -104.6 1.103e+04 2.965e-09
 55.32162   -102.9 1.085e+04 2.581e-09
 55.36081   -100.9 1.074e+04 2.468e-09
 55.40000    -98.8 1.074e+04 2.462e-09
 55.43691    -97.2 1.087e+04 2.890e-09
 55.45651    -96.9 1.084e+04 2.886e-09
 55.46849    -96.0 1.101e+04 3.681e-09
 55.48799    -95.6 1.101e+04 4.458e-09
 55.50759    -94.8 1.114e+04 5.583e-09
 55.52718    -94.1 1.129e+04 6.458e-09
 55.54678    -93.9 1.142e+04 7.159e-09
 55.56638    -93.9 1.154e+04 8.014e-09
 55.58597    -93.8 1.170e+04 9.689e-09
 55.60557    -93.9 1.167e+04 1.042e-08
 55.62516    -94.1 1.163e+04 1.051e-08
 55.64476    -94.4 1.146e+04 1.003e-08
 55.66436    -94.8 1.135e+04 9.343e-09
 55.68395    -95.4 1.133e+04 9.104e-09
 55.70091    -96.1 1.136e+04 9.304e-09
 55.71071    -95.4 1.125e+04 8.537e-09
 55.72315    -96.2 1.132e+04 9.404e-09
 55.73569    -96.8 1.139e+04 1.089e-08
 55.74548    -97.2 1.124e+04 1.000e-08
 55.76234    -97.9 1.123e+04 1.042e-08
 55.78194    -98.3 1.111e+04 1.039e-08
 55.80153    -98.5 1.080e+04 9.054e-09
 55.82113    -98.6 1.047e+04 7.185e-09
 55.84072    -98.7 1.019e+04 5.612e-09
 55.86032    -98.8 9.943e+03 4.512e-09
 55.87992    -98.9 9.742e+03 3.842e-09
 55.89951    -98.9 9.627e+03 3.529e-09
 55.91911    -98.9 9.609e+03 3.442e-09
 55.93871    -98.9 9.619e+03 3.440e-09
 55.95531    -99.0 9.677e+03 3.668e-09
 55.96511    -98.2 9.643e+03 3.454e-09
 55.97790    -98.3 9.689e+03 3.762e-09
 55.99749    -98.3 9.730e+03 4.149e-09
 56.01709    -98.2 9.778e+03 4.534e-09
 56.03669    -98.1 9.824e+03 4.847e-09
 56.05628    -98.0 9.859e+03 5.030e-09
 56.07588    -98.0 9.869e+03 5.079e-09
 56.09548    -98.0 9.839e+03 4.924e-09
 56.11507    -98.0 9.785e+03 4.731e-09
 56.13467    -98.1 9.764e+03 4.619e-09
 56.15426    -98.4 9.772e+03 4.610e-09
 56.17386   -100.4 1.015e+04 4.901e-09
 56.19346   -104.8 1.211e+04 8.970e-09
 56.20970   -108.8 1.374e+04 2.361e-08
 56.21950   -107.9 1.381e+04 2.353e-08
 56.23265   -111.3 1.499e+04 5.024e-08
 56.25225   -114.7 1.558e+04 7.210e-08
 56.27184   -118.4 1.563e+04 7.679e-08
 56.29144   -121.2 1.502e+04 6.748e-08
 56.31104   -123.2 1.395e+04 4.430e-08
 56.33063   -124.6 1.296e+04 2.888e-08
 56.35023   -125.6 1.234e+04 2.083e-08
 56.36982   -126.2 1.210e+04 1.744e-08
 56.38942   -126.5 1.204e+04 1.659e-08
 56.40902   -126.7 1.205e+04 1.648e-08
 56.42861   -126.9 1.217e+04 1.705e-08
 56.44821   -127.2 1.227e+04 1.814e-08
 56.46316   -127.3 1.226e+04 1.852e-08
 56.46925   -128.0 1.199e+04 1.598e-08
 56.47390   -127.5 1.211e+04 1.641e-08
 56.48740   -127.5 1.197e+04 1.507e-08
 56.50700   -127.5 1.177e+04 1.312e-08
 56.52659   -127.6 1.155e+04 1.123e-08
 56.54619   -127.6 1.137e+04 9.761e-09
 56.56579   -127.6 1.124e+04 8.863e-09
 56.58538   -127.6 1.120e+04 8.484e-09
 56.60498   -127.5 1.119e+04 8.402e-09
 56.62458   -127.4 1.121e+04 8.454e-09
 56.64417   -127.3 1.123e+04 8.513e-09
 56.66377   -127.1 1.124e+04 8.446e-09
 56.68336   -127.0 1.121e+04 7.976e-09
 56.70296   -127.0 1.118e+04 7.282e-09
 56.71850   -127.0 1.110e+04 6.423e-09
 56.72829   -126.7 1.117e+04 6.481e-09
 56.74215   -126.8 1.104e+04 5.537e-09
 56.76175   -126.8 1.090e+04 4.739e-09
 56.78135   -126.8 1.076e+04 4.158e-09
 56.80094   -126.6 1.064e+04 3.743e-09
 56.82054   -126.2 1.058e+04 3.421e-09
 56.84013   -125.6 1.059e+04 3.156e-09
 56.85973   -125.1 1.065e+04 2.950e-09
 56.87933   -124.6 1.072e+04 2.854e-09
 56.89892   -124.4 1.077e+04 2.852e-09
 56.92842   -124.0 1.084e+04 2.894e-09
 56.96329   -123.3 1.096e+04 2.794e-09
 56.98289   -122.9 1.080e+04 2.317e-09
 57.00690   -121.8 1.081e+04 2.163e-09
 57.04609   -120.3 1.091e+04 1.995e-09
 57.08528   -118.7 1.104e+04 1.915e-09
 57.12448   -117.1 1.118e+04 1.896e-09
 57.16367   -115.4 1.141e+04 1.918e-09
 57.20286   -113.7 1.154e+04 1.985e-09
 57.24205   -111.8 1.159e+04 2.015e-09
 57.28125   -109.8 1.156e+04 1.891e-09
 57.32044   -107.5 1.158e+04 1.613e-09
 57.35963   -105.1 1.162e+04 1.355e-09
 57.39882   -102.7 1.167e+04 1.177e-09
 57.43802   -100.3 1.173e+04 1.077e-09
 57.47208    -97.8 1.178e+04 1.034e-09
 57.49168    -96.7 1.182e+04 1.036e-09
 57.51640    -94.2 1.185e+04 1.031e-09
 57.55559    -91.9 1.198e+04 1.058e-09
 57.59479    -89.7 1.202e+04 1.152e-09
 57.63398    -87.6 1.206e+04 1.236e-09
 57.67317    -85.7 1.215e+04 1.270e-09
 57.71237    -84.0 1.234e+04 1.184e-09
 57.75156    -82.6 1.260e+04 9.908e-10
 57.79075    -81.3 1.267e+04 8.062e-10
 57.82994    -80.1 1.250e+04 7.381e-10
 57.86914    -78.8 1.268e+04 7.775e-10
 57.90833    -77.4 1.253e+04 1.070e-09
 57.94752    -76.7 1.259e+04 1.714e-09
 57.98087    -74.9 1.269e+04 1.940e-09
 58.00047    -74.9 1.281e+04 1.675e-09
 58.02591    -73.1 1.290e+04 1.783e-09
 58.06510    -71.4 1.301e+04 1.926e-09
 58.10429    -69.7 1.315e+04 2.064e-09
 58.14348    -67.9 1.328e+04 2.159e-09
 58.18268    -66.0 1.333e+04 2.206e-09
 58.22187    -64.0 1.345e+04 2.166e-09
 58.26106    -61.9 1.348e+04 1.996e-09
 58.30025    -59.7 1.347e+04 1.825e-09
 58.33945    -57.5 1.339e+04 1.650e-09
 58.37864    -55.4 1.324e+04 1.451e-09
 58.41783    -53.3 1.311e+04 1.261e-09
 58.45702    -51.2 1.299e+04 1.081e-09
 58.48966    -49.1 1.289e+04 9.227e-10
 58.50926    -49.1 1.277e+04 1.093e-09
 58.53541    -47.1 1.270e+04 9.219e-10
 58.57460    -45.1 1.262e+04 8.160e-10
 58.61379    -43.2 1.250e+04 7.776e-10
 58.65299    -41.3 1.243e+04 7.744e-10
 58.69218    -39.6 1.222e+04 8.353e-10
 58.73137    -37.8 1.205e+04 9.421e-10
 58.77056    -36.1 1.194e+04 1.048e-09
 58.80976    -34.4 1.187e+04 1.156e-09
 58.84895    -32.9 1.186e+04 1.286e-09
 58.88814    -31.5 1.185e+04 1.453e-09
 58.92734    -30.2 1.168e+04 1.751e-09
 58.96653    -28.7 1.153e+04 2.127e-09
 58.99846    -27.1 1.143e+04 2.258e-09
 59.01805    -27.9 1.130e+04 2.136e-09
 59.04491    -25.9 1.123e+04 1.818e-09
 59.08411    -24.2 1.121e+04 1.496e-09
 59.12330    -22.5 1.123e+04 1.441e-09
 59.16249    -20.8 1.119e+04 1.742e-09
 59.20168    -18.6 1.102e+04 2.317e-09
 59.24088    -16.1 1.102e+04 2.704e-09
 59.28007    -14.3 1.110e+04 2.437e-09
 59.31926    -12.8 1.103e+04 2.500e-09
 59.35845    -11.4 1.106e+04 3.430e-09
 59.38304     -9.6 1.118e+04 4.995e-09
 59.40264     -9.5 1.111e+04 5.364e-09
 59.43684     -7.6 1.123e+04 5.980e-09
 59.47603     -5.8 1.130e+04 6.028e-09
 59.50725     -4.2 1.142e+04 6.400e-09
 59.52684     -5.9 1.098e+04 5.715e-09
 59.55442     -4.1 1.109e+04 6.392e-09
 59.59361     -2.8 1.151e+04 8.116e-09
 59.62291     -2.2 1.205e+04 1.178e-08
 59.64240     -2.4 1.251e+04 1.734e-08
 59.66200     -2.0 1.299e+04 2.683e-08
 59.68160     -1.5 1.349e+04 3.283e-08
 59.70119     -1.6 1.367e+04 3.200e-08
 59.72079     -2.8 1.394e+04 2.970e-08
 59.74039     -4.8 1.402e+04 2.986e-08
 59.75998     -6.3 1.378e+04 3.197e-08
 59.77125     -6.8 1.350e+04 2.913e-08
 59.78104     -7.6 1.355e+04 2.798e-08
 59.79917     -9.2 1.350e+04 2.089e-08
 59.81877    -11.5 1.310e+04 1.756e-08
 59.83837    -12.8 1.257e+04 1.637e-08
 59.85796    -13.2 1.212e+04 1.516e-08
 59.87756    -13.6 1.207e+04 1.288e-08
 59.89716    -14.4 1.193e+04 1.216e-08
 59.91675    -15.4 1.194e+04 1.325e-08
 59.93635    -17.8 1.277e+04 1.803e-08
 59.95595    -21.5 1.404e+04 3.095e-08
 59.97554    -22.8 1.414e+04 5.490e-08
 59.99514    -22.4 1.414e+04 6.149e-08
 60.01473    -21.5 1.350e+04 2.843e-08
 60.02564    -25.9 1.251e+04 9.927e-09
 60.03544    -27.6 1.242e+04 9.359e-09
 60.05393    -31.6 1.118e+04 6.680e-09
 60.07352    -32.5 1.113e+04 6.617e-09
 60.09312    -33.3 1.107e+04 7.585e-09
 60.11032    -33.7 1.102e+04 8.047e-09
 60.12011    -34.7 1.113e+04 8.511e-09
 60.13231    -35.5 1.119e+04 7.940e-09
 60.15191    -37.1 1.116e+04 7.146e-09
 60.17150    -38.8 1.104e+04 7.148e-09
 60.19110    -40.0 1.088e+04 8.172e-09
 60.21070    -40.6 1.079e+04 9.271e-09
 60.23029    -41.0 1.078e+04 9.565e-09
 60.24989    -41.5 1.074e+04 9.390e-09
 60.26949    -42.1 1.060e+04 8.518e-09
 60.28004    -42.9 1.045e+04 7.850e-09
 60.28984    -42.9 1.016e+04 6.452e-09
 60.30868    -43.4 1.004e+04 6.258e-09
 60.32827    -43.5 9.894e+03 6.119e-09
 60.34787    -43.1 9.678e+03 5.798e-09
 60.36747    -42.5 9.466e+03 4.898e-09
 60.38706    -41.9 9.319e+03 3.863e-09
 60.40666    -41.4 9.247e+03 3.096e-09
 60.42626    -41.4 9.174e+03 2.980e-09
 60.45575    -41.1 8.847e+03 2.423e-09
 60.49504    -39.1 8.663e+03 2.012e-09
 60.52483    -37.2 8.609e+03 1.976e-09
 60.54443    -36.7 8.599e+03 1.667e-09
 60.57342    -34.9 8.606e+03 1.783e-09
 60.61262    -32.9 8.607e+03 1.842e-09
 60.65181    -30.9 8.575e+03 1.754e-09
 60.69100    -28.8 8.549e+03 1.485e-09
 60.73019    -26.8 8.501e+03 1.273e-09
 60.76939    -24.9 8.497e+03 1.177e-09
 60.80858    -22.8 8.541e+03 1.182e-09
 60.83798    -20.7 8.627e+03 1.322e-09
 60.85758    -21.9 8.611e+03 1.301e-09
 60.88696    -19.7 8.778e+03 1.526e-09
 60.92616    -17.8 8.986e+03 1.786e-09
 60.96535    -16.3 9.385e+03 2.491e-09
 61.00454    -16.0 1.028e+04 3.863e-09
 61.03362    -15.5 1.116e+04 9.936e-09
 61.05322    -15.1 1.097e+04 8.903e-09
 61.07303    -15.0 1.194e+04 1.453e-08
 61.09253    -15.3 1.259e+04 2.438e-08
 61.11213    -15.0 1.334e+04 3.344e-08
 61.13172    -15.5 1.400e+04 3.302e-08
 61.15132    -16.9 1.402e+04 2.850e-08
 61.17092    -18.6 1.351e+04 2.300e-08
 61.19051    -20.0 1.291e+04 1.886e-08
 61.21011    -21.2 1.245e+04 1.666e-08
 61.22970    -21.6 1.215e+04 1.686e-08
 61.24930    -21.8 1.193e+04 1.612e-08
 61.26890    -21.4 1.159e+04 1.626e-08
 61.28782    -20.5 1.135e+04 1.490e-08
 61.29762    -20.5 1.133e+04 1.430e-08
 61.30809    -19.8 1.105e+04 1.209e-08
 61.32769    -19.2 1.087e+04 1.010e-08
 61.34728    -18.9 1.080e+04 8.468e-09
 61.36688    -18.9 1.075e+04 7.447e-09
 61.38647    -18.1 1.031e+04 8.497e-09
 61.40607    -17.2 1.056e+04 7.862e-09
 61.42567    -16.5 1.071e+04 8.045e-09
 61.44526    -15.6 1.062e+04 9.243e-09
 61.46486    -14.7 1.106e+04 8.957e-09
 61.48446    -14.6 1.122e+04 9.895e-09
 61.50405    -14.4 1.141e+04 1.129e-08
 61.52365    -13.9 1.171e+04 1.386e-08
 61.54222    -13.4 1.213e+04 1.714e-08
 61.55202    -13.5 1.228e+04 1.895e-08
 61.56284    -13.1 1.259e+04 2.301e-08
 61.57506    -12.6 1.275e+04 2.587e-08
 61.58486    -12.8 1.292e+04 2.620e-08
 61.60203    -12.2 1.292e+04 2.755e-08
 61.62163    -11.3 1.276e+04 2.511e-08
 61.64123    -10.5 1.255e+04 2.142e-08
 61.66082    -10.0 1.230e+04 1.815e-08
 61.68042     -9.5 1.191e+04 1.517e-08
 61.70001     -8.9 1.181e+04 1.298e-08
 61.71961     -8.3 1.178e+04 1.189e-08
 61.73921     -7.3 1.174e+04 1.136e-08
 61.75880     -6.1 1.182e+04 1.162e-08
 61.77840     -4.6 1.181e+04 1.122e-08
 61.79661     -3.4 1.184e+04 1.026e-08
 61.80641     -3.4 1.066e+04 5.440e-09
 61.81759     -2.4 1.069e+04 5.104e-09
 61.83719     -1.3 1.065e+04 5.151e-09
 61.85679      0.0 1.060e+04 5.075e-09
 61.87638      1.4 1.066e+04 5.144e-09
 61.89598      2.1 1.099e+04 5.786e-09
 61.91557      2.2 1.195e+04 8.834e-09
 61.93517      2.8 1.360e+04 1.713e-08
 61.95477      4.0 1.342e+04 1.871e-08
 61.97436      4.0 1.348e+04 2.195e-08
 61.98901      4.3 1.331e+04 2.396e-08
 61.99876      4.3 1.336e+04 2.467e-08
 62.00856      4.5 1.357e+04 2.844e-08
 62.01836      4.6 1.375e+04 3.035e-08
 62.02816      4.5 1.420e+04 3.693e-08
 62.03795      4.3 1.465e+04 4.304e-08
 62.04775      2.8 1.621e+04 6.165e-08
 62.05581      0.7 1.791e+04 1.049e-07
 62.06071      3.4 1.526e+04 4.332e-08
 62.06735      0.2 1.763e+04 8.250e-08
 62.07715     -2.3 1.857e+04 1.683e-07
 62.08694     -4.6 1.885e+04 3.538e-07
 62.09674     -5.5 1.872e+04 5.705e-07
 62.10654     -6.4 1.886e+04 6.390e-07
 62.11634     -7.3 1.889e+04 5.250e-07
 62.12614     -8.3 1.902e+04 3.447e-07
 62.13593    -10.0 1.869e+04 2.172e-07
 62.14573    -11.4 1.789e+04 1.219e-07
 62.15553    -11.9 1.757e+04 1.075e-07
 62.17028    -12.3 1.715e+04 7.924e-08
 62.18992    -13.2 1.576e+04 4.184e-08
 62.20952    -13.5 1.467e+04 2.711e-08
 62.22911    -13.1 1.398e+04 1.887e-08
 62.24871    -13.0 1.359e+04 1.398e-08
 62.26831    -13.1 1.322e+04 1.200e-08
 62.28790    -13.3 1.289e+04 1.068e-08
 62.30253    -13.4 1.266e+04 9.269e-09
 62.31023    -13.8 1.247e+04 8.021e-09
 62.31520    -12.9 1.325e+04 1.520e-08
 62.32710    -12.8 1.292e+04 1.198e-08
 62.34669    -13.2 1.252e+04 9.106e-09
 62.36629    -14.0 1.231e+04 7.077e-09
 62.38589    -14.4 1.234e+04 5.901e-09
 62.40548    -14.9 1.248e+04 4.682e-09
 62.42508    -15.3 1.239e+04 4.349e-09
 62.44467    -15.8 1.264e+04 4.321e-09
 62.46427    -16.8 1.300e+04 5.953e-09
 62.48387    -17.5 1.352e+04 1.018e-08
 62.50346    -17.6 1.375e+04 1.424e-08
 62.52306    -17.2 1.371e+04 2.095e-08
 62.54266    -16.8 1.403e+04 2.369e-08
 62.55980    -16.6 1.413e+04 2.685e-08
 62.56960    -17.9 1.429e+04 2.988e-08
 62.58185    -17.7 1.427e+04 3.031e-08
 62.60144    -17.7 1.441e+04 2.956e-08
 62.62104    -17.8 1.429e+04 3.152e-08
 62.64064    -17.6 1.422e+04 3.365e-08
 62.66023    -17.2 1.416e+04 3.162e-08
 62.67983    -16.7 1.407e+04 2.692e-08
 62.69943    -16.6 1.394e+04 2.124e-08
 62.71902    -16.6 1.375e+04 1.855e-08
 62.73862    -16.9 1.395e+04 1.539e-08
 62.75821    -16.4 1.339e+04 1.796e-08
 62.77781    -15.5 1.376e+04 1.566e-08
 62.79741    -15.0 1.360e+04 1.508e-08
 62.81420    -14.2 1.338e+04 1.333e-08
 62.82400    -14.7 1.321e+04 9.590e-09
 62.83660    -14.0 1.300e+04 8.785e-09
 62.85620    -13.5 1.285e+04 8.504e-09
 62.87579    -12.5 1.297e+04 7.209e-09
 62.89539    -11.9 1.276e+04 6.668e-09
 62.92488    -10.5 1.253e+04 5.103e-09
 62.96417     -8.5 1.244e+04 3.370e-09
 63.00336     -6.8 1.252e+04 2.919e-09
 63.04256     -5.6 1.255e+04 3.280e-09
 63.06879     -4.2 1.251e+04 4.251e-09
 63.08839     -3.4 1.258e+04 3.947e-09
 63.12094     -2.4 1.276e+04 4.525e-09
 63.16013     -1.3 1.271e+04 3.891e-09
 63.19933     -0.5 1.269e+04 2.949e-09
 63.23852      0.5 1.266e+04 2.439e-09
 63.27771      1.9 1.261e+04 2.080e-09
 63.31690      3.7 1.264e+04 1.670e-09
 63.35610      5.6 1.273e+04 1.246e-09
 63.39529      7.2 1.285e+04 9.537e-10
 63.43448      9.0 1.271e+04 8.903e-10
 63.47367     11.0 1.264e+04 9.200e-10
 63.51287     13.1 1.262e+04 9.712e-10
 63.55206     14.9 1.265e+04 1.167e-09
 63.57758     16.6 1.275e+04 1.419e-09
 63.58728     16.1 1.297e+04 1.775e-09
 63.60086     16.3 1.305e+04 1.842e-09
 63.62045     16.7 1.316e+04 2.109e-09
 63.64005     16.8 1.325e+04 2.736e-09
 63.65964     16.6 1.328e+04 3.890e-09
 63.67924     16.4 1.337e+04 5.535e-09
 63.69884     16.2 1.352e+04 7.603e-09
 63.71843     16.1 1.365e+04 9.754e-09
 63.73803     16.0 1.373e+04 1.084e-08
 63.75747     15.9 1.372e+04 1.036e-08
 63.76727     16.0 1.373e+04 1.059e-08
 63.77722     15.8 1.376e+04 8.704e-09
 63.79682     15.6 1.379e+04 6.993e-09
 63.81641     15.3 1.380e+04 6.001e-09
 63.83178     15.2 1.360e+04 5.920e-09
 63.84158     14.8 1.350e+04 5.889e-09
 63.85561     14.9 1.337e+04 5.906e-09
 63.87520     15.1 1.325e+04 5.916e-09
 63.89480     15.3 1.311e+04 5.854e-09
 63.91440     15.4 1.296e+04 5.769e-09
 63.93399     15.4 1.277e+04 5.797e-09
 63.95359     15.4 1.268e+04 5.931e-09
 63.97318     15.3 1.257e+04 6.089e-09
 63.99278     15.3 1.250e+04 6.038e-09
 64.01238     15.5 1.228e+04 5.631e-09
 64.03197     15.6 1.214e+04 4.830e-09
 64.05157     16.0 1.197e+04 3.546e-09
 64.07117     15.7 1.199e+04 3.036e-09
 64.08627     16.7 1.163e+04 2.203e-09
 64.10597     17.5 1.166e+04 2.241e-09
 64.13995     18.8 1.147e+04 1.500e-09
 64.17914     20.3 1.123e+04 1.260e-09
 64.21833     22.1 1.119e+04 1.264e-09
 64.25753     24.1 1.114e+04 1.305e-09
 64.29672     25.8 1.108e+04 1.422e-09
 64.33591     27.3 1.104e+04 1.716e-09
 64.37510     28.6 1.097e+04 2.274e-09
 64.41430     30.1 1.091e+04 3.042e-09
 64.45349     31.5 1.081e+04 3.714e-09
 64.49268     32.8 1.070e+04 3.857e-09
 64.53187     34.0 1.057e+04 3.748e-09
 64.57107     35.2 1.038e+04 3.548e-09
 64.59516     36.4 1.024e+04 3.363e-09
 64.61476     37.8 1.014e+04 2.618e-09
 64.64945     39.1 1.006e+04 2.713e-09
 64.68864     40.4 1.003e+04 2.598e-09
 64.72784     41.6 9.956e+03 2.161e-09
 64.76703     43.1 9.890e+03 1.436e-09
 64.80622     44.6 9.894e+03 7.524e-10
 64.84541     45.8 9.233e+03 5.498e-10
 64.88461     47.4 9.135e+03 5.469e-10
 64.92380     49.3 9.149e+03 5.603e-10
 64.96299     51.1 9.233e+03 6.193e-10
 65.00219     52.7 9.645e+03 8.276e-10
 65.04138     54.7 9.765e+03 1.620e-09
 65.08057     57.6 1.015e+04 3.268e-09
 65.10396     60.5 1.102e+04 6.446e-09
 65.12355     58.8 1.156e+04 9.994e-09
 65.14906     58.5 1.251e+04 1.691e-08
 65.16856     57.8 1.365e+04 3.277e-08
 65.18815     57.3 1.458e+04 5.694e-08
 65.20775     56.9 1.511e+04 7.380e-08
 65.22221     55.9 1.551e+04 7.207e-08
 65.23201     55.4 1.502e+04 5.772e-08
 65.24694     52.9 1.542e+04 5.901e-08
 65.26654     46.5 1.687e+04 7.305e-08
 65.28119     40.4 1.882e+04 1.257e-07
 65.29094     35.7 1.931e+04 3.571e-07
 65.30074     32.6 1.897e+04 7.761e-07
 65.31053     29.4 1.887e+04 8.200e-07
 65.32033     28.0 1.863e+04 5.352e-07
 65.33013     26.4 1.841e+04 2.900e-07
 65.34488     24.5 1.776e+04 1.268e-07
 65.35816     21.1 1.689e+04 4.969e-08
 65.36795     18.7 1.672e+04 2.362e-08
 65.38412     18.4 1.578e+04 1.901e-08
 65.40371     19.4 1.576e+04 2.074e-08
 65.42331     20.3 1.595e+04 2.721e-08
 65.44291     20.9 1.643e+04 4.176e-08
 65.46250     21.0 1.701e+04 7.994e-08
 65.48210     21.1 1.762e+04 1.767e-07
 65.49675     20.3 1.823e+04 3.002e-07
 65.50650     19.7 1.842e+04 4.542e-07
 65.51629     19.0 1.851e+04 4.562e-07
 65.52609     17.7 1.846e+04 4.076e-07
 65.54084     17.5 1.812e+04 2.797e-07
 65.56048     17.6 1.753e+04 1.637e-07
 65.58008     17.6 1.707e+04 9.687e-08
 65.59968     17.6 1.680e+04 6.397e-08
 65.61255     18.0 1.662e+04 5.418e-08
 65.62235     17.4 1.618e+04 3.122e-08
 65.63887     18.0 1.615e+04 3.052e-08
 65.65847     18.5 1.611e+04 3.082e-08
 65.67806     18.9 1.606e+04 3.010e-08
 65.69766     19.2 1.602e+04 2.808e-08
 65.71725     19.5 1.600e+04 2.630e-08
 65.73685     20.0 1.596e+04 2.394e-08
 65.75645     20.5 1.592e+04 2.163e-08
 65.77604     21.2 1.579e+04 1.894e-08
 65.79564     21.7 1.572e+04 1.712e-08
 65.81524     22.7 1.544e+04 1.527e-08
 65.83483     23.1 1.544e+04 1.505e-08
 65.86432     24.6 1.524e+04 1.431e-08
 65.90361     26.3 1.485e+04 1.395e-08
 65.93291     27.0 1.455e+04 1.380e-08
 65.94969     27.5 1.419e+04 1.322e-08
 65.95948     28.1 1.421e+04 1.346e-08
 65.97201     28.6 1.377e+04 1.255e-08
 65.99160     29.1 1.347e+04 1.145e-08
 66.01120     29.6 1.324e+04 1.033e-08
 66.03080     30.2 1.305e+04 9.242e-09
 66.05039     30.9 1.282e+04 8.223e-09
 66.06999     31.6 1.263e+04 7.282e-09
 66.08958     32.5 1.245e+04 6.496e-09
 66.10918     33.1 1.235e+04 5.648e-09
 66.12144     34.0 1.234e+04 5.924e-09
 66.14113     34.3 1.225e+04 4.693e-09
 66.17796     36.3 1.202e+04 3.732e-09
 66.21716     38.6 1.184e+04 2.685e-09
 66.25635     40.8 1.173e+04 1.949e-09
 66.29554     43.0 1.157e+04 1.772e-09
 66.33473     45.5 1.157e+04 1.796e-09
 66.37393     47.7 1.159e+04 1.956e-09
 66.41312     49.7 1.166e+04 2.447e-09
 66.45231     51.5 1.171e+04 3.273e-09
 66.49150     52.9 1.174e+04 4.037e-09
 66.53070     54.0 1.173e+04 4.079e-09
 66.56989     54.9 1.165e+04 3.843e-09
 66.60908     56.0 1.149e+04 3.130e-09
 66.63033     57.4 1.137e+04 2.346e-09
 66.64993     57.8 1.153e+04 2.309e-09
 66.67735     59.2 1.145e+04 1.794e-09
 66.69695     60.1 1.144e+04 1.773e-09
 66.72666     61.5 1.143e+04 1.578e-09
 66.76585     62.9 1.155e+04 1.573e-09
 66.80504     64.2 1.168e+04 1.572e-09
 66.84424     65.4 1.175e+04 1.535e-09
 66.88343     66.6 1.180e+04 1.462e-09
 66.92262     67.7 1.185e+04 1.396e-09
 66.96181     68.7 1.203e+04 1.404e-09
 67.00101     69.7 1.210e+04 1.532e-09
 67.04020     70.5 1.219e+04 1.748e-09
 67.07939     71.2 1.231e+04 2.128e-09
 67.11858     71.7 1.249e+04 2.610e-09
 67.13912     72.0 1.269e+04 3.039e-09
 67.15872     72.1 1.285e+04 3.336e-09
 67.19697     72.0 1.309e+04 3.508e-09
 67.23616     71.6 1.339e+04 3.481e-09
 67.27535     71.1 1.366e+04 3.210e-09
 67.31455     70.7 1.402e+04 2.790e-09
 67.35374     70.8 1.408e+04 2.724e-09
 67.39293     70.7 1.423e+04 3.006e-09
 67.43213     70.1 1.459e+04 4.749e-09
 67.47132     69.3 1.486e+04 9.954e-09
 67.51051     67.2 1.524e+04 1.895e-08
 67.54970     64.1 1.531e+04 1.882e-08
 67.58890     61.2 1.526e+04 1.175e-08
 67.62809     58.9 1.534e+04 4.262e-09
 67.64791     56.5 1.550e+04 1.597e-09
 67.66751     57.8 1.545e+04 2.103e-09
 67.70647     56.6 1.537e+04 1.728e-09
 67.74567     55.9 1.534e+04 1.818e-09
 67.78486     54.9 1.527e+04 2.610e-09
 67.82405     53.8 1.518e+04 4.381e-09
 67.86324     52.2 1.520e+04 5.773e-09
 67.90244     50.6 1.512e+04 5.518e-09
 67.94163     49.4 1.492e+04 4.356e-09
 67.98082     48.7 1.477e+04 2.850e-09
 68.02001     48.5 1.459e+04 1.974e-09
 68.05921     48.6 1.411e+04 1.885e-09
 68.09840     49.2 1.402e+04 1.879e-09
 68.13230     50.0 1.388e+04 1.889e-09
 68.15141     49.8 1.379e+04 1.935e-09
 68.15671     50.6 1.389e+04 1.740e-09
 68.17678     51.7 1.371e+04 1.716e-09
 68.21598     53.1 1.359e+04 1.704e-09
 68.25517     54.5 1.351e+04 1.786e-09
 68.29436     55.2 1.343e+04 2.238e-09
 68.33355     55.3 1.327e+04 3.145e-09
 68.37275     55.1 1.322e+04 4.123e-09
 68.41194     54.0 1.313e+04 4.531e-09
 68.45113     52.2 1.295e+04 4.425e-09
 68.49032     50.5 1.263e+04 4.212e-09
 68.52952     49.2 1.245e+04 3.942e-09
 68.56871     48.3 1.227e+04 3.668e-09
 68.60790     48.0 1.212e+04 3.213e-09
 68.64590     48.2 1.201e+04 2.592e-09
 68.66550     48.9 1.211e+04 2.665e-09
 68.68629     49.1 1.205e+04 2.315e-09
 68.72548     49.3 1.200e+04 2.063e-09
 68.76467     49.6 1.196e+04 1.969e-09
 68.80387     49.9 1.193e+04 1.906e-09
 68.84306     50.5 1.186e+04 1.789e-09
 68.88225     51.3 1.172e+04 1.685e-09
 68.92144     52.4 1.162e+04 1.703e-09
 68.96064     53.5 1.154e+04 1.886e-09
 68.99983     54.5 1.150e+04 2.447e-09
 69.03902     55.5 1.153e+04 3.243e-09
 69.07821     56.3 1.153e+04 3.749e-09
 69.11741     57.0 1.150e+04 3.725e-09
 69.15469     57.8 1.139e+04 3.472e-09
 69.17429     58.3 1.124e+04 3.063e-09
 69.19579     59.4 1.116e+04 2.650e-09
 69.23498     60.5 1.114e+04 2.286e-09
 69.27418     61.9 1.116e+04 2.183e-09
 69.31337     63.4 1.116e+04 2.220e-09
 69.35256     65.0 1.111e+04 2.306e-09
 69.39175     66.6 1.104e+04 2.335e-09
 69.43095     68.2 1.095e+04 2.308e-09
 69.47014     69.9 1.085e+04 2.286e-09
 69.50933     71.6 1.078e+04 2.295e-09
 69.54852     73.2 1.076e+04 2.389e-09
 69.58724     74.6 1.078e+04 2.665e-09
 69.60684     75.1 1.070e+04 2.266e-09
 69.62691     76.3 1.074e+04 2.567e-09
 69.66348     77.3 1.076e+04 2.789e-09
 69.68308     78.1 1.092e+04 3.377e-09
 69.70529     78.9 1.095e+04 3.519e-09
 69.74449     79.7 1.090e+04 3.478e-09
 69.78368     80.5 1.083e+04 3.273e-09
 69.82287     81.3 1.077e+04 3.051e-09
 69.86207     82.2 1.076e+04 2.970e-09
 69.90126     83.1 1.077e+04 2.995e-09
 69.94045     84.1 1.081e+04 3.133e-09
 69.97964     85.2 1.088e+04 3.484e-09
 70.00894     86.0 1.103e+04 3.962e-09
 70.02844     86.3 1.110e+04 4.215e-09
 70.04803     86.9 1.118e+04 4.544e-09
 70.06763     87.4 1.129e+04 5.000e-09
 70.08723     87.9 1.143e+04 5.579e-09
 70.10682     88.2 1.160e+04 6.313e-09
 70.12642     88.3 1.180e+04 7.114e-09
 70.14602     88.4 1.193e+04 7.920e-09
 70.16561     88.6 1.204e+04 8.487e-09
 70.18188     88.7 1.188e+04 8.891e-09
 70.19168     88.5 1.182e+04 8.335e-09
 70.20480     88.6 1.177e+04 8.388e-09
 70.22440     88.8 1.175e+04 8.445e-09
 70.24400     89.1 1.175e+04 8.673e-09
 70.26359     89.3 1.182e+04 9.274e-09
 70.28319     89.6 1.200e+04 1.011e-08
 70.30279     89.9 1.217e+04 1.090e-08
 70.32238     90.0 1.231e+04 1.111e-08
 70.33411     90.0 1.232e+04 1.094e-08
 70.34391     90.1 1.220e+04 1.065e-08
 70.36158     90.0 1.220e+04 9.668e-09
 70.38117     89.7 1.213e+04 8.879e-09
 70.41066     89.8 1.190e+04 6.331e-09
 70.44995     90.1 1.169e+04 4.546e-09
 70.48915     90.7 1.157e+04 3.171e-09
 70.52834     91.3 1.157e+04 2.226e-09
 70.56753     91.9 1.167e+04 1.750e-09
 70.60672     92.8 1.172e+04 1.676e-09
 70.64592     93.9 1.174e+04 1.685e-09
 70.68107     95.1 1.177e+04 1.703e-09
 70.70066     96.2 1.182e+04 1.787e-09
 70.72430     97.4 1.186e+04 1.787e-09
 70.76349     98.6 1.190e+04 1.845e-09
 70.80269     99.7 1.204e+04 2.073e-09
 70.84188    100.5 1.230e+04 2.700e-09
 70.88107    100.4 1.247e+04 3.591e-09
 70.92026    100.5 1.263e+04 5.479e-09
 70.95946    100.9 1.281e+04 6.941e-09
 70.98875    100.7 1.295e+04 7.326e-09
 71.00825    100.3 1.315e+04 7.481e-09
 71.02785     99.7 1.322e+04 7.489e-09
 71.04745     99.0 1.335e+04 7.229e-09
 71.06158     98.4 1.348e+04 6.727e-09
 71.07138     98.4 1.347e+04 6.558e-09
 71.08664     97.8 1.359e+04 6.313e-09
 71.10623     97.1 1.362e+04 6.535e-09
 71.12583     96.8 1.364e+04 6.690e-09
 71.15532     96.0 1.373e+04 7.305e-09
 71.18986     95.1 1.390e+04 8.979e-09
 71.20945     95.5 1.389e+04 9.151e-09
 71.23381     94.4 1.420e+04 1.076e-08
 71.27300     93.0 1.425e+04 1.057e-08
 71.31219     91.7 1.425e+04 9.094e-09
 71.35138     90.7 1.411e+04 6.747e-09
 71.39058     89.9 1.398e+04 4.909e-09
 71.42977     89.2 1.408e+04 3.899e-09
 71.46896     88.8 1.422e+04 3.403e-09
 71.50815     88.6 1.450e+04 2.996e-09
 71.54735     88.4 1.472e+04 2.754e-09
 71.58654     88.3 1.504e+04 2.659e-09
 71.62573     88.2 1.513e+04 2.711e-09
 71.66492     88.2 1.511e+04 2.826e-09
 71.69865     88.4 1.504e+04 2.942e-09
 71.71825     88.7 1.502e+04 2.969e-09
 71.74331     88.9 1.500e+04 2.714e-09
 71.78250     89.3 1.496e+04 2.355e-09
 71.82169     89.8 1.479e+04 2.073e-09
 71.86089     90.3 1.466e+04 1.852e-09
 71.90008     90.9 1.461e+04 1.619e-09
 71.93927     91.3 1.471e+04 1.294e-09
 71.97846     91.8 1.467e+04 1.041e-09
 72.01766     92.3 1.463e+04 8.645e-10
 72.05685     93.1 1.457e+04 7.809e-10
 72.09604     94.3 1.455e+04 7.755e-10
 72.13523     95.7 1.456e+04 7.961e-10
 72.17443     97.2 1.458e+04 8.857e-10
 72.20744     98.6 1.460e+04 1.031e-09
 72.22704     98.7 1.426e+04 1.434e-09
 72.25281    100.1 1.438e+04 1.645e-09
 72.29201    101.4 1.448e+04 1.873e-09
 72.33120    102.7 1.453e+04 2.121e-09
 72.37039    104.0 1.447e+04 2.464e-09
 72.40958    105.2 1.441e+04 2.987e-09
 72.44878    106.2 1.439e+04 3.687e-09
 72.48797    106.6 1.440e+04 4.480e-09
 72.51672    106.6 1.439e+04 5.460e-09
 72.53632    106.4 1.409e+04 6.829e-09
 72.56635    105.8 1.407e+04 7.555e-09
 72.60555    105.2 1.403e+04 8.276e-09
 72.64474    104.5 1.393e+04 9.053e-09
 72.68393    104.0 1.392e+04 9.800e-09
 72.71623    103.7 1.398e+04 1.036e-08
 72.73583    101.5 1.367e+04 1.042e-08
 72.75242    101.9 1.377e+04 1.079e-08
 72.77192    102.1 1.368e+04 1.068e-08
 72.79152    101.9 1.352e+04 9.559e-09
 72.81111    101.8 1.346e+04 7.601e-09
 72.83071    101.6 1.349e+04 5.497e-09
 72.85030    101.4 1.357e+04 4.037e-09
 72.87980    101.5 1.353e+04 2.829e-09
 72.91909    102.1 1.356e+04 2.149e-09
 72.95828    103.2 1.375e+04 1.801e-09
 72.99747    104.5 1.383e+04 1.770e-09
 73.03666    105.9 1.398e+04 1.775e-09
 73.07586    107.5 1.414e+04 1.781e-09
 73.11505    109.2 1.418e+04 1.730e-09
 73.15424    111.1 1.425e+04 1.641e-09
 73.19343    113.1 1.427e+04 1.612e-09
 73.22502    115.4 1.429e+04 1.615e-09
 73.24462    115.0 1.407e+04 1.555e-09
 73.27182    117.6 1.416e+04 1.647e-09
 73.31101    120.4 1.449e+04 1.857e-09
 73.35020    123.0 1.481e+04 2.228e-09
 73.37950    124.4 1.496e+04 2.364e-09
 73.39900    125.4 1.500e+04 2.513e-09
 73.41860    126.5 1.509e+04 2.921e-09
 73.43819    127.6 1.516e+04 3.706e-09
 73.45779    128.7 1.520e+04 4.982e-09
 73.47739    129.6 1.523e+04 7.011e-09
 73.48902    130.5 1.524e+04 1.022e-08
 73.49882    129.8 1.522e+04 1.307e-08
 73.51658    130.5 1.527e+04 1.852e-08
 73.53617    131.3 1.535e+04 2.566e-08
 73.55577    131.8 1.553e+04 3.188e-08
 73.57537    132.2 1.551e+04 3.398e-08
 73.59496    132.5 1.550e+04 3.245e-08
 73.61456    132.8 1.546e+04 2.894e-08
 73.63416    133.2 1.540e+04 2.499e-08
 73.65375    133.6 1.534e+04 2.162e-08
 73.67335    134.1 1.530e+04 1.924e-08
 73.69294    134.7 1.525e+04 1.782e-08
 73.71254    135.3 1.516e+04 1.712e-08
 73.73214    135.9 1.504e+04 1.668e-08
 73.74342    136.6 1.490e+04 1.619e-08
 73.75322    136.7 1.488e+04 1.301e-08
 73.77133    137.5 1.480e+04 1.318e-08
 73.79093    138.3 1.473e+04 1.331e-08
 73.81052    139.0 1.471e+04 1.353e-08
 73.83012    139.8 1.469e+04 1.383e-08
 73.84971    140.5 1.473e+04 1.425e-08
 73.86931    141.1 1.484e+04 1.510e-08
 73.88891    141.6 1.498e+04 1.649e-08
 73.90850    142.0 1.510e+04 1.810e-08
 73.92810    142.2 1.515e+04 1.908e-08
 73.94770    142.4 1.513e+04 1.901e-08
 73.96729    142.7 1.501e+04 1.854e-08
 73.98127    143.2 1.478e+04 1.711e-08
 73.99107    143.5 1.472e+04 1.495e-08
 73.99782    143.9 1.454e+04 1.398e-08
 74.00761    143.9 1.447e+04 1.408e-08
 74.02608    144.4 1.433e+04 1.262e-08
 74.04568    145.0 1.416e+04 1.088e-08
 74.06527    145.8 1.394e+04 9.165e-09
 74.08487    146.7 1.372e+04 7.508e-09
 74.10447    147.8 1.355e+04 6.112e-09
 74.12406    148.8 1.345e+04 5.033e-09
 74.14366    149.9 1.339e+04 4.224e-09
 74.16326    151.1 1.337e+04 3.653e-09
 74.18285    152.3 1.329e+04 3.331e-09
 74.20245    153.5 1.309e+04 3.268e-09
 74.22204    154.6 1.303e+04 3.265e-09
 74.24164    155.9 1.301e+04 3.263e-09
 74.25221    157.0 1.296e+04 3.313e-09
 74.26201    157.0 1.293e+04 3.016e-09
 74.28083    158.2 1.286e+04 3.070e-09
 74.30043    159.3 1.277e+04 3.154e-09
 74.32003    160.3 1.271e+04 3.222e-09
 74.33962    161.3 1.262e+04 3.314e-09
 74.35922    162.2 1.254e+04 3.407e-09
 74.37881    163.1 1.247e+04 3.512e-09
 74.39841    163.9 1.240e+04 3.635e-09
 74.41801    164.6 1.233e+04 3.781e-09
 74.43760    165.3 1.226e+04 3.958e-09
 74.45720    165.9 1.219e+04 4.181e-09
 74.47680    166.6 1.211e+04 4.489e-09
 74.49639    167.3 1.204e+04 4.949e-09
 74.50661    167.9 1.198e+04 5.612e-09
 74.51640    168.5 1.183e+04 4.881e-09
 74.53559    169.2 1.177e+04 5.562e-09
 74.55518    170.0 1.177e+04 6.456e-09
 74.57478    170.6 1.183e+04 7.531e-09
 74.59437    171.0 1.193e+04 8.634e-09
 74.61397    171.0 1.202e+04 9.621e-09
 74.63357    171.0 1.209e+04 1.041e-08
 74.65316    170.6 1.211e+04 1.077e-08
 74.67276    170.0 1.210e+04 1.070e-08
 74.69236    169.3 1.201e+04 1.044e-08
 74.70874    168.8 1.182e+04 9.733e-09
 74.71854    169.2 1.161e+04 8.430e-09
 74.73155    169.0 1.142e+04 7.630e-09
 74.75114    169.0 1.124e+04 6.811e-09
 74.77074    169.6 1.103e+04 5.866e-09
 74.79034    169.7 1.088e+04 5.176e-09
 74.80993    169.8 1.073e+04 4.639e-09
 74.82953    170.0 1.056e+04 4.109e-09
 74.84913    170.2 1.041e+04 3.669e-09
 74.87862    170.7 1.022e+04 2.943e-09
 74.91791    171.7 1.001e+04 2.655e-09
 74.95710    173.2 1.002e+04 2.557e-09
 74.98640    173.5 1.001e+04 2.557e-09
 75.00560    173.9 1.001e+04 2.712e-09
 75.01540    174.5 1.010e+04 3.049e-09
 75.02549    174.9 1.012e+04 3.478e-09
 75.04509    175.0 1.015e+04 3.772e-09
 75.07458    175.3 1.009e+04 3.942e-09
 75.11387    175.6 1.025e+04 5.587e-09
 75.15306    175.7 1.060e+04 8.267e-09
 75.19226    175.5 1.091e+04 1.066e-08
 75.23145    174.9 1.099e+04 1.097e-08
 75.26019    173.8 1.095e+04 1.062e-08
 75.27979    174.2 1.093e+04 1.016e-08
 75.30983    173.0 1.067e+04 8.807e-09
 75.34903    171.9 1.028e+04 6.993e-09
 75.38822    171.3 9.834e+03 5.276e-09
 75.42661    171.3 9.411e+03 3.989e-09
 75.44621    169.5 9.638e+03 4.832e-09
 75.46660    169.8 9.103e+03 3.106e-09
 75.50580    170.5 8.614e+03 1.907e-09
 75.54499    171.4 8.231e+03 1.282e-09
 75.58418    172.6 7.978e+03 1.038e-09
 75.62337    174.1 7.886e+03 1.010e-09
 75.66257    175.8 7.887e+03 1.009e-09
 75.70176    177.5 7.896e+03 1.027e-09
 75.74095    179.1 7.917e+03 1.101e-09
 75.76898    180.5 8.051e+03 1.348e-09
 75.78858    181.2 8.051e+03 1.346e-09
 75.81934    182.5 8.423e+03 1.843e-09
 75.85853    183.4 8.897e+03 2.574e-09
 75.88783    183.7 9.073e+03 2.953e-09
 75.90733    183.7 9.271e+03 3.450e-09
 75.92692    183.6 9.515e+03 4.321e-09
 75.94652    183.5 9.741e+03 5.377e-09
 75.96611    183.2 9.935e+03 6.303e-09
 75.98571    182.6 1.010e+04 6.871e-09
 76.00531    181.6 1.023e+04 7.202e-09
 76.02318    180.0 1.038e+04 7.657e-09
 76.03298    180.9 1.037e+04 7.548e-09
 76.04450    179.1 1.046e+04 7.963e-09
 76.06410    177.2 1.067e+04 9.038e-09
 76.08369    175.1 1.099e+04 1.090e-08
 76.10329    173.1 1.130e+04 1.258e-08
 76.12288    169.7 1.546e+04 1.104e-08
 76.14248    166.3 1.516e+04 1.027e-08
 76.15523    161.9 2.651e+04 6.319e-09
 76.16008    165.2 2.059e+04 7.332e-09
 76.16688    154.1 5.578e+04 3.088e-09
 76.17339    119.0 8.074e+04 4.668e-09
 76.17829     91.1 4.010e+04 1.638e-07
 76.18647     77.0 2.089e+04 2.355e-06
 76.19380     72.1 1.815e+04 5.876e-06
 76.19867     66.8 1.721e+04 1.113e-05
 76.20357     57.4 1.922e+04 7.350e-06
 76.20847     47.3 2.496e+04 2.178e-06
 76.21584     28.4 4.928e+04 8.171e-08
 76.22567     -2.4 3.004e+04 5.576e-08
 76.23547    -10.6 1.804e+04 8.307e-08
 76.24526    -12.5 1.847e+04 8.676e-08
 76.25506    -14.5 1.856e+04 1.116e-07
 76.26486    -16.0 1.820e+04 1.188e-07
 76.27753    -17.7 1.799e+04 1.337e-07
 76.28733    -14.7 1.773e+04 1.078e-07
 76.29920    -15.8 1.730e+04 1.145e-07
 76.31885    -16.0 1.701e+04 1.086e-07
 76.33844    -15.5 1.656e+04 8.724e-08
 76.35804    -15.4 1.629e+04 6.219e-08
 76.37764    -17.1 1.548e+04 4.233e-08
 76.39723    -19.5 1.421e+04 3.212e-08
 76.41683    -21.5 1.408e+04 3.170e-08
 76.43643    -24.2 1.512e+04 4.108e-08
 76.45602    -26.3 1.576e+04 5.401e-08
 76.47562    -27.4 1.598e+04 6.237e-08
 76.49521    -28.4 1.593e+04 6.100e-08
 76.51481    -30.1 1.485e+04 3.724e-08
 76.53198    -32.6 1.243e+04 1.811e-08
 76.54177    -28.3 1.483e+04 3.523e-08
 76.55400    -31.2 1.219e+04 1.658e-08
 76.57360    -32.8 1.039e+04 9.553e-09
 76.59320    -33.4 9.644e+03 6.494e-09
 76.61279    -34.0 9.073e+03 4.791e-09
 76.63239    -34.8 8.752e+03 4.051e-09
 76.65198    -35.3 8.675e+03 3.891e-09
 76.67158    -35.9 8.737e+03 3.992e-09
 76.69118    -36.7 8.950e+03 4.737e-09
 76.71077    -37.0 9.161e+03 5.627e-09
 76.73037    -37.1 9.323e+03 6.258e-09
 76.74997    -37.2 9.360e+03 6.403e-09
 76.76956    -37.1 9.226e+03 6.078e-09
 76.78637    -36.9 8.927e+03 4.839e-09
 76.79617    -36.1 8.973e+03 4.900e-09
 76.80875    -36.3 8.573e+03 3.537e-09
 76.83825    -36.7 8.190e+03 2.591e-09
 76.87754    -37.3 7.591e+03 1.715e-09
 76.90115    -37.2 7.256e+03 1.338e-09
 76.92075    -37.2 7.204e+03 1.200e-09
 76.95592    -36.2 7.156e+03 1.162e-09
 76.99511    -35.3 7.434e+03 1.490e-09
 77.03431    -33.9 7.764e+03 1.990e-09
 77.07350    -32.3 8.052e+03 2.395e-09
 77.11269    -30.9 8.337e+03 2.704e-09
 77.15189    -29.9 8.633e+03 3.070e-09
 77.18118    -29.6 8.714e+03 3.461e-09
 77.20068    -29.1 8.857e+03 3.893e-09
 77.22028    -28.3 9.038e+03 4.334e-09
 77.23987    -27.6 9.099e+03 4.445e-09
 77.25947    -27.0 9.064e+03 4.284e-09
 77.27907    -26.1 8.942e+03 3.793e-09
 77.29526    -25.0 8.877e+03 3.311e-09
 77.30506    -24.9 8.894e+03 3.461e-09
 77.31826    -24.4 8.745e+03 3.083e-09
 77.34775    -22.9 8.685e+03 2.834e-09
 77.38704    -21.0 8.385e+03 2.310e-09
 77.42623    -19.2 8.267e+03 2.090e-09
 77.46543    -17.3 8.383e+03 2.171e-09
 77.50462    -15.5 8.597e+03 2.627e-09
 77.53392    -14.7 8.811e+03 3.351e-09
 77.54956    -13.8 9.028e+03 4.219e-09
 77.55936    -13.6 8.856e+03 3.775e-09
 77.57301    -12.6 9.089e+03 4.658e-09
 77.59261    -11.7 9.227e+03 5.379e-09
 77.61220    -10.6 9.387e+03 6.061e-09
 77.62843     -9.7 9.438e+03 6.330e-09
 77.63823     -9.1 9.351e+03 6.118e-09
 77.65140     -8.2 9.386e+03 6.266e-09
 77.67099     -7.3 9.319e+03 6.154e-09
 77.69059     -6.3 9.318e+03 6.213e-09
 77.71018     -5.6 9.282e+03 6.235e-09
 77.72978     -4.6 9.213e+03 6.277e-09
 77.74938     -3.7 9.169e+03 6.210e-09
 77.76897     -2.6 9.255e+03 6.529e-09
 77.78857     -1.9 9.210e+03 6.462e-09
 77.80395     -0.6 9.314e+03 6.903e-09
 77.81375     -0.6 9.279e+03 6.836e-09
 77.82776     -0.1 9.311e+03 6.931e-09
 77.84736      1.3 9.287e+03 7.128e-09
 77.86695      2.2 9.359e+03 7.300e-09
 77.88655      3.4 9.422e+03 7.788e-09
 77.90615      4.4 9.506e+03 8.054e-09
 77.92574      5.6 9.597e+03 8.574e-09
 77.94534      6.7 9.687e+03 8.951e-09
 77.96494      8.0 9.738e+03 8.971e-09
 77.98453      8.8 9.905e+03 9.477e-09
 78.00413      9.9 1.000e+04 9.825e-09
 78.02372     10.6 1.022e+04 1.054e-08
 78.04332     11.5 1.039e+04 1.116e-08
 78.05835     12.5 1.043e+04 1.152e-08
 78.06815     12.7 1.082e+04 1.396e-08
 78.08251     13.7 1.106e+04 1.510e-08
 78.10211     14.9 1.118e+04 1.561e-08
 78.12171     16.2 1.113e+04 1.485e-08
 78.14130     17.3 1.104e+04 1.353e-08
 78.16090     18.8 1.062e+04 1.122e-08
 78.18050     19.4 1.053e+04 1.047e-08
 78.20009     20.6 1.006e+04 8.794e-09
 78.21969     21.4 1.005e+04 8.310e-09
 78.23928     22.8 9.979e+03 7.914e-09
 78.25888     23.6 1.012e+04 8.033e-09
 78.27848     24.6 1.016e+04 8.171e-09
 78.29807     25.7 1.029e+04 8.710e-09
 78.31275     26.4 1.067e+04 1.010e-08
 78.32254     27.0 1.048e+04 9.433e-09
 78.33727     27.3 1.085e+04 1.062e-08
 78.35590     27.0 1.151e+04 1.330e-08
 78.36570     27.7 1.135e+04 1.277e-08
 78.37646     27.0 1.216e+04 1.727e-08
 78.39605     26.5 1.284e+04 2.395e-08
 78.41565     26.6 1.294e+04 2.652e-08
 78.43525     26.9 1.272e+04 2.453e-08
 78.45484     26.7 1.244e+04 1.979e-08
 78.47444     25.2 1.208e+04 1.479e-08
 78.49404     23.0 1.160e+04 1.252e-08
 78.51363     21.4 1.128e+04 1.239e-08
 78.53323     20.7 1.119e+04 1.301e-08
 78.55282     20.8 1.115e+04 1.297e-08
 78.56714     21.0 1.102e+04 1.203e-08
 78.57694     21.1 1.105e+04 1.215e-08
 78.59202     20.8 1.095e+04 1.068e-08
 78.61161     19.8 1.087e+04 9.473e-09
 78.63121     18.9 1.083e+04 9.399e-09
 78.65081     18.2 1.092e+04 1.008e-08
 78.67040     17.7 1.122e+04 1.192e-08
 78.69000     17.3 1.171e+04 1.481e-08
 78.70959     17.0 1.221e+04 1.809e-08
 78.72919     16.7 1.256e+04 2.097e-08
 78.74879     16.5 1.280e+04 2.317e-08
 78.76838     16.4 1.300e+04 2.528e-08
 78.78798     16.5 1.304e+04 2.660e-08
 78.80758     16.7 1.301e+04 2.637e-08
 78.82154     17.1 1.282e+04 2.488e-08
 78.83134     16.5 1.332e+04 2.983e-08
 78.84677     17.1 1.308e+04 2.725e-08
 78.86637     17.4 1.278e+04 2.393e-08
 78.88596     17.9 1.252e+04 2.132e-08
 78.90556     18.2 1.234e+04 1.979e-08
 78.92515     18.8 1.226e+04 1.959e-08
 78.94475     19.4 1.242e+04 2.075e-08
 78.96435     20.2 1.276e+04 2.367e-08
 78.98394     21.4 1.304e+04 2.723e-08
 79.00354     22.7 1.334e+04 3.069e-08
 79.02314     23.8 1.347e+04 3.237e-08
 79.04273     25.0 1.352e+04 3.300e-08
 79.06233     26.1 1.366e+04 3.385e-08
 79.07593     27.0 1.363e+04 3.350e-08
 79.08573     26.3 1.368e+04 3.521e-08
 79.09317     27.7 1.365e+04 3.455e-08
 79.10297     27.4 1.283e+04 2.548e-08
 79.12112     28.6 1.301e+04 2.670e-08
 79.14071     29.8 1.316e+04 2.781e-08
 79.16031     31.2 1.328e+04 2.859e-08
 79.17991     32.4 1.348e+04 2.945e-08
 79.19950     33.5 1.367e+04 3.030e-08
 79.21910     34.5 1.396e+04 3.194e-08
 79.23869     35.4 1.448e+04 3.642e-08
 79.25829     36.0 1.503e+04 4.250e-08
 79.27789     36.5 1.576e+04 5.193e-08
 79.29748     36.9 1.683e+04 7.392e-08
 79.31213     37.0 1.730e+04 9.290e-08
 79.32188     37.3 1.777e+04 1.128e-07
 79.33023     37.3 1.811e+04 1.376e-07
 79.33513     35.9 1.812e+04 1.044e-07
 79.34148     35.7 1.876e+04 1.136e-07
 79.35128     35.0 2.003e+04 1.179e-07
 79.36107     34.3 2.112e+04 1.081e-07
 79.37087     33.5 2.203e+04 8.819e-08
 79.38067     32.3 2.192e+04 7.774e-08
 79.39047     31.2 2.099e+04 6.659e-08
 79.40027     29.9 1.957e+04 5.679e-08
 79.41006     28.7 1.793e+04 4.574e-08
 79.41986     27.2 1.667e+04 3.879e-08
 79.42966     26.8 1.564e+04 3.252e-08
 79.43946     26.4 1.534e+04 3.077e-08
 79.45421     27.1 1.480e+04 2.802e-08
 79.47385     28.2 1.441e+04 2.561e-08
 79.49345     29.6 1.413e+04 2.524e-08
 79.51304     31.3 1.445e+04 2.697e-08
 79.53264     33.2 1.539e+04 3.113e-08
 79.54729     34.1 1.560e+04 3.517e-08
 79.55704     34.6 1.614e+04 3.914e-08
 79.56683     34.6 1.684e+04 4.783e-08
 79.57663     34.7 1.770e+04 6.073e-08
 79.58463     34.6 1.861e+04 8.198e-08
 79.58953     31.3 1.925e+04 1.319e-07
 79.59623     31.9 1.951e+04 1.648e-07
 79.60603     32.3 1.978e+04 1.974e-07
 79.61583     32.7 1.991e+04 2.224e-07
 79.62562     33.0 2.016e+04 2.384e-07
 79.63542     32.7 2.040e+04 2.379e-07
 79.64522     32.4 2.085e+04 2.150e-07
 79.65502     32.1 2.124e+04 1.861e-07
 79.66482     31.5 2.161e+04 1.450e-07
 79.67461     30.6 2.130e+04 1.207e-07
 79.68441     29.9 2.023e+04 1.030e-07
 79.69421     29.1 1.989e+04 1.017e-07
 79.70401     26.5 2.092e+04 1.092e-07
 79.71183     24.1 2.258e+04 1.208e-07
 79.71672     24.7 1.893e+04 8.423e-08
 79.72361     23.2 2.073e+04 1.008e-07
 79.73340     21.5 2.306e+04 1.290e-07
 79.74320     20.1 2.484e+04 1.756e-07
 79.75300     18.5 2.590e+04 2.425e-07
 79.76280     17.2 2.577e+04 3.212e-07
 79.77260     16.3 2.511e+04 3.847e-07
 79.78239     15.0 2.439e+04 4.496e-07
 79.79219     14.7 2.377e+04 3.989e-07
 79.80199     13.6 2.477e+04 2.480e-07
 79.81179     13.1 2.437e+04 1.218e-07
 79.82054     12.5 2.433e+04 4.858e-08
 79.82544     17.4 2.553e+04 2.208e-07
 79.83138     17.0 2.659e+04 8.941e-08
 79.83902     16.0 2.759e+04 3.131e-08
 79.84392     21.7 2.558e+04 2.215e-07
 79.85098     21.4 2.695e+04 9.319e-08
 79.86078     21.0 2.888e+04 3.373e-08
 79.87058     19.5 2.712e+04 1.860e-08
 79.88038     17.2 2.227e+04 1.746e-08
 79.89017     14.1 1.601e+04 1.759e-08
 79.89997     10.2 1.476e+04 1.930e-08
 79.90977      8.8 1.490e+04 1.975e-08
 79.91957      7.6 1.547e+04 2.893e-08
 79.92937      6.9 1.627e+04 3.735e-08
 79.93916      5.9 1.645e+04 5.191e-08
 79.94896      5.0 1.690e+04 6.324e-08
 79.95876      4.3 1.714e+04 7.870e-08
 79.96622      3.3 1.804e+04 9.223e-08
 79.97112      1.9 1.991e+04 1.303e-07
 79.97836     -0.3 2.097e+04 1.722e-07
 79.98816     -3.7 2.177e+04 2.366e-07
 79.99795     -8.3 2.207e+04 3.211e-07
 80.00775    -13.0 2.244e+04 4.075e-07
 80.01755    -19.3 2.244e+04 4.279e-07
 80.02735    -25.2 2.230e+04 4.401e-07
 80.03715    -31.1 2.161e+04 3.840e-07
 80.04694    -35.6 2.109e+04 3.080e-07
 80.05674    -39.4 2.069e+04 2.241e-07
 80.06654    -42.6 2.074e+04 1.551e-07
 80.07634    -46.0 2.039e+04 9.818e-08
 80.08614    -50.0 1.871e+04 5.682e-08
 80.09342    -53.6 1.629e+04 3.355e-08
 80.09832    -54.6 1.668e+04 4.438e-08
 80.10573    -56.6 1.524e+04 2.909e-08
 80.11553    -58.2 1.442e+04 2.162e-08
 80.12533    -59.0 1.408e+04 1.842e-08
 80.14008    -60.9 1.307e+04 1.330e-08
 80.15972    -62.8 1.129e+04 7.321e-09
 80.17932    -63.9 1.039e+04 5.798e-09
 80.19891    -64.0 1.017e+04 5.553e-09
 80.21851    -63.3 1.017e+04 5.672e-09
 80.23811    -63.5 1.087e+04 6.868e-09
 80.25770    -64.7 1.303e+04 1.021e-08
 80.27730    -66.2 1.523e+04 1.868e-08
 80.29689    -67.5 1.664e+04 3.710e-08
 80.31649    -68.4 1.746e+04 6.983e-08
 80.33609    -68.8 1.803e+04 1.172e-07
 80.34791    -69.1 1.845e+04 1.667e-07
 80.35771    -72.4 1.851e+04 1.877e-07
 80.37528    -72.8 1.849e+04 1.881e-07
 80.39488    -73.0 1.816e+04 1.520e-07
 80.41447    -72.9 1.750e+04 1.039e-07
 80.43407    -72.8 1.640e+04 6.544e-08
 80.45366    -72.6 1.517e+04 4.292e-08
 80.47326    -72.3 1.418e+04 3.079e-08
 80.49286    -71.8 1.353e+04 2.410e-08
 80.51245    -71.1 1.309e+04 2.027e-08
 80.53205    -70.4 1.282e+04 1.839e-08
 80.54811    -69.6 1.264e+04 1.769e-08
 80.55791    -70.7 1.328e+04 2.569e-08
 80.57124    -69.8 1.309e+04 2.425e-08
 80.59084    -68.9 1.290e+04 2.220e-08
 80.60231    -68.1 1.264e+04 1.940e-08
 80.61211    -69.7 1.193e+04 1.409e-08
 80.63003    -68.7 1.185e+04 1.325e-08
 80.64963    -67.4 1.187e+04 1.302e-08
 80.67912    -65.8 1.203e+04 1.319e-08
 80.71841    -63.8 1.180e+04 1.196e-08
 80.75760    -61.6 1.166e+04 1.075e-08
 80.79680    -59.4 1.160e+04 9.319e-09
 80.82609    -58.4 1.132e+04 7.905e-09
 80.84559    -57.8 1.117e+04 7.378e-09
 80.85670    -56.7 1.091e+04 6.372e-09
 80.86650    -57.3 1.073e+04 5.644e-09
 80.88478    -56.2 1.062e+04 5.234e-09
 80.90438    -55.0 1.057e+04 5.033e-09
 80.92398    -53.9 1.055e+04 4.975e-09
 80.94357    -52.8 1.057e+04 4.982e-09
 80.96317    -51.9 1.060e+04 5.013e-09
 80.98276    -51.2 1.063e+04 5.130e-09
 81.00236    -50.6 1.068e+04 5.362e-09
 81.02196    -50.1 1.077e+04 5.779e-09
 81.04155    -49.8 1.090e+04 6.303e-09
 81.06115    -49.7 1.110e+04 7.059e-09
 81.08075    -49.7 1.131e+04 8.052e-09
 81.10034    -49.9 1.160e+04 9.508e-09
 81.11110    -50.0 1.191e+04 1.135e-08
 81.12090    -50.3 1.201e+04 1.217e-08
 81.13953    -50.5 1.224e+04 1.397e-08
 81.15913    -50.8 1.226e+04 1.489e-08
 81.17873    -51.0 1.218e+04 1.502e-08
 81.19832    -51.0 1.186e+04 1.382e-08
 81.21792    -50.7 1.155e+04 1.181e-08
 81.23752    -50.3 1.126e+04 9.550e-09
 81.25711    -50.0 1.092e+04 7.463e-09
 81.27558    -49.4 1.068e+04 6.090e-09
 81.28538    -49.0 1.066e+04 6.117e-09
 81.29631    -48.5 1.049e+04 5.307e-09
 81.31590    -47.8 1.047e+04 5.164e-09
 81.33550    -47.3 1.054e+04 5.197e-09
 81.35509    -46.9 1.077e+04 5.972e-09
 81.36550    -46.6 1.099e+04 7.435e-09
 81.37529    -46.6 1.114e+04 8.329e-09
 81.39429    -46.1 1.140e+04 1.071e-08
 81.41388    -45.5 1.162e+04 1.304e-08
 81.43348    -44.9 1.175e+04 1.470e-08
 81.45308    -44.5 1.178e+04 1.535e-08
 81.47267    -44.2 1.180e+04 1.554e-08
 81.49227    -44.2 1.195e+04 1.579e-08
 81.51186    -47.0 1.384e+04 2.005e-08
 81.53146    -51.6 1.597e+04 5.072e-08
 81.55106    -53.5 1.707e+04 1.341e-07
 81.56571    -54.1 1.792e+04 2.485e-07
 81.57545    -54.7 1.803e+04 2.788e-07
 81.58525    -55.2 1.797e+04 2.781e-07
 81.59505    -55.0 1.745e+04 2.209e-07
 81.60485    -54.9 1.705e+04 1.458e-07
 81.61465    -55.8 1.713e+04 9.325e-08
 81.61979    -59.4 1.700e+04 6.014e-08
 81.62469    -63.3 1.641e+04 3.943e-08
 81.63424    -67.4 1.516e+04 3.062e-08
 81.64899    -70.8 1.428e+04 2.805e-08
 81.66863    -74.6 1.343e+04 2.758e-08
 81.68823    -76.3 1.298e+04 2.753e-08
 81.70783    -77.2 1.258e+04 2.368e-08
 81.72742    -78.2 1.194e+04 1.660e-08
 81.74702    -79.3 1.129e+04 1.141e-08
 81.76662    -80.0 1.079e+04 8.433e-09
 81.78621    -80.1 1.046e+04 6.685e-09
 81.80581    -80.1 1.023e+04 5.505e-09
 81.82541    -79.7 1.005e+04 4.645e-09
 81.84500    -79.1 9.919e+03 4.055e-09
 81.86449    -78.4 9.812e+03 3.630e-09
 81.87429    -78.4 9.778e+03 3.548e-09
 81.88419    -77.5 9.678e+03 3.196e-09
 81.90379    -76.6 9.640e+03 2.912e-09
 81.93328    -75.6 9.668e+03 2.686e-09
 81.97257    -74.1 9.649e+03 2.316e-09
 82.01177    -72.3 9.614e+03 2.028e-09
 82.05096    -70.3 9.619e+03 1.954e-09
 82.09015    -68.4 9.759e+03 2.122e-09
 82.12934    -66.6 9.962e+03 2.727e-09
 82.15864    -65.0 1.013e+04 3.437e-09
 82.17814    -64.4 1.019e+04 3.733e-09
 82.19773    -63.3 1.036e+04 4.434e-09
 82.21733    -63.0 1.041e+04 4.669e-09
 82.23693    -62.3 1.054e+04 5.286e-09
 82.25652    -61.7 1.061e+04 5.530e-09
 82.27612    -61.0 1.070e+04 5.715e-09
 82.29572    -60.5 1.074e+04 5.755e-09
 82.31531    -59.9 1.076e+04 5.740e-09
 82.33491    -59.3 1.077e+04 5.444e-09
 82.35450    -58.7 1.074e+04 4.871e-09
 82.37328    -58.2 1.070e+04 4.176e-09
 82.38308    -58.0 1.074e+04 4.651e-09
 82.39370    -57.5 1.073e+04 4.108e-09
 82.41329    -57.1 1.071e+04 3.595e-09
 82.43289    -56.7 1.074e+04 3.215e-09
 82.45249    -56.2 1.078e+04 3.083e-09
 82.48198    -55.8 1.087e+04 3.174e-09
 82.52127    -54.7 1.091e+04 3.152e-09
 82.56046    -53.6 1.087e+04 3.106e-09
 82.59965    -52.2 1.084e+04 2.670e-09
 82.63885    -50.8 1.086e+04 1.977e-09
 82.67804    -49.6 1.098e+04 1.492e-09
 82.71723    -48.8 1.104e+04 1.385e-09
 82.74052    -48.7 1.119e+04 1.645e-09
 82.76012    -49.2 1.128e+04 2.314e-09
 82.79562    -49.2 1.134e+04 3.732e-09
 82.83481    -49.2 1.147e+04 4.988e-09
 82.87247    -50.0 1.150e+04 5.199e-09
 82.89207    -50.6 1.132e+04 4.517e-09
 82.91319    -51.4 1.105e+04 3.433e-09
 82.95239    -52.4 1.087e+04 2.890e-09
 82.99158    -53.3 1.083e+04 2.912e-09
 83.03077    -54.1 1.077e+04 3.880e-09
 83.06996    -54.4 1.072e+04 4.563e-09
 83.10916    -54.5 1.070e+04 4.625e-09
 83.14835    -54.1 1.034e+04 3.081e-09
 83.18754    -53.7 1.003e+04 2.004e-09
 83.22674    -53.0 9.853e+03 1.670e-09
 83.26593    -52.0 9.835e+03 1.633e-09
 83.30512    -51.2 9.855e+03 1.873e-09
 83.34431    -50.5 9.861e+03 2.301e-09
 83.38126    -49.6 9.851e+03 2.526e-09
 83.40086    -50.0 9.745e+03 2.041e-09
 83.42270    -49.2 9.703e+03 2.110e-09
 83.46189    -48.2 9.609e+03 2.024e-09
 83.50108    -47.0 9.497e+03 1.761e-09
 83.54028    -45.7 9.397e+03 1.508e-09
 83.57947    -44.5 9.250e+03 1.356e-09
 83.61866    -43.2 9.063e+03 1.290e-09
 83.65785    -41.8 8.897e+03 1.258e-09
 83.69705    -40.4 8.781e+03 1.232e-09
 83.73624    -39.0 8.682e+03 1.229e-09
 83.77543    -37.7 8.620e+03 1.278e-09
 83.81462    -36.6 8.618e+03 1.473e-09
 83.85382    -35.5 8.677e+03 1.907e-09
 83.89005    -34.5 8.807e+03 2.461e-09
 83.90965    -34.2 9.006e+03 2.957e-09
 83.93220    -33.2 9.183e+03 3.646e-09
 83.97139    -32.8 9.219e+03 3.758e-09
 84.01059    -32.5 9.085e+03 3.452e-09
 84.04978    -32.2 8.877e+03 2.976e-09
 84.08897    -31.3 8.678e+03 2.568e-09
 84.12816    -30.0 8.495e+03 2.004e-09
 84.16736    -28.9 8.345e+03 1.383e-09
 84.19547    -28.2 8.284e+03 1.144e-09
 84.21506    -27.2 8.191e+03 1.040e-09
 84.24574    -26.2 8.117e+03 1.076e-09
 84.28493    -24.9 8.241e+03 1.501e-09
 84.32413    -22.9 8.385e+03 1.910e-09
 84.36332    -21.3 8.447e+03 1.995e-09
 84.39884    -20.4 8.420e+03 1.771e-09
 84.41844    -20.8 8.442e+03 1.931e-09
 84.44171    -20.4 8.497e+03 2.134e-09
 84.48090    -19.9 8.705e+03 3.061e-09
 84.51019    -19.5 8.981e+03 4.393e-09
 84.52969    -19.2 9.121e+03 5.477e-09
 84.54929    -18.5 9.304e+03 6.602e-09
 84.56889    -17.7 9.392e+03 7.013e-09
 84.58848    -17.2 9.291e+03 6.848e-09
 84.60808    -16.5 9.119e+03 5.993e-09
 84.63757    -15.8 8.542e+03 4.261e-09
 84.67686    -15.1 7.879e+03 2.528e-09
 84.71605    -13.4 7.146e+03 1.216e-09
 84.75525    -12.3 6.816e+03 7.162e-10
 84.79444    -11.3 6.651e+03 5.486e-10
 84.83363     -9.6 6.618e+03 5.336e-10
 84.87282     -7.8 6.609e+03 6.471e-10
 84.90764     -5.5 6.645e+03 7.974e-10
 84.92723     -6.6 6.707e+03 9.350e-10
 84.95121     -4.2 6.749e+03 9.634e-10
 84.99040     -2.1 6.807e+03 9.377e-10
 85.02959     -0.4 6.932e+03 1.049e-09
 85.06879      0.4 7.587e+03 1.525e-09
 85.10798     -1.3 9.484e+03 3.916e-09
 85.13728     -1.2 1.048e+04 6.118e-09
 85.15677     -4.3 1.260e+04 1.730e-08
 85.17163     -5.9 1.446e+04 4.249e-08
 85.18143     -8.0 1.496e+04 5.696e-08
 85.19597     -8.6 1.580e+04 8.212e-08
 85.21556     -9.1 1.552e+04 8.391e-08
 85.23516     -9.9 1.483e+04 5.163e-08
 85.25476    -13.7 1.405e+04 2.515e-08
 85.27435    -20.8 1.216e+04 1.396e-08
 85.29395    -25.7 1.117e+04 1.448e-08
 85.31354    -27.0 1.126e+04 1.795e-08
 85.33314    -27.2 1.171e+04 2.096e-08
 85.35274    -28.4 1.226e+04 2.361e-08
 85.37233    -30.3 1.265e+04 2.603e-08
 85.39193    -32.1 1.310e+04 3.101e-08
 85.41153    -33.6 1.405e+04 4.199e-08
 85.42603    -35.1 1.537e+04 5.994e-08
 85.43583    -36.5 1.566e+04 6.379e-08
 85.45072    -37.6 1.663e+04 8.364e-08
 85.46537    -36.3 1.671e+04 8.485e-08
 85.47512    -36.6 1.706e+04 8.958e-08
 85.48491    -37.3 1.739e+04 9.799e-08
 85.49471    -37.9 1.762e+04 1.009e-07
 85.50451    -39.1 1.773e+04 1.037e-07
 85.51431    -40.2 1.812e+04 1.111e-07
 85.52411    -42.0 1.815e+04 1.220e-07
 85.53391    -42.9 1.815e+04 1.443e-07
 85.54370    -43.6 1.793e+04 1.609e-07
 85.55313    -43.8 1.798e+04 1.785e-07
 85.55803    -43.6 1.757e+04 1.281e-07
 85.56330    -44.0 1.771e+04 1.370e-07
 85.57310    -44.6 1.815e+04 1.443e-07
 85.58290    -45.6 1.875e+04 1.457e-07
 85.59269    -46.9 1.946e+04 1.424e-07
 85.60249    -48.8 2.002e+04 1.341e-07
 85.61229    -50.8 1.993e+04 1.212e-07
 85.62209    -52.6 1.942e+04 1.067e-07
 85.63189    -53.9 1.869e+04 9.300e-08
 85.64663    -55.3 1.781e+04 7.681e-08
 85.66001    -56.0 1.672e+04 5.762e-08
 85.66486    -52.2 1.914e+04 1.079e-07
 85.67108    -52.4 1.953e+04 1.024e-07
 85.68038    -53.9 1.993e+04 7.901e-08
 85.69022    -52.4 1.875e+04 9.295e-08
 85.70547    -53.8 1.782e+04 6.456e-08
 85.72507    -55.1 1.574e+04 4.769e-08
 85.74466    -55.4 1.425e+04 4.046e-08
 85.76426    -54.9 1.343e+04 3.401e-08
 85.78386    -54.1 1.308e+04 2.672e-08
 85.80345    -53.5 1.273e+04 1.925e-08
 85.82305    -53.4 1.245e+04 1.380e-08
 85.84264    -53.6 1.215e+04 1.069e-08
 85.86224    -53.7 1.197e+04 9.731e-09
 85.88184    -53.6 1.202e+04 9.720e-09
 85.90143    -53.5 1.226e+04 1.077e-08
 85.92103    -53.3 1.241e+04 1.230e-08
 85.93482    -53.0 1.246e+04 1.363e-08
 85.94462    -52.7 1.305e+04 1.622e-08
 85.96022    -52.4 1.297e+04 1.643e-08
 85.97982    -51.9 1.272e+04 1.583e-08
 85.99941    -51.3 1.250e+04 1.492e-08
 86.01901    -50.7 1.240e+04 1.405e-08
 86.03861    -49.9 1.235e+04 1.332e-08
 86.05820    -49.1 1.230e+04 1.279e-08
 86.07780    -48.3 1.230e+04 1.240e-08
 86.09740    -47.5 1.227e+04 1.196e-08
 86.11699    -46.7 1.218e+04 1.147e-08
 86.13659    -45.9 1.202e+04 1.083e-08
 86.15619    -44.8 1.190e+04 1.022e-08
 86.17578    -43.7 1.189e+04 9.719e-09
 86.18922    -42.7 1.190e+04 9.023e-09
 86.19902    -42.1 1.175e+04 1.083e-08
 86.21497    -41.0 1.180e+04 1.012e-08
 86.23457    -39.9 1.190e+04 9.272e-09
 86.25417    -39.2 1.197e+04 8.230e-09
 86.28366    -39.2 1.157e+04 6.268e-09
 86.32295    -38.9 1.158e+04 6.080e-09
 86.35225    -39.5 1.207e+04 7.850e-09
 86.37174    -40.0 1.225e+04 9.112e-09
 86.38748    -41.0 1.262e+04 1.271e-08
 86.39728    -39.7 1.201e+04 8.764e-09
 86.41094    -40.5 1.251e+04 1.188e-08
 86.43053    -41.4 1.302e+04 1.649e-08
 86.44361    -42.1 1.340e+04 2.283e-08
 86.45341    -41.9 1.339e+04 2.005e-08
 86.46973    -42.2 1.354e+04 2.333e-08
 86.48932    -42.4 1.356e+04 2.411e-08
 86.50892    -42.5 1.337e+04 2.175e-08
 86.52851    -42.8 1.299e+04 1.690e-08
 86.54811    -43.1 1.259e+04 1.336e-08
 86.56771    -43.6 1.230e+04 1.185e-08
 86.58730    -44.1 1.222e+04 1.153e-08
 86.60690    -44.9 1.234e+04 1.258e-08
 86.62650    -46.0 1.251e+04 1.589e-08
 86.64609    -46.9 1.257e+04 1.907e-08
 86.66569    -47.5 1.257e+04 1.997e-08
 86.68529    -48.2 1.220e+04 1.747e-08
 86.69801    -49.4 1.171e+04 1.186e-08
 86.70781    -50.1 1.120e+04 8.825e-09
 86.72448    -51.9 1.079e+04 6.175e-09
 86.74407    -53.3 1.044e+04 4.965e-09
 86.76367    -53.7 1.017e+04 4.222e-09
 86.78327    -53.7 9.980e+03 3.508e-09
 86.80286    -53.6 9.841e+03 2.802e-09
 86.83235    -53.5 9.793e+03 2.212e-09
 86.87165    -53.1 9.760e+03 1.861e-09
 86.90094    -53.1 9.919e+03 2.094e-09
 86.92044    -53.5 1.041e+04 2.630e-09
 86.94004    -55.2 1.123e+04 4.528e-09
 86.95241    -57.4 1.215e+04 1.035e-08
 86.96220    -57.7 1.217e+04 1.036e-08
 86.97923    -59.2 1.303e+04 2.272e-08
 86.99883    -59.7 1.365e+04 3.738e-08
 87.01842    -60.3 1.387e+04 4.229e-08
 87.03802    -61.2 1.356e+04 3.514e-08
 87.05761    -62.7 1.241e+04 1.620e-08
 87.07721    -65.8 1.091e+04 6.425e-09
 87.09681    -68.3 9.874e+03 3.721e-09
 87.11496    -68.9 9.453e+03 3.049e-09
 87.12475    -69.0 9.545e+03 2.783e-09
 87.13600    -68.9 9.406e+03 2.590e-09
 87.15560    -68.4 9.314e+03 2.495e-09
 87.18509    -67.8 9.205e+03 2.359e-09
 87.22438    -66.0 9.116e+03 2.304e-09
 87.26357    -64.0 9.117e+03 2.335e-09
 87.30276    -62.0 9.204e+03 2.386e-09
 87.34196    -60.0 9.364e+03 2.478e-09
 87.38115    -58.2 9.729e+03 2.713e-09
 87.42034    -56.7 1.019e+04 3.592e-09
 87.45159    -55.2 1.059e+04 5.683e-09
 87.47119    -54.7 1.114e+04 8.427e-09
 87.48883    -54.0 1.150e+04 1.125e-08
 87.50833    -53.2 1.174e+04 1.395e-08
 87.52793    -52.6 1.212e+04 1.853e-08
 87.54752    -51.8 1.245e+04 2.380e-08
 87.56712    -51.0 1.276e+04 2.925e-08
 87.58671    -50.2 1.296e+04 3.425e-08
 87.60631    -49.4 1.309e+04 3.778e-08
 87.62591    -49.1 1.331e+04 4.030e-08
 87.64550    -50.1 1.436e+04 4.569e-08
 87.66510    -56.6 1.721e+04 9.715e-08
 87.67975    -61.8 1.803e+04 2.165e-07
 87.68950    -64.4 1.836e+04 3.982e-07
 87.69930    -66.9 1.859e+04 5.619e-07
 87.70909    -70.0 1.866e+04 5.805e-07
 87.71549    -73.1 1.885e+04 3.633e-07
 87.72039    -72.8 1.875e+04 4.061e-07
 87.72869    -77.2 1.882e+04 1.572e-07
 87.73849    -83.7 1.708e+04 4.900e-08
 87.74829    -89.8 1.370e+04 2.217e-08
 87.76303    -93.8 1.151e+04 1.355e-08
 87.78268    -96.5 9.874e+03 8.152e-09
 87.80227    -97.8 8.814e+03 5.577e-09
 87.82187    -97.9 8.595e+03 4.978e-09
 87.84147    -97.5 8.461e+03 4.482e-09
 87.85222    -97.1 8.328e+03 4.032e-09
 87.86202    -96.2 8.966e+03 5.937e-09
 87.88066    -95.8 8.761e+03 5.169e-09
 87.90026    -95.4 8.602e+03 4.664e-09
 87.91985    -95.1 8.521e+03 4.439e-09
 87.93945    -94.6 8.502e+03 4.384e-09
 87.95904    -94.2 8.503e+03 4.380e-09
 87.96999    -93.9 8.532e+03 4.453e-09
 87.97979    -94.5 8.372e+03 4.040e-09
 87.99824    -94.2 8.407e+03 4.119e-09
 88.01783    -94.1 8.469e+03 4.281e-09
 88.03743    -93.9 8.561e+03 4.576e-09
 88.05703    -93.8 8.690e+03 5.021e-09
 88.07662    -93.7 8.838e+03 5.569e-09
 88.09622    -93.6 8.973e+03 6.121e-09
 88.11581    -93.6 9.081e+03 6.594e-09
 88.13541    -93.6 9.169e+03 6.958e-09
 88.15501    -93.7 9.255e+03 7.210e-09
 88.17460    -93.9 9.297e+03 7.298e-09
 88.20410    -94.8 9.201e+03 7.089e-09
 88.22448    -94.9 9.321e+03 7.838e-09
 88.23418    -95.9 9.108e+03 7.261e-09
 88.25299    -96.3 9.095e+03 7.170e-09
 88.27258    -96.5 9.110e+03 7.172e-09
 88.29218    -96.8 9.172e+03 7.272e-09
 88.31178    -98.2 9.538e+03 8.146e-09
 88.33137   -101.6 1.121e+04 1.304e-08
 88.35097   -104.7 1.356e+04 2.892e-08
 88.37057   -105.4 1.542e+04 6.621e-08
 88.39016   -105.2 1.670e+04 1.303e-07
 88.40976   -105.0 1.736e+04 1.891e-07
 88.42935   -105.0 1.750e+04 2.000e-07
 88.44400   -105.0 1.722e+04 1.717e-07
 88.45375   -104.6 1.703e+04 1.592e-07
 88.46355   -104.2 1.661e+04 1.149e-07
 88.47335   -104.1 1.633e+04 7.203e-08
 88.47873   -105.1 1.576e+04 3.816e-08
 88.48858   -105.2 1.510e+04 3.125e-08
 88.50774   -106.0 1.394e+04 1.670e-08
 88.52734   -106.5 1.163e+04 7.697e-09
 88.54693   -106.8 1.003e+04 4.873e-09
 88.56653   -106.3 9.347e+03 4.018e-09
 88.57970   -105.2 8.957e+03 3.613e-09
 88.58949   -102.6 1.253e+04 1.050e-08
 88.60572   -101.9 1.179e+04 7.958e-09
 88.62532   -101.2 1.127e+04 6.703e-09
 88.64491   -100.7 1.111e+04 6.347e-09
 88.66451   -100.4 1.107e+04 6.678e-09
 88.68411   -100.2 1.113e+04 8.042e-09
 88.70370   -100.0 1.130e+04 1.030e-08
 88.72330    -99.7 1.152e+04 1.312e-08
 88.74290   -100.4 1.189e+04 1.797e-08
 88.76249    -99.9 1.193e+04 1.926e-08
 88.78209    -99.5 1.192e+04 1.954e-08
 88.80168    -99.0 1.189e+04 1.944e-08
 88.82128    -98.5 1.186e+04 1.934e-08
 88.84088    -97.9 1.186e+04 1.945e-08
 88.86047    -97.5 1.196e+04 2.027e-08
 88.88007    -97.3 1.215e+04 2.172e-08
 88.89967    -97.1 1.233e+04 2.350e-08
 88.91926    -97.0 1.240e+04 2.460e-08
 88.93886    -97.1 1.240e+04 2.480e-08
 88.95845    -97.3 1.229e+04 2.435e-08
 88.97777    -97.2 1.212e+04 2.315e-08
 88.98757    -98.4 1.164e+04 1.942e-08
 88.99765    -97.9 1.141e+04 1.772e-08
 89.01724    -97.4 1.114e+04 1.577e-08
 89.03684    -96.8 1.078e+04 1.389e-08
 89.05644    -96.0 1.042e+04 1.211e-08
 89.07603    -95.3 1.005e+04 1.042e-08
 89.09563    -94.4 9.653e+03 8.802e-09
 89.11523    -93.3 9.291e+03 7.413e-09
 89.13482    -92.2 8.998e+03 6.288e-09
 89.15442    -91.1 8.745e+03 5.375e-09
 89.17401    -89.9 8.525e+03 4.628e-09
 89.19361    -88.6 8.386e+03 4.192e-09
 89.21321    -87.3 8.317e+03 3.934e-09
 89.23217    -86.5 8.269e+03 3.790e-09
 89.24197    -87.0 8.257e+03 3.706e-09
 89.25240    -85.6 8.206e+03 3.586e-09
 89.27200    -84.9 8.185e+03 3.518e-09
 89.29159    -83.7 8.173e+03 3.457e-09
 89.30717    -83.3 8.167e+03 3.436e-09
 89.31697    -83.3 8.468e+03 4.322e-09
 89.33078    -82.7 8.540e+03 4.498e-09
 89.35038    -82.1 8.620e+03 4.735e-09
 89.36998    -81.6 8.694e+03 5.048e-09
 89.38957    -81.1 8.757e+03 5.358e-09
 89.40917    -80.4 8.826e+03 5.719e-09
 89.42877    -79.7 8.878e+03 6.020e-09
 89.44836    -78.8 8.919e+03 6.310e-09
 89.46796    -77.6 8.982e+03 6.636e-09
 89.48656    -76.5 9.070e+03 6.992e-09
 89.49636    -76.7 9.091e+03 7.015e-09
 89.50715    -75.8 9.230e+03 7.473e-09
 89.52675    -75.2 9.576e+03 8.578e-09
 89.54634    -75.2 1.030e+04 1.129e-08
 89.56594    -76.0 1.172e+04 1.809e-08
 89.58554    -76.6 1.357e+04 3.389e-08
 89.60018    -75.7 1.451e+04 4.942e-08
 89.60993    -75.6 1.465e+04 5.306e-08
 89.61856    -74.9 1.528e+04 7.067e-08
 89.62346    -75.2 1.517e+04 6.654e-08
 89.62953    -75.2 1.533e+04 7.180e-08
 89.63933    -74.7 1.578e+04 8.579e-08
 89.64913    -74.6 1.592e+04 9.034e-08
 89.65892    -74.5 1.602e+04 9.338e-08
 89.66872    -74.4 1.608e+04 9.165e-08
 89.67571    -74.3 1.602e+04 8.677e-08
 89.68060    -74.9 1.601e+04 8.640e-08
 89.68832    -74.8 1.582e+04 7.769e-08
 89.69812    -74.8 1.558e+04 6.989e-08
 89.70792    -74.8 1.546e+04 6.538e-08
 89.71771    -74.8 1.536e+04 6.158e-08
 89.72751    -74.7 1.535e+04 6.071e-08
 89.73731    -74.5 1.543e+04 6.076e-08
 89.74576    -74.3 1.554e+04 6.282e-08
 89.75066    -74.2 1.504e+04 5.291e-08
 89.76185    -73.5 1.520e+04 5.581e-08
 89.78150    -73.2 1.556e+04 6.380e-08
 89.80110    -72.8 1.602e+04 7.708e-08
 89.82069    -72.4 1.642e+04 9.197e-08
 89.84029    -72.2 1.671e+04 1.054e-07
 89.85988    -72.1 1.691e+04 1.165e-07
 89.87948    -72.3 1.703e+04 1.190e-07
 89.89413    -72.7 1.715e+04 1.044e-07
 89.90388    -72.9 1.728e+04 1.072e-07
 89.91368    -73.1 1.764e+04 1.140e-07
 89.92347    -73.2 1.765e+04 1.173e-07
 89.93327    -73.4 1.782e+04 1.336e-07
 89.94307    -73.6 1.807e+04 1.519e-07
 89.95287    -73.9 1.840e+04 1.798e-07
 89.96267    -74.4 1.876e+04 2.190e-07
 89.97247    -75.2 1.908e+04 2.672e-07
 89.98226    -76.3 1.931e+04 3.124e-07
 89.99206    -77.4 1.947e+04 3.423e-07
 90.00016    -78.7 1.954e+04 3.500e-07
 90.00506    -79.8 1.973e+04 2.672e-07
 90.01166    -80.9 1.972e+04 2.682e-07
 90.02146    -81.7 1.942e+04 2.498e-07
 90.03125    -82.1 1.910e+04 2.136e-07
 90.03944    -82.4 1.870e+04 1.777e-07
 90.04434    -83.8 1.900e+04 1.974e-07
 90.05085    -83.9 1.867e+04 1.547e-07
 90.06065    -83.9 1.831e+04 1.215e-07
 90.07045    -83.9 1.793e+04 9.551e-08
 90.08024    -83.8 1.758e+04 7.756e-08
 90.09004    -83.7 1.735e+04 6.687e-08
 90.09984    -83.5 1.730e+04 6.124e-08
 90.10964    -83.0 1.736e+04 5.893e-08
 90.11944    -82.6 1.741e+04 5.820e-08
 90.12736    -82.3 1.747e+04 5.784e-08
 90.13225    -81.8 1.630e+04 4.709e-08
 90.13903    -81.4 1.627e+04 4.661e-08
 90.14883    -80.9 1.630e+04 4.690e-08
 90.15863    -80.5 1.649e+04 4.825e-08
 90.16843    -80.2 1.673e+04 5.047e-08
 90.17823    -80.1 1.695e+04 5.323e-08
 90.18802    -80.0 1.714e+04 5.669e-08
 90.19782    -80.0 1.726e+04 6.141e-08
 90.20762    -79.9 1.733e+04 6.637e-08
 90.21742    -79.7 1.728e+04 7.043e-08
 90.22722    -79.4 1.721e+04 7.214e-08
 90.23702    -79.1 1.700e+04 7.301e-08
 90.24681    -78.8 1.687e+04 7.186e-08
 90.25455    -78.8 1.659e+04 6.989e-08
 90.25945    -78.1 1.617e+04 5.624e-08
 90.26641    -78.1 1.587e+04 5.361e-08
 90.27621    -78.0 1.553e+04 5.041e-08
 90.29095    -77.6 1.515e+04 4.388e-08
 90.31060    -76.9 1.463e+04 3.800e-08
 90.33020    -76.2 1.437e+04 3.653e-08
 90.34979    -75.3 1.416e+04 3.535e-08
 90.36939    -74.4 1.395e+04 3.432e-08
 90.38898    -73.4 1.384e+04 3.403e-08
 90.40858    -72.5 1.380e+04 3.423e-08
 90.42818    -71.5 1.378e+04 3.462e-08
 90.44777    -70.4 1.370e+04 3.472e-08
 90.46737    -69.4 1.357e+04 3.359e-08
 90.48697    -68.2 1.337e+04 3.083e-08
 90.50415    -66.9 1.313e+04 2.653e-08
 90.51395    -66.7 1.280e+04 2.421e-08
 90.52616    -65.5 1.264e+04 2.175e-08
 90.54575    -64.3 1.244e+04 1.854e-08
 90.56535    -63.3 1.223e+04 1.574e-08
 90.58495    -62.6 1.197e+04 1.353e-08
 90.60454    -61.9 1.175e+04 1.209e-08
 90.62414    -61.3 1.163e+04 1.129e-08
 90.64374    -60.5 1.158e+04 1.095e-08
 90.66333    -59.8 1.159e+04 1.092e-08
 90.68293    -59.4 1.170e+04 1.128e-08
 90.70252    -59.1 1.178e+04 1.171e-08
 90.72212    -58.9 1.184e+04 1.189e-08
 90.74172    -58.9 1.183e+04 1.179e-08
 90.75854    -59.1 1.175e+04 1.100e-08
 90.76834    -58.7 1.200e+04 1.311e-08
 90.77191    -58.8 1.182e+04 1.160e-08
 90.78171    -59.4 1.161e+04 9.751e-09
 90.80051    -59.5 1.142e+04 8.353e-09
 90.82010    -59.8 1.120e+04 7.192e-09
 90.83970    -60.0 1.104e+04 6.488e-09
 90.85929    -60.2 1.093e+04 6.220e-09
 90.87889    -60.4 1.085e+04 6.273e-09
 90.89849    -60.5 1.080e+04 6.460e-09
 90.91808    -60.6 1.076e+04 6.617e-09
 90.93768    -60.6 1.067e+04 6.646e-09
 90.95728    -60.4 1.046e+04 6.317e-09
 90.97687    -60.0 1.026e+04 5.526e-09
 90.99647    -59.6 1.008e+04 4.668e-09
 91.01294    -59.2 9.888e+03 3.909e-09
 91.02274    -58.3 9.732e+03 3.462e-09
 91.03566    -57.7 9.577e+03 2.890e-09
 91.05526    -57.1 9.570e+03 2.637e-09
 91.07485    -56.7 9.590e+03 2.591e-09
 91.09445    -56.1 9.613e+03 2.571e-09
 91.11405    -55.7 9.644e+03 2.648e-09
 91.13364    -54.9 9.653e+03 2.810e-09
 91.15324    -54.5 9.634e+03 2.963e-09
 91.17284    -53.6 9.587e+03 3.170e-09
 91.19243    -53.0 9.559e+03 3.308e-09
 91.21203    -52.1 9.560e+03 3.559e-09
 91.23162    -51.6 9.575e+03 3.674e-09
 91.26112    -50.6 9.521e+03 3.629e-09
 91.30041    -49.1 9.517e+03 3.996e-09
 91.33960    -47.3 9.693e+03 4.506e-09
 91.37879    -46.0 9.874e+03 4.738e-09
 91.41798    -45.1 1.014e+04 5.067e-09
 91.45718    -45.0 1.055e+04 6.376e-09
 91.48978    -45.4 1.124e+04 1.022e-08
 91.50938    -44.1 1.144e+04 1.301e-08
 91.52183    -45.0 1.187e+04 1.588e-08
 91.53153    -44.9 1.166e+04 1.408e-08
 91.54517    -45.7 1.206e+04 1.729e-08
 91.56476    -46.3 1.234e+04 2.063e-08
 91.58436    -47.1 1.234e+04 2.108e-08
 91.60395    -47.9 1.200e+04 1.838e-08
 91.62355    -49.0 1.146e+04 1.372e-08
 91.64315    -50.3 1.095e+04 1.066e-08
 91.66274    -51.2 1.062e+04 9.295e-09
 91.69223    -51.9 1.036e+04 8.156e-09
 91.73153    -52.7 9.727e+03 5.944e-09
 91.77072    -53.0 9.437e+03 4.851e-09
 91.80991    -53.1 9.163e+03 3.956e-09
 91.84910    -53.1 8.952e+03 3.309e-09
 91.88830    -52.8 8.829e+03 2.878e-09
 91.92749    -52.3 8.832e+03 2.635e-09
 91.96668    -51.7 8.848e+03 2.557e-09
 92.00587    -51.1 9.020e+03 2.747e-09
 92.03072    -50.9 9.137e+03 3.104e-09
 92.05031    -52.3 9.065e+03 2.784e-09
 92.07436    -52.2 9.145e+03 3.238e-09
 92.09386    -52.3 9.234e+03 3.739e-09
 92.11346    -52.3 9.433e+03 4.864e-09
 92.13305    -52.1 9.656e+03 5.949e-09
 92.15265    -51.8 9.884e+03 7.028e-09
 92.17225    -51.7 1.002e+04 7.456e-09
 92.20174    -52.9 1.012e+04 7.129e-09
 92.22695    -57.4 1.322e+04 7.751e-09
 92.23665    -59.9 1.591e+04 8.095e-09
 92.25063    -78.3 2.201e+04 3.972e-08
 92.26528    -87.9 1.939e+04 1.676e-07
 92.27503    -90.5 1.859e+04 3.124e-07
 92.28482    -92.6 1.868e+04 3.995e-07
 92.29462    -97.2 1.918e+04 3.830e-07
 92.30442   -105.2 1.996e+04 1.432e-07
 92.31422   -119.2 1.699e+04 2.992e-08
 92.32402   -130.7 1.295e+04 1.563e-08
 92.33382   -134.2 1.230e+04 1.421e-08
 92.34856   -136.8 1.238e+04 1.555e-08
 92.36821   -141.9 1.290e+04 2.432e-08
 92.38781   -145.4 1.352e+04 3.110e-08
 92.40740   -149.0 1.379e+04 3.264e-08
 92.42700   -153.3 1.379e+04 3.177e-08
 92.44659   -157.6 1.335e+04 2.754e-08
 92.46619   -161.3 1.282e+04 2.471e-08
 92.48579   -164.2 1.252e+04 2.398e-08
 92.50538   -166.3 1.236e+04 2.384e-08
 92.52498   -167.9 1.215e+04 2.324e-08
 92.53931   -169.1 1.189e+04 2.137e-08
 92.54911   -169.5 1.193e+04 2.146e-08
 92.56417   -170.6 1.169e+04 1.931e-08
 92.58377   -171.6 1.151e+04 1.743e-08
 92.60336   -172.5 1.137e+04 1.599e-08
 92.62296   -173.2 1.125e+04 1.490e-08
 92.64256   -173.6 1.116e+04 1.418e-08
 92.66215   -174.0 1.114e+04 1.389e-08
 92.68175   -174.3 1.115e+04 1.383e-08
 92.70135   -175.3 1.133e+04 1.450e-08
 92.72094   -176.8 1.233e+04 2.031e-08
 92.74054   -178.4 1.435e+04 3.914e-08
 92.76014   -179.6 1.619e+04 8.144e-08
 92.77973   -180.5 1.754e+04 1.472e-07
 92.79366   -181.6 1.807e+04 1.798e-07
 92.79851   -182.0 1.796e+04 1.624e-07
 92.80413   -182.7 1.823e+04 1.826e-07
 92.81393   -183.7 1.852e+04 2.014e-07
 92.82373   -185.2 1.879e+04 2.246e-07
 92.83352   -186.9 1.889e+04 2.398e-07
 92.84332   -188.2 1.890e+04 2.434e-07
 92.85312   -189.4 1.888e+04 2.437e-07
 92.86292   -190.4 1.879e+04 2.386e-07
 92.87272   -191.2 1.875e+04 2.338e-07
 92.88251   -192.1 1.876e+04 2.324e-07
 92.89231   -193.1 1.877e+04 2.323e-07
 92.90211   -194.3 1.889e+04 2.567e-07
 92.91191   -195.4 1.880e+04 3.789e-07
 92.92081   -196.4 1.867e+04 6.045e-07
 92.92571   -196.8 1.874e+04 5.020e-07
 92.93150   -198.0 1.875e+04 6.785e-07
 92.94130   -199.7 1.872e+04 7.842e-07
 92.95110   -201.6 1.870e+04 8.028e-07
 92.95913   -203.3 1.846e+04 7.512e-07
 92.96403   -205.2 1.818e+04 1.163e-06
 92.97070   -206.4 1.776e+04 9.759e-07
 92.98050   -206.7 1.749e+04 7.095e-07
 92.99029   -206.9 1.734e+04 4.939e-07
 93.00009   -207.0 1.729e+04 3.395e-07
 93.00989   -207.3 1.732e+04 2.342e-07
 93.01969   -207.7 1.734e+04 1.651e-07
 93.02949   -208.4 1.739e+04 1.219e-07
 93.03928   -209.1 1.738e+04 9.521e-08
 93.04801   -209.7 1.716e+04 7.749e-08
 93.05291   -209.7 1.717e+04 7.145e-08
 93.05888   -210.3 1.658e+04 5.945e-08
 93.06868   -210.9 1.583e+04 5.031e-08
 93.07848   -211.3 1.514e+04 4.343e-08
 93.08828   -211.7 1.467e+04 3.819e-08
 93.09807   -211.9 1.448e+04 3.444e-08
 93.11282   -212.4 1.432e+04 3.068e-08
 93.13246   -213.6 1.372e+04 2.403e-08
 93.15206   -214.5 1.313e+04 1.817e-08
 93.17166   -215.0 1.279e+04 1.532e-08
 93.19125   -215.4 1.268e+04 1.454e-08
 93.21085   -215.6 1.266e+04 1.445e-08
 93.23045   -215.7 1.256e+04 1.541e-08
 93.25004   -215.7 1.246e+04 1.743e-08
 93.26964   -215.3 1.238e+04 1.909e-08
 93.28923   -214.6 1.233e+04 1.972e-08
 93.30250   -213.9 1.222e+04 1.825e-08
 93.31230   -213.1 1.190e+04 1.552e-08
 93.32843   -212.3 1.178e+04 1.459e-08
 93.34802   -211.7 1.190e+04 1.171e-08
 93.36762   -211.4 1.195e+04 9.033e-09
 93.38722   -211.3 1.194e+04 7.299e-09
 93.40681   -211.3 1.167e+04 6.390e-09
 93.42641   -211.3 1.132e+04 6.040e-09
 93.44601   -211.3 1.095e+04 5.932e-09
 93.46560   -210.9 1.061e+04 5.811e-09
 93.48520   -210.2 1.030e+04 5.532e-09
 93.50479   -209.4 1.009e+04 4.868e-09
 93.52439   -208.5 9.966e+03 3.836e-09
 93.54399   -208.1 9.958e+03 2.751e-09
 93.55700   -207.9 9.932e+03 1.972e-09
 93.56679   -206.6 1.005e+04 2.911e-09
 93.58318   -206.2 1.004e+04 2.268e-09
 93.61267   -205.6 9.985e+03 2.000e-09
 93.65196   -204.1 9.718e+03 1.515e-09
 93.69115   -202.2 9.351e+03 1.370e-09
 93.73035   -200.3 9.204e+03 1.342e-09
 93.76954   -198.5 9.197e+03 1.344e-09
 93.80873   -196.7 9.200e+03 1.362e-09
 93.84792   -194.9 9.207e+03 1.376e-09
 93.88712   -193.0 9.200e+03 1.364e-09
 93.92631   -190.9 9.144e+03 1.344e-09
 93.96550   -188.7 9.089e+03 1.343e-09
 94.00469   -186.5 9.087e+03 1.419e-09
 94.04389   -184.2 9.159e+03 1.589e-09
 94.06588   -182.0 9.356e+03 1.918e-09
 94.08548   -182.1 9.162e+03 1.254e-09
 94.12227   -180.0 9.337e+03 1.529e-09
 94.16147   -177.9 9.561e+03 1.920e-09
 94.20066   -175.8 9.773e+03 2.368e-09
 94.23985   -173.7 9.940e+03 2.764e-09
 94.27904   -171.8 1.008e+04 3.065e-09
 94.31824   -169.9 1.019e+04 3.339e-09
 94.35743   -168.1 1.033e+04 3.684e-09
 94.39662   -166.4 1.043e+04 4.150e-09
 94.41926   -165.0 1.067e+04 4.693e-09
 94.43886   -165.4 1.082e+04 5.082e-09
 94.47501   -164.7 1.116e+04 6.348e-09
 94.51420   -164.5 1.149e+04 8.130e-09
 94.55339   -164.7 1.181e+04 1.062e-08
 94.57468   -165.7 1.206e+04 1.380e-08
 94.58438   -165.1 1.187e+04 1.156e-08
 94.60219   -165.5 1.194e+04 1.288e-08
 94.62178   -165.7 1.196e+04 1.386e-08
 94.64138   -165.9 1.202e+04 1.572e-08
 94.66098   -165.9 1.206e+04 1.742e-08
 94.68057   -166.0 1.208e+04 1.914e-08
 94.70017   -166.0 1.208e+04 2.025e-08
 94.71976   -165.9 1.207e+04 2.072e-08
 94.73936   -166.1 1.196e+04 2.043e-08
 94.75896   -166.3 1.172e+04 1.901e-08
 94.77855   -166.5 1.139e+04 1.717e-08
 94.79815   -166.6 1.107e+04 1.556e-08
 94.81775   -166.7 1.081e+04 1.421e-08
 94.82888   -166.9 1.047e+04 1.276e-08
 94.83868   -166.8 1.056e+04 1.327e-08
 94.86683   -167.3 1.018e+04 1.150e-08
 94.90612   -166.9 9.729e+03 9.549e-09
 94.94532   -166.5 9.280e+03 7.723e-09
 94.98451   -165.9 9.006e+03 6.429e-09
 95.02370   -165.0 8.878e+03 5.736e-09
 95.06289   -164.1 8.856e+03 5.356e-09
 95.08347   -163.1 8.891e+03 5.141e-09
 95.10306   -162.8 8.870e+03 5.410e-09
 95.14128   -161.6 8.936e+03 5.469e-09
 95.18047   -160.1 8.911e+03 5.000e-09
 95.21966   -158.3 8.751e+03 4.070e-09
 95.25886   -156.3 8.576e+03 3.177e-09
 95.29805   -154.1 8.532e+03 2.667e-09
 95.33724   -151.7 8.575e+03 2.494e-09
 95.37644   -149.1 8.617e+03 2.445e-09
 95.41563   -146.5 8.746e+03 2.402e-09
 95.45482   -143.8 8.901e+03 2.354e-09
 95.49401   -141.0 9.009e+03 2.272e-09
 95.53321   -138.2 9.067e+03 2.121e-09
 95.57240   -135.2 9.059e+03 1.932e-09
 95.59226   -132.1 8.995e+03 1.748e-09
 95.61186   -132.6 8.970e+03 1.903e-09
 95.65078   -129.5 8.906e+03 1.786e-09
 95.68998   -126.4 8.887e+03 1.739e-09
 95.72917   -123.3 8.911e+03 1.755e-09
 95.76836   -120.4 8.986e+03 1.854e-09
 95.80755   -117.7 9.090e+03 2.024e-09
 95.84675   -115.2 9.221e+03 2.282e-09
 95.87421   -112.8 9.386e+03 2.665e-09
 95.89380   -115.2 9.380e+03 2.628e-09
 95.92513   -113.4 9.575e+03 3.220e-09
 95.96432   -112.2 9.824e+03 4.220e-09
 96.00352   -112.1 1.026e+04 6.207e-09
 96.03281   -112.4 1.071e+04 8.673e-09
 96.05231   -113.0 1.108e+04 1.067e-08
 96.07191   -114.1 1.165e+04 1.449e-08
 96.09106   -116.1 1.228e+04 2.065e-08
 96.10086   -116.6 1.195e+04 1.783e-08
 96.11110   -118.3 1.235e+04 2.241e-08
 96.13070   -119.9 1.252e+04 2.421e-08
 96.15029   -121.4 1.254e+04 2.451e-08
 96.16989   -122.5 1.243e+04 2.370e-08
 96.18949   -123.4 1.223e+04 2.068e-08
 96.20908   -124.1 1.199e+04 1.703e-08
 96.22868   -124.6 1.174e+04 1.352e-08
 96.24827   -125.0 1.147e+04 1.042e-08
 96.26787   -125.3 1.122e+04 7.891e-09
 96.28747   -125.4 1.100e+04 5.981e-09
 96.30706   -125.4 1.080e+04 4.607e-09
 96.32666   -125.2 1.062e+04 3.613e-09
 96.34545   -124.5 1.052e+04 2.954e-09
 96.35525   -124.6 1.054e+04 3.372e-09
 96.36585   -123.9 1.054e+04 2.854e-09
 96.39534   -123.3 1.055e+04 2.493e-09
 96.43463   -121.8 1.051e+04 2.139e-09
 96.47383   -120.1 1.049e+04 1.852e-09
 96.51302   -118.3 1.048e+04 1.670e-09
 96.55221   -116.5 1.054e+04 1.596e-09
 96.59025   -114.8 1.056e+04 1.597e-09
 96.60984   -115.5 1.051e+04 1.518e-09
 96.63060   -114.0 1.073e+04 1.676e-09
 96.66979   -112.7 1.095e+04 2.148e-09
 96.70898   -111.4 1.118e+04 2.792e-09
 96.74818   -110.3 1.144e+04 3.551e-09
 96.77747   -109.2 1.150e+04 3.774e-09
 96.79697   -108.8 1.162e+04 4.223e-09
 96.81657   -108.1 1.178e+04 4.507e-09
 96.83616   -107.6 1.186e+04 4.594e-09
 96.85425   -107.0 1.195e+04 4.576e-09
 96.86404   -107.4 1.193e+04 4.363e-09
 96.87536   -106.8 1.199e+04 4.031e-09
 96.89495   -106.3 1.206e+04 3.696e-09
 96.91455   -105.7 1.214e+04 3.477e-09
 96.94404   -105.1 1.223e+04 3.395e-09
 96.98333   -104.2 1.242e+04 3.628e-09
 97.01263   -103.6 1.254e+04 3.897e-09
 97.03213   -103.1 1.258e+04 4.003e-09
 97.05172   -102.4 1.264e+04 4.006e-09
 97.07132   -101.8 1.272e+04 3.917e-09
 97.09894   -101.0 1.289e+04 3.709e-09
 97.11854   -101.3 1.291e+04 3.706e-09
 97.14000   -100.6 1.301e+04 3.313e-09
 97.17929    -99.2 1.308e+04 2.564e-09
 97.21849    -97.6 1.321e+04 1.984e-09
 97.25768    -96.0 1.337e+04 1.739e-09
 97.29687    -94.4 1.342e+04 1.714e-09
 97.32915    -93.0 1.366e+04 1.786e-09
 97.34875    -93.0 1.370e+04 1.737e-09
 97.37526    -91.7 1.382e+04 2.030e-09
 97.41445    -90.5 1.397e+04 2.303e-09
 97.45364    -89.3 1.416e+04 2.412e-09
 97.49283    -88.0 1.438e+04 2.341e-09
 97.53203    -86.7 1.471e+04 2.004e-09
 97.57122    -85.2 1.497e+04 1.742e-09
 97.60783    -83.7 1.510e+04 1.687e-09
 97.62743    -84.9 1.517e+04 1.608e-09
 97.64960    -84.3 1.551e+04 1.728e-09
 97.67890    -83.9 1.565e+04 2.399e-09
 97.69840    -84.6 1.545e+04 3.705e-09
 97.71800    -84.9 1.516e+04 6.694e-09
 97.73759    -85.2 1.503e+04 1.103e-08
 97.75719    -85.4 1.504e+04 1.608e-08
 97.77679    -85.7 1.511e+04 1.998e-08
 97.79638    -86.1 1.516e+04 2.138e-08
 97.81598    -86.5 1.526e+04 2.037e-08
 97.83557    -86.7 1.529e+04 1.681e-08
 97.85517    -86.8 1.524e+04 1.316e-08
 97.87183    -86.7 1.515e+04 1.020e-08
 97.88163    -86.9 1.510e+04 8.191e-09
 97.89436    -86.7 1.509e+04 5.911e-09
 97.91396    -86.5 1.513e+04 4.170e-09
 97.93356    -86.4 1.519e+04 3.143e-09
 97.95315    -86.2 1.520e+04 2.749e-09
 97.97275    -85.5 1.522e+04 2.607e-09
 97.99234    -84.9 1.526e+04 2.558e-09
 98.01194    -84.5 1.530e+04 2.559e-09
 98.03154    -84.5 1.545e+04 2.788e-09
 98.05113    -84.7 1.574e+04 3.456e-09
 98.06622    -84.5 1.571e+04 5.923e-09
 98.07602    -85.7 1.558e+04 1.435e-08
 98.09033    -85.1 1.561e+04 2.283e-08
 98.10992    -84.7 1.573e+04 3.236e-08
 98.12622    -84.2 1.585e+04 4.183e-08
 98.13602    -84.2 1.569e+04 3.007e-08
 98.14911    -83.8 1.577e+04 3.633e-08
 98.16871    -83.3 1.581e+04 3.975e-08
 98.18831    -82.8 1.578e+04 4.021e-08
 98.20790    -82.2 1.569e+04 3.917e-08
 98.22750    -81.5 1.565e+04 3.851e-08
 98.24710    -80.9 1.566e+04 3.846e-08
 98.26669    -80.4 1.573e+04 4.013e-08
 98.28629    -80.1 1.580e+04 4.501e-08
 98.30589    -80.0 1.588e+04 5.260e-08
 98.32548    -79.9 1.598e+04 6.246e-08
 98.34508    -80.2 1.615e+04 7.471e-08
 98.36467    -80.7 1.630e+04 8.769e-08
 98.38062    -81.4 1.637e+04 9.815e-08
 98.39042    -81.1 1.612e+04 7.363e-08
 98.40387    -81.8 1.614e+04 7.628e-08
 98.42346    -82.4 1.607e+04 7.439e-08
 98.44306    -82.7 1.591e+04 6.389e-08
 98.46266    -82.7 1.571e+04 4.793e-08
 98.48225    -82.7 1.555e+04 3.163e-08
 98.50185    -82.7 1.533e+04 2.024e-08
 98.52144    -82.5 1.514e+04 1.359e-08
 98.54104    -82.0 1.500e+04 9.893e-09
 98.56064    -81.4 1.486e+04 7.757e-09
 98.58023    -80.8 1.470e+04 6.428e-09
 98.59983    -80.2 1.457e+04 5.601e-09
 98.61943    -79.7 1.446e+04 5.165e-09
 98.63502    -79.3 1.439e+04 4.953e-09
 98.64481    -79.3 1.451e+04 5.041e-09
 98.65862    -78.4 1.453e+04 4.638e-09
 98.67821    -78.2 1.450e+04 4.528e-09
 98.70771    -77.5 1.451e+04 4.348e-09
 98.74700    -76.4 1.466e+04 4.272e-09
 98.78409    -75.6 1.469e+04 4.317e-09
 98.80369    -75.3 1.475e+04 4.364e-09
 98.82538    -74.5 1.461e+04 4.304e-09
 98.86457    -73.7 1.446e+04 4.300e-09
 98.90377    -73.1 1.424e+04 4.699e-09
 98.94296    -72.8 1.407e+04 5.459e-09
 98.98215    -72.5 1.396e+04 5.879e-09
 99.02135    -72.1 1.382e+04 5.765e-09
 99.06054    -71.6 1.371e+04 4.817e-09
 99.09973    -71.3 1.370e+04 3.266e-09
 99.13420    -70.9 1.371e+04 1.947e-09
 99.15380    -71.3 1.373e+04 1.507e-09
 99.17812    -70.7 1.373e+04 9.602e-10
 99.21731    -69.8 1.353e+04 8.190e-10
 99.25650    -68.6 1.346e+04 8.059e-10
 99.29569    -67.2 1.338e+04 8.184e-10
 99.33489    -65.9 1.327e+04 8.715e-10
 99.37408    -64.5 1.311e+04 9.568e-10
 99.41327    -63.2 1.298e+04 1.085e-09
 99.45246    -61.8 1.290e+04 1.212e-09
 99.49166    -60.4 1.284e+04 1.300e-09
 99.53085    -59.1 1.278e+04 1.334e-09
 99.57004    -57.8 1.277e+04 1.322e-09
 99.60923    -56.7 1.273e+04 1.299e-09
 99.64300    -55.5 1.267e+04 1.265e-09
 99.66259    -55.5 1.274e+04 1.039e-09
 99.68762    -54.2 1.269e+04 9.876e-10
 99.72681    -52.7 1.264e+04 9.621e-10
 99.76600    -51.1 1.258e+04 9.612e-10
 99.80520    -49.5 1.253e+04 1.013e-09
 99.84439    -48.0 1.252e+04 1.103e-09
 99.88358    -46.8 1.248e+04 1.309e-09
 99.92277    -45.7 1.252e+04 1.740e-09
 99.96197    -44.8 1.272e+04 2.502e-09
100.00116    -43.8 1.305e+04 3.521e-09
