# Columns:
#   distance along LOS (in CHIMPs)
#   peculiar velocity  (in km/s)
#   temperature (K)
#   HI number density
# pos=(139.448,158.501,235.818), angles=(1.67776,4.70526)
  0.00020     30.6 1.272e+04 2.661e-08
  0.01022     30.4 1.223e+04 1.969e-08
  0.02986     30.1 1.163e+04 1.446e-08
  0.04951     30.1 1.106e+04 1.061e-08
  0.06915     30.0 1.067e+04 7.829e-09
  0.08879     29.7 1.048e+04 6.073e-09
  0.09941     29.4 1.033e+04 5.024e-09
  0.10923     29.6 1.021e+04 4.594e-09
  0.12808     29.4 9.785e+03 3.923e-09
  0.14773     29.3 9.699e+03 3.846e-09
  0.16737     29.3 9.605e+03 3.806e-09
  0.18701     29.3 9.623e+03 3.909e-09
  0.20666     29.5 9.533e+03 3.943e-09
  0.22630     29.7 9.519e+03 4.039e-09
  0.25587     29.8 9.415e+03 3.842e-09
  0.29525     30.6 9.165e+03 3.269e-09
  0.33454     31.3 9.199e+03 3.250e-09
  0.37383     31.4 9.472e+03 3.799e-09
  0.41312     31.4 1.014e+04 6.242e-09
  0.44952     31.5 1.111e+04 1.132e-08
  0.46916     32.7 1.054e+04 8.578e-09
  0.48177     32.3 1.128e+04 1.305e-08
  0.50132     32.1 1.191e+04 1.825e-08
  0.52096     31.9 1.251e+04 2.619e-08
  0.54061     32.2 1.298e+04 3.506e-08
  0.56025     32.6 1.293e+04 3.492e-08
  0.57990     33.1 1.260e+04 3.003e-08
  0.59954     32.9 1.197e+04 2.067e-08
  0.61918     32.3 1.127e+04 1.489e-08
  0.63883     32.0 1.065e+04 1.139e-08
  0.64884     32.0 1.036e+04 1.017e-08
  0.65866     32.7 1.088e+04 1.244e-08
  0.67812     32.9 1.051e+04 1.053e-08
  0.69776     33.1 1.027e+04 9.508e-09
  0.71740     34.0 1.007e+04 8.546e-09
  0.73705     35.0 9.950e+03 7.713e-09
  0.75669     35.9 9.899e+03 7.030e-09
  0.77634     36.8 9.839e+03 6.305e-09
  0.79598     37.6 9.737e+03 5.527e-09
  0.81562     38.5 9.729e+03 4.960e-09
  0.82871     39.3 9.783e+03 4.726e-09
  0.83853     40.0 1.013e+04 5.759e-09
  0.85491     40.7 1.009e+04 5.472e-09
  0.87456     41.4 1.009e+04 5.521e-09
  0.89420     42.0 1.014e+04 5.760e-09
  0.91384     42.6 1.020e+04 6.349e-09
  0.93349     43.3 1.034e+04 7.235e-09
  0.95313     44.2 1.054e+04 8.651e-09
  0.97278     45.5 1.072e+04 9.950e-09
  0.99242     46.3 1.167e+04 1.406e-08
  1.00858     46.0 1.403e+04 2.454e-08
  1.01840     47.3 1.320e+04 2.154e-08
  1.02675     44.9 1.617e+04 3.752e-08
  1.03652     42.7 1.787e+04 6.830e-08
  1.04634     41.7 1.805e+04 1.215e-07
  1.05616     41.9 1.753e+04 2.168e-07
  1.06599     41.8 1.766e+04 3.335e-07
  1.07581     40.5 1.874e+04 4.895e-07
  1.08563     33.9 2.016e+04 1.140e-06
  1.09545     23.9 1.965e+04 2.021e-06
  1.10333     16.5 1.932e+04 1.518e-06
  1.10824     17.8 1.793e+04 4.389e-06
  1.11510     13.4 1.790e+04 2.567e-06
  1.12492     12.3 1.786e+04 1.505e-06
  1.13474     12.8 1.795e+04 9.266e-07
  1.14456     12.8 1.827e+04 6.190e-07
  1.15439     12.4 1.852e+04 4.059e-07
  1.16421     11.9 1.840e+04 2.748e-07
  1.17403     11.3 1.810e+04 1.867e-07
  1.18840     10.6 1.713e+04 1.255e-07
  1.19827      9.1 1.686e+04 1.214e-07
  1.20850      9.9 1.573e+04 7.862e-08
  1.22815     11.2 1.485e+04 4.844e-08
  1.24779     12.0 1.402e+04 2.822e-08
  1.26744     12.0 1.290e+04 1.734e-08
  1.28708     12.1 1.187e+04 1.152e-08
  1.30672     12.7 1.140e+04 9.072e-09
  1.32637     13.7 1.110e+04 8.251e-09
  1.34601     15.0 1.063e+04 7.389e-09
  1.36566     16.1 1.039e+04 6.751e-09
  1.37814     16.7 1.019e+04 6.453e-09
  1.38796     17.2 1.028e+04 6.503e-09
  1.40494     17.8 1.017e+04 6.536e-09
  1.42459     18.7 1.005e+04 6.891e-09
  1.44423     19.6 1.003e+04 7.358e-09
  1.46388     20.2 1.016e+04 8.093e-09
  1.48352     20.9 1.031e+04 9.064e-09
  1.50316     21.2 1.066e+04 1.081e-08
  1.52281     21.7 1.088e+04 1.233e-08
  1.54245     21.9 1.118e+04 1.392e-08
  1.55801     22.2 1.140e+04 1.503e-08
  1.56783     22.5 1.161e+04 1.763e-08
  1.58174     22.6 1.166e+04 1.804e-08
  1.60132     23.1 1.167e+04 1.771e-08
  1.62097     22.4 1.172e+04 1.387e-08
  1.64067     22.4 1.163e+04 1.353e-08
  1.67024     22.6 1.171e+04 1.393e-08
  1.70962     22.4 1.137e+04 1.191e-08
  1.74891     21.7 1.130e+04 1.238e-08
  1.77828     22.3 1.116e+04 1.303e-08
  1.79782     22.0 1.137e+04 1.502e-08
  1.81747     21.3 1.205e+04 1.926e-08
  1.83711     19.9 1.310e+04 2.759e-08
  1.85180     18.3 1.466e+04 4.276e-08
  1.86157     17.5 1.551e+04 5.111e-08
  1.87139     15.7 1.665e+04 6.699e-08
  1.88121     15.0 1.698e+04 7.684e-08
  1.89104     13.8 1.687e+04 8.410e-08
  1.90086     13.0 1.655e+04 8.159e-08
  1.91564     11.0 1.547e+04 6.242e-08
  1.92757      9.5 1.438e+04 5.790e-08
  1.93740     10.5 1.479e+04 6.197e-08
  1.95498      9.7 1.369e+04 4.602e-08
  1.97462      9.1 1.328e+04 3.351e-08
  1.99426      7.5 1.313e+04 2.755e-08
  2.01391      5.6 1.294e+04 3.064e-08
  2.03355      4.3 1.329e+04 3.814e-08
  2.05320      3.8 1.396e+04 5.161e-08
  2.07284      4.3 1.440e+04 6.582e-08
  2.09248      5.9 1.442e+04 7.335e-08
  2.10744      7.7 1.436e+04 5.893e-08
  2.11727      8.2 1.413e+04 5.560e-08
  2.13177      8.4 1.338e+04 3.597e-08
  2.15142      8.3 1.200e+04 2.259e-08
  2.17106      8.5 1.084e+04 1.241e-08
  2.19070      9.0 9.936e+03 9.060e-09
  2.22027     10.1 9.358e+03 5.227e-09
  2.25965     11.5 8.817e+03 3.696e-09
  2.28751     13.8 8.609e+03 3.434e-09
  2.30715     13.7 8.135e+03 2.285e-09
  2.33823     16.3 8.094e+03 2.180e-09
  2.37752     18.6 8.144e+03 2.250e-09
  2.41681     21.0 8.223e+03 2.290e-09
  2.45609     23.5 8.234e+03 2.196e-09
  2.49538     26.0 8.242e+03 1.899e-09
  2.53467     28.4 8.251e+03 1.562e-09
  2.57396     30.6 8.270e+03 1.416e-09
  2.61325     32.8 8.296e+03 1.468e-09
  2.64725     35.1 8.371e+03 1.647e-09
  2.66689     34.8 8.327e+03 1.694e-09
  2.69182     37.2 8.438e+03 1.910e-09
  2.73111     39.6 8.596e+03 1.956e-09
  2.77040     41.7 8.671e+03 1.895e-09
  2.80969     43.8 8.772e+03 1.799e-09
  2.84897     45.8 8.851e+03 1.762e-09
  2.88826     47.8 8.911e+03 1.774e-09
  2.92755     49.8 8.984e+03 1.786e-09
  2.96684     51.7 9.061e+03 1.753e-09
  3.00613     53.7 9.180e+03 1.692e-09
  3.02663     55.5 9.228e+03 1.711e-09
  3.04628     55.7 9.033e+03 1.550e-09
  3.08470     57.6 9.112e+03 1.588e-09
  3.12399     59.3 9.323e+03 1.837e-09
  3.16328     60.8 9.707e+03 2.814e-09
  3.20257     62.5 1.014e+04 4.711e-09
  3.24185     64.1 1.057e+04 7.046e-09
  3.28114     65.6 1.098e+04 8.242e-09
  3.32043     66.7 1.110e+04 8.204e-09
  3.35972     67.8 1.113e+04 7.834e-09
  3.38637     69.0 1.111e+04 6.945e-09
  3.40602     69.6 1.101e+04 6.373e-09
  3.43830     70.9 1.102e+04 5.584e-09
  3.47758     72.5 1.106e+04 5.229e-09
  3.50695     73.4 1.111e+04 5.225e-09
  3.52650     74.2 1.118e+04 5.276e-09
  3.54614     75.0 1.123e+04 5.481e-09
  3.56579     75.9 1.130e+04 5.812e-09
  3.57587     76.7 1.141e+04 6.335e-09
  3.58569     76.9 1.139e+04 6.259e-09
  3.60507     77.8 1.148e+04 6.972e-09
  3.63464     78.7 1.165e+04 7.933e-09
  3.67402     80.0 1.179e+04 8.871e-09
  3.71331     80.7 1.174e+04 8.793e-09
  3.74611     81.3 1.153e+04 7.810e-09
  3.76576     81.8 1.160e+04 7.306e-09
  3.79189     82.3 1.133e+04 5.598e-09
  3.83118     82.7 1.109e+04 4.042e-09
  3.87046     83.3 1.111e+04 3.934e-09
  3.90975     84.1 1.116e+04 4.192e-09
  3.94904     85.4 1.148e+04 5.449e-09
  3.97841     86.0 1.167e+04 6.335e-09
  3.99795     86.6 1.184e+04 7.093e-09
  4.01760     87.0 1.204e+04 7.843e-09
  4.03724     87.3 1.226e+04 8.550e-09
  4.05689     87.5 1.248e+04 9.132e-09
  4.07653     87.7 1.269e+04 9.535e-09
  4.09617     87.8 1.287e+04 9.712e-09
  4.11548     88.1 1.308e+04 9.645e-09
  4.12530     88.8 1.302e+04 9.659e-09
  4.13546     89.0 1.313e+04 9.724e-09
  4.15511     89.2 1.321e+04 9.760e-09
  4.17475     89.4 1.321e+04 9.665e-09
  4.19439     89.6 1.316e+04 9.625e-09
  4.21404     89.8 1.311e+04 9.681e-09
  4.23368     90.0 1.306e+04 9.910e-09
  4.25333     90.2 1.303e+04 1.054e-08
  4.27297     90.4 1.307e+04 1.176e-08
  4.29261     90.6 1.315e+04 1.370e-08
  4.30517     90.8 1.327e+04 1.624e-08
  4.31499     91.5 1.346e+04 1.697e-08
  4.33190     91.6 1.364e+04 1.891e-08
  4.35155     91.7 1.371e+04 1.986e-08
  4.36459     91.6 1.365e+04 1.972e-08
  4.37441     91.8 1.388e+04 2.463e-08
  4.39083     91.8 1.361e+04 2.305e-08
  4.41048     92.0 1.324e+04 1.915e-08
  4.43012     92.3 1.286e+04 1.515e-08
  4.44977     92.5 1.260e+04 1.208e-08
  4.46941     92.5 1.245e+04 1.023e-08
  4.48504     92.5 1.230e+04 9.119e-09
  4.49486     93.0 1.261e+04 1.163e-08
  4.50870     93.0 1.249e+04 1.067e-08
  4.53826     93.3 1.243e+04 1.087e-08
  4.57765     92.7 1.203e+04 8.666e-09
  4.61694     91.7 1.162e+04 6.066e-09
  4.65622     90.7 1.125e+04 3.855e-09
  4.69551     89.8 1.094e+04 2.502e-09
  4.73480     89.4 1.070e+04 1.814e-09
  4.77409     89.3 1.058e+04 1.512e-09
  4.81338     89.3 1.055e+04 1.393e-09
  4.84498     89.4 1.051e+04 1.324e-09
  4.86462     89.8 1.039e+04 1.147e-09
  4.89195     89.9 1.028e+04 1.062e-09
  4.93124     90.0 1.018e+04 9.662e-10
  4.97053     90.1 1.013e+04 8.734e-10
  5.00982     90.3 1.013e+04 7.877e-10
  5.04910     90.6 1.013e+04 7.066e-10
  5.08839     90.9 1.007e+04 6.509e-10
  5.12768     91.5 9.994e+03 6.472e-10
  5.16697     92.2 1.000e+04 6.749e-10
  5.20472     93.2 9.996e+03 7.870e-10
  5.22436     93.7 9.855e+03 7.829e-10
  5.24554     94.9 9.923e+03 9.758e-10
  5.28483     96.2 1.003e+04 1.149e-09
  5.32412     97.6 1.012e+04 1.213e-09
  5.36341     99.0 1.013e+04 1.188e-09
  5.40270    100.4 1.015e+04 1.131e-09
  5.44198    102.0 1.017e+04 1.114e-09
  5.48127    103.6 1.019e+04 1.131e-09
  5.52056    105.2 1.026e+04 1.228e-09
  5.55985    106.7 1.034e+04 1.508e-09
  5.58410    108.1 1.048e+04 2.065e-09
  5.60374    108.8 1.049e+04 2.591e-09
  5.63842    110.0 1.073e+04 3.444e-09
  5.67771    110.6 1.103e+04 4.220e-09
  5.71700    110.7 1.127e+04 4.336e-09
  5.75629    110.6 1.130e+04 4.150e-09
  5.79558    110.5 1.135e+04 3.398e-09
  5.83487    110.4 1.138e+04 2.337e-09
  5.87415    110.4 1.138e+04 1.557e-09
  5.91344    110.7 1.118e+04 1.342e-09
  5.94384    111.6 1.115e+04 1.364e-09
  5.96348    111.9 1.112e+04 1.062e-09
  5.99202    113.4 1.112e+04 1.253e-09
  6.03131    114.9 1.118e+04 1.540e-09
  6.07059    116.5 1.129e+04 1.755e-09
  6.10988    118.1 1.141e+04 1.857e-09
  6.14917    119.7 1.153e+04 1.895e-09
  6.18846    121.4 1.165e+04 1.927e-09
  6.22775    123.1 1.176e+04 2.060e-09
  6.26703    125.0 1.184e+04 2.339e-09
  6.30358    126.3 1.184e+04 2.666e-09
  6.32322    127.8 1.171e+04 2.205e-09
  6.33569    128.6 1.172e+04 2.426e-09
  6.35524    129.2 1.169e+04 2.655e-09
  6.37488    130.1 1.167e+04 3.155e-09
  6.39452    131.1 1.174e+04 3.971e-09
  6.41417    132.0 1.190e+04 5.142e-09
  6.43381    132.7 1.211e+04 6.660e-09
  6.45346    133.4 1.232e+04 8.527e-09
  6.47310    134.0 1.256e+04 1.066e-08
  6.49274    134.5 1.273e+04 1.263e-08
  6.50290    134.8 1.283e+04 1.384e-08
  6.51272    135.6 1.287e+04 1.447e-08
  6.53203    135.9 1.295e+04 1.580e-08
  6.55168    136.0 1.298e+04 1.658e-08
  6.57132    136.1 1.303e+04 1.743e-08
  6.59096    136.1 1.313e+04 1.873e-08
  6.61061    136.1 1.320e+04 2.016e-08
  6.63025    136.1 1.317e+04 2.033e-08
  6.64990    136.3 1.301e+04 1.961e-08
  6.66954    136.3 1.306e+04 1.777e-08
  6.68277    135.9 1.329e+04 1.783e-08
  6.69259    137.2 1.305e+04 1.913e-08
  6.70883    136.7 1.339e+04 2.036e-08
  6.72847    134.7 1.492e+04 2.800e-08
  6.74812    133.1 1.633e+04 4.305e-08
  6.76280    130.6 1.739e+04 6.311e-08
  6.77257    128.7 1.792e+04 9.102e-08
  6.78240    129.0 1.866e+04 1.229e-07
  6.79222    127.5 1.906e+04 1.635e-07
  6.80204    126.0 1.921e+04 1.593e-07
  6.81186    124.2 1.927e+04 1.385e-07
  6.82168    122.2 1.880e+04 9.791e-08
  6.83151    120.2 1.751e+04 6.675e-08
  6.84629    118.7 1.708e+04 4.772e-08
  6.86264    116.1 1.512e+04 1.741e-08
  6.87246    119.4 1.751e+04 4.496e-08
  6.88562    115.6 1.476e+04 1.004e-08
  6.90527    111.7 1.115e+04 4.526e-09
  6.92491    111.4 1.057e+04 3.746e-09
  6.94456    111.8 1.038e+04 3.484e-09
  6.96420    113.0 1.034e+04 3.208e-09
  6.98384    114.2 1.030e+04 2.913e-09
  7.00349    115.5 1.022e+04 2.607e-09
  7.02313    116.3 1.014e+04 2.435e-09
  7.04251    117.6 1.011e+04 2.440e-09
  7.05233    117.7 9.990e+03 2.146e-09
  7.06242    118.7 9.998e+03 2.168e-09
  7.08206    120.1 1.001e+04 2.277e-09
  7.10171    121.1 1.007e+04 2.453e-09
  7.11803    122.1 1.013e+04 2.768e-09
  7.12785    121.7 1.022e+04 3.633e-09
  7.14100    122.8 1.029e+04 4.204e-09
  7.16064    123.9 1.040e+04 4.894e-09
  7.18028    125.0 1.055e+04 5.602e-09
  7.19993    126.0 1.067e+04 6.267e-09
  7.21957    126.8 1.081e+04 6.855e-09
  7.23220    127.6 1.090e+04 7.273e-09
  7.24202    127.7 1.089e+04 7.436e-09
  7.25886    128.4 1.096e+04 7.780e-09
  7.27851    128.9 1.099e+04 7.942e-09
  7.29815    129.3 1.101e+04 8.017e-09
  7.31779    129.6 1.104e+04 8.063e-09
  7.33744    129.9 1.105e+04 8.044e-09
  7.35708    130.1 1.105e+04 7.913e-09
  7.37673    130.4 1.100e+04 7.515e-09
  7.39637    130.9 1.089e+04 6.801e-09
  7.41207    131.4 1.074e+04 5.850e-09
  7.42189    131.5 1.083e+04 6.753e-09
  7.43566    132.0 1.067e+04 5.708e-09
  7.45530    132.6 1.051e+04 4.605e-09
  7.47495    133.1 1.039e+04 3.591e-09
  7.49459    133.4 1.034e+04 2.826e-09
  7.51423    133.6 1.029e+04 2.342e-09
  7.53388    133.7 1.028e+04 2.168e-09
  7.55352    134.3 1.022e+04 2.152e-09
  7.57317    134.6 1.022e+04 2.156e-09
  7.59194    135.3 1.021e+04 2.209e-09
  7.60176    135.6 1.023e+04 2.336e-09
  7.61245    136.3 1.027e+04 2.505e-09
  7.63210    137.0 1.040e+04 2.891e-09
  7.65174    137.5 1.058e+04 3.497e-09
  7.67139    138.0 1.082e+04 4.371e-09
  7.69103    138.5 1.108e+04 5.544e-09
  7.71067    138.9 1.137e+04 7.006e-09
  7.73032    139.0 1.167e+04 8.719e-09
  7.74996    138.9 1.201e+04 1.086e-08
  7.76961    138.7 1.247e+04 1.399e-08
  7.78163    138.2 1.310e+04 1.971e-08
  7.79145    138.2 1.339e+04 2.183e-08
  7.80889    137.4 1.407e+04 3.022e-08
  7.82854    136.0 1.488e+04 4.539e-08
  7.84818    134.2 1.600e+04 6.926e-08
  7.86783    131.2 1.719e+04 1.090e-07
  7.88747    128.0 1.799e+04 1.434e-07
  7.90711    123.6 1.834e+04 1.490e-07
  7.92676    118.3 1.821e+04 1.259e-07
  7.94640    112.9 1.748e+04 7.635e-08
  7.96150    108.0 1.629e+04 3.952e-08
  7.97132    106.0 1.533e+04 2.430e-08
  7.98569    100.8 1.396e+04 1.748e-08
  8.00533     97.4 1.353e+04 1.480e-08
  8.02498     95.6 1.320e+04 1.203e-08
  8.04462     94.1 1.301e+04 8.879e-09
  8.06427     92.2 1.287e+04 6.568e-09
  8.08391     90.1 1.280e+04 6.334e-09
  8.10355     88.0 1.278e+04 6.770e-09
  8.12320     86.6 1.275e+04 8.521e-09
  8.14137     85.8 1.290e+04 1.112e-08
  8.15119     84.8 1.283e+04 1.135e-08
  8.16249     84.2 1.305e+04 1.405e-08
  8.18213     83.5 1.314e+04 1.544e-08
  8.20177     82.6 1.304e+04 1.512e-08
  8.22142     81.8 1.276e+04 1.375e-08
  8.24106     81.0 1.229e+04 1.156e-08
  8.26071     80.4 1.180e+04 8.945e-09
  8.28035     79.9 1.143e+04 7.130e-09
  8.30991     78.7 1.092e+04 4.752e-09
  8.34930     78.3 1.036e+04 3.536e-09
  8.38859     78.1 9.945e+03 2.859e-09
  8.42788     78.2 9.604e+03 2.386e-09
  8.46716     78.7 9.331e+03 2.098e-09
  8.50131     79.3 9.160e+03 1.902e-09
  8.52095     79.1 9.346e+03 2.066e-09
  8.54574     79.5 9.180e+03 1.849e-09
  8.58503     79.9 9.125e+03 1.748e-09
  8.62432     80.1 9.183e+03 1.827e-09
  8.66360     79.9 9.453e+03 2.200e-09
  8.69090     80.1 9.499e+03 2.331e-09
  8.70063     79.6 9.645e+03 2.512e-09
  8.71252     79.3 9.857e+03 3.089e-09
  8.73216     78.5 1.032e+04 4.643e-09
  8.75181     77.1 1.118e+04 8.369e-09
  8.77145     75.7 1.229e+04 1.595e-08
  8.79109     74.5 1.318e+04 2.325e-08
  8.81074     72.9 1.326e+04 2.287e-08
  8.83038     71.3 1.310e+04 1.822e-08
  8.85003     68.9 1.277e+04 1.037e-08
  8.86967     64.9 1.210e+04 5.909e-09
  8.88050     61.0 1.092e+04 5.210e-09
  8.89032     59.9 1.084e+04 5.111e-09
  8.90896     58.2 1.062e+04 5.681e-09
  8.92860     57.2 1.054e+04 6.660e-09
  8.94825     56.3 1.051e+04 6.873e-09
  8.96789     55.5 1.035e+04 6.622e-09
  8.98753     54.8 1.002e+04 5.723e-09
  9.00718     53.8 9.723e+03 4.285e-09
  9.02682     52.9 9.487e+03 3.373e-09
  9.04647     51.3 9.420e+03 2.676e-09
  9.06037     50.9 9.339e+03 2.540e-09
  9.07019     49.8 9.317e+03 2.673e-09
  9.09567     48.2 9.236e+03 2.773e-09
  9.13506     45.8 9.207e+03 3.242e-09
  9.17435     43.9 9.278e+03 4.214e-09
  9.21364     42.7 9.303e+03 4.615e-09
  9.24043     41.7 9.377e+03 4.450e-09
  9.26008     40.1 9.189e+03 4.140e-09
  9.29221     39.2 9.193e+03 3.877e-09
  9.32158     39.2 9.012e+03 3.407e-09
  9.34113     37.8 9.623e+03 3.779e-09
  9.36077     28.0 1.376e+04 1.201e-08
  9.38041     23.5 1.489e+04 5.999e-08
  9.39510     23.8 1.569e+04 1.023e-07
  9.40487     24.6 1.565e+04 1.189e-07
  9.41965     26.1 1.529e+04 8.151e-08
  9.42993     24.3 1.575e+04 2.921e-08
  9.43975     22.6 1.596e+04 1.880e-08
  9.45899     11.2 1.215e+04 4.864e-09
  9.47863      6.2 9.320e+03 3.928e-09
  9.49828      0.3 1.242e+04 5.821e-09
  9.51792     -9.2 1.466e+04 2.134e-08
  9.53757    -12.0 1.469e+04 6.285e-08
  9.55721    -10.7 1.569e+04 9.780e-08
  9.57685    -10.5 1.554e+04 6.292e-08
  9.59650    -17.7 1.294e+04 1.048e-08
  9.60980    -24.0 1.002e+04 4.259e-09
  9.61962    -22.2 1.041e+04 4.798e-09
  9.63579    -23.7 9.655e+03 3.660e-09
  9.65543    -24.0 9.550e+03 3.386e-09
  9.67508    -24.4 9.482e+03 3.251e-09
  9.69472    -24.8 9.462e+03 3.247e-09
  9.71436    -25.8 9.647e+03 3.847e-09
  9.73401    -28.6 1.044e+04 5.235e-09
  9.75365    -33.8 1.215e+04 8.989e-09
  9.77330    -38.0 1.368e+04 2.012e-08
  9.78967    -40.0 1.416e+04 3.100e-08
  9.79949    -38.8 1.467e+04 3.564e-08
  9.81258    -40.9 1.463e+04 3.853e-08
  9.83223    -43.3 1.370e+04 2.635e-08
  9.85187    -45.7 1.256e+04 1.751e-08
  9.87147    -47.0 1.190e+04 1.428e-08
  9.89111    -44.7 1.167e+04 1.254e-08
  9.91080    -45.3 1.121e+04 1.104e-08
  9.93045    -45.3 1.087e+04 9.757e-09
  9.95009    -45.2 1.057e+04 8.712e-09
  9.96954    -44.9 1.039e+04 8.013e-09
  9.97936    -44.8 1.051e+04 8.386e-09
  9.98938    -44.4 1.036e+04 7.789e-09
 10.00902    -43.8 1.025e+04 7.210e-09
 10.02867    -43.1 1.010e+04 6.656e-09
 10.04831    -42.4 9.970e+03 6.055e-09
 10.06796    -41.6 9.826e+03 5.360e-09
 10.08760    -40.8 9.659e+03 4.585e-09
 10.10724    -39.9 9.495e+03 3.855e-09
 10.12689    -39.0 9.393e+03 3.232e-09
 10.15645    -37.6 9.409e+03 2.758e-09
 10.19584    -36.1 9.410e+03 2.544e-09
 10.23512    -34.6 9.528e+03 2.526e-09
 10.27441    -33.5 9.859e+03 3.350e-09
 10.30378    -32.9 1.014e+04 4.782e-09
 10.32333    -32.2 1.043e+04 6.052e-09
 10.33910    -31.6 1.071e+04 7.210e-09
 10.34892    -31.1 1.073e+04 7.370e-09
 10.36262    -30.6 1.100e+04 8.408e-09
 10.38226    -30.2 1.115e+04 8.850e-09
 10.40190    -29.9 1.119e+04 8.914e-09
 10.42155    -29.5 1.118e+04 8.595e-09
 10.44119    -28.9 1.113e+04 8.006e-09
 10.46084    -28.4 1.107e+04 7.305e-09
 10.48048    -27.9 1.102e+04 6.702e-09
 10.50012    -27.6 1.096e+04 6.313e-09
 10.51897    -27.3 1.093e+04 6.147e-09
 10.52879    -26.6 1.101e+04 6.253e-09
 10.53941    -26.3 1.099e+04 6.138e-09
 10.55906    -26.1 1.101e+04 6.183e-09
 10.57870    -25.8 1.109e+04 6.672e-09
 10.59834    -25.5 1.117e+04 7.104e-09
 10.61799    -25.2 1.122e+04 7.232e-09
 10.63763    -24.8 1.128e+04 7.091e-09
 10.65728    -24.7 1.131e+04 6.754e-09
 10.67692    -24.6 1.128e+04 6.366e-09
 10.69656    -24.2 1.121e+04 5.984e-09
 10.70866    -23.8 1.108e+04 5.557e-09
 10.71848    -23.0 1.148e+04 7.609e-09
 10.73585    -22.6 1.130e+04 6.292e-09
 10.75550    -22.2 1.132e+04 5.736e-09
 10.77514    -22.6 1.184e+04 5.751e-09
 10.79478    -25.3 1.453e+04 9.609e-09
 10.81443    -27.4 1.601e+04 2.839e-08
 10.83407    -28.2 1.664e+04 6.457e-08
 10.85372    -28.8 1.693e+04 8.898e-08
 10.87336    -29.9 1.675e+04 8.280e-08
 10.88853    -31.2 1.602e+04 5.180e-08
 10.89835    -31.4 1.676e+04 7.776e-08
 10.91265    -32.9 1.587e+04 4.650e-08
 10.93229    -33.9 1.475e+04 2.835e-08
 10.95194    -34.1 1.382e+04 1.978e-08
 10.97158    -33.9 1.323e+04 1.491e-08
 10.99122    -33.2 1.285e+04 1.196e-08
 11.01087    -32.4 1.261e+04 1.010e-08
 11.03051    -31.6 1.243e+04 8.782e-09
 11.05016    -30.7 1.226e+04 7.770e-09
 11.06840    -29.8 1.214e+04 6.975e-09
 11.07822    -29.9 1.221e+04 7.644e-09
 11.08944    -29.0 1.214e+04 7.134e-09
 11.10909    -28.2 1.209e+04 6.765e-09
 11.12873    -27.5 1.206e+04 6.544e-09
 11.14838    -26.9 1.206e+04 6.487e-09
 11.16802    -26.4 1.204e+04 6.514e-09
 11.18766    -26.0 1.200e+04 6.672e-09
 11.20731    -25.5 1.196e+04 6.766e-09
 11.22695    -24.9 1.189e+04 6.696e-09
 11.24660    -24.3 1.179e+04 6.319e-09
 11.25809    -23.8 1.170e+04 5.731e-09
 11.26792    -23.7 1.177e+04 5.935e-09
 11.28588    -23.3 1.168e+04 5.434e-09
 11.30553    -22.9 1.160e+04 5.106e-09
 11.32517    -22.5 1.155e+04 4.989e-09
 11.34482    -22.0 1.153e+04 4.995e-09
 11.36446    -21.6 1.155e+04 5.090e-09
 11.38410    -21.1 1.158e+04 5.175e-09
 11.40375    -20.8 1.161e+04 5.275e-09
 11.42339    -20.5 1.163e+04 5.497e-09
 11.43796    -20.1 1.165e+04 5.850e-09
 11.44779    -20.4 1.177e+04 6.757e-09
 11.46268    -19.9 1.179e+04 6.941e-09
 11.48232    -19.6 1.187e+04 7.081e-09
 11.50197    -19.9 1.230e+04 7.335e-09
 11.52161    -25.0 1.444e+04 1.346e-08
 11.54126    -30.8 1.665e+04 5.032e-08
 11.56090    -34.7 1.816e+04 1.346e-07
 11.58054    -39.6 1.866e+04 1.808e-07
 11.60019    -44.8 1.800e+04 1.286e-07
 11.61783    -49.6 1.624e+04 6.178e-08
 11.62766    -50.3 1.548e+04 4.577e-08
 11.63948    -53.5 1.401e+04 2.751e-08
 11.65912    -54.8 1.331e+04 1.964e-08
 11.67876    -55.6 1.287e+04 1.563e-08
 11.69841    -56.2 1.269e+04 1.422e-08
 11.71805    -56.6 1.269e+04 1.422e-08
 11.73770    -57.1 1.291e+04 1.595e-08
 11.75734    -57.5 1.320e+04 1.837e-08
 11.77698    -58.1 1.344e+04 2.050e-08
 11.79663    -58.8 1.352e+04 2.153e-08
 11.80753    -59.5 1.348e+04 2.179e-08
 11.81735    -58.7 1.277e+04 1.591e-08
 11.83592    -59.2 1.274e+04 1.630e-08
 11.85556    -59.5 1.268e+04 1.645e-08
 11.87520    -59.8 1.260e+04 1.626e-08
 11.89485    -60.0 1.248e+04 1.576e-08
 11.91449    -60.0 1.236e+04 1.500e-08
 11.93414    -59.9 1.232e+04 1.462e-08
 11.95378    -59.8 1.235e+04 1.458e-08
 11.97343    -61.8 1.351e+04 1.673e-08
 11.98740    -66.6 1.654e+04 4.274e-08
 11.99722    -64.6 1.582e+04 2.795e-08
 12.01271    -69.6 1.785e+04 8.914e-08
 12.02740    -73.2 1.849e+04 1.738e-07
 12.03717    -75.3 1.858e+04 2.093e-07
 12.04699    -77.6 1.856e+04 2.171e-07
 12.05681    -79.6 1.815e+04 1.982e-07
 12.07160    -81.7 1.733e+04 1.418e-07
 12.08219    -84.2 1.546e+04 5.481e-08
 12.08706    -83.2 1.567e+04 5.942e-08
 12.09610    -85.1 1.465e+04 3.411e-08
 12.11088    -88.0 1.310e+04 1.821e-08
 12.13058    -90.6 1.156e+04 8.687e-09
 12.15022    -91.9 1.082e+04 5.560e-09
 12.16727    -92.2 1.059e+04 4.762e-09
 12.17709    -92.4 1.037e+04 3.726e-09
 12.18951    -92.8 1.032e+04 3.217e-09
 12.20915    -93.3 1.027e+04 2.813e-09
 12.23872    -93.8 1.018e+04 2.517e-09
 12.27810    -93.5 1.018e+04 2.773e-09
 12.31739    -93.5 1.038e+04 3.510e-09
 12.35668    -93.4 1.056e+04 4.278e-09
 12.38605    -93.7 1.066e+04 4.911e-09
 12.40559    -93.8 1.065e+04 5.091e-09
 12.42524    -93.5 1.066e+04 5.223e-09
 12.44488    -93.3 1.069e+04 5.314e-09
 12.46453    -93.0 1.071e+04 5.351e-09
 12.48417    -92.7 1.070e+04 5.305e-09
 12.50381    -92.4 1.064e+04 4.986e-09
 12.52346    -92.1 1.055e+04 4.442e-09
 12.53683    -91.7 1.042e+04 3.854e-09
 12.54665    -92.1 1.060e+04 4.655e-09
 12.56275    -91.7 1.045e+04 3.997e-09
 12.58239    -91.3 1.033e+04 3.511e-09
 12.60203    -90.8 1.030e+04 3.249e-09
 12.62168    -90.3 1.031e+04 3.180e-09
 12.63473    -89.6 1.032e+04 3.178e-09
 12.64455    -89.5 1.031e+04 3.213e-09
 12.66097    -88.9 1.041e+04 3.237e-09
 12.68061    -88.2 1.052e+04 3.352e-09
 12.70025    -87.6 1.066e+04 3.546e-09
 12.71670    -86.9 1.079e+04 3.783e-09
 12.72652    -87.7 1.088e+04 4.168e-09
 12.73954    -87.0 1.099e+04 4.365e-09
 12.75919    -86.5 1.110e+04 4.558e-09
 12.77883    -86.1 1.119e+04 4.687e-09
 12.79847    -85.7 1.127e+04 4.848e-09
 12.81812    -85.2 1.131e+04 4.896e-09
 12.83776    -84.7 1.132e+04 4.860e-09
 12.85741    -84.2 1.125e+04 4.700e-09
 12.87705    -83.7 1.123e+04 4.581e-09
 12.89657    -83.2 1.125e+04 4.542e-09
 12.90639    -84.0 1.124e+04 4.585e-09
 12.91634    -83.4 1.130e+04 4.665e-09
 12.93598    -83.0 1.143e+04 4.984e-09
 12.95563    -82.6 1.160e+04 5.559e-09
 12.97527    -82.2 1.180e+04 6.379e-09
 12.99491    -81.8 1.204e+04 7.427e-09
 13.01456    -81.6 1.230e+04 8.779e-09
 13.03420    -81.5 1.259e+04 1.073e-08
 13.05385    -81.5 1.297e+04 1.402e-08
 13.07349    -81.7 1.356e+04 2.014e-08
 13.08626    -82.1 1.449e+04 3.160e-08
 13.09608    -82.8 1.424e+04 2.688e-08
 13.11278    -83.7 1.528e+04 4.270e-08
 13.13242    -84.9 1.644e+04 6.942e-08
 13.15207    -86.7 1.727e+04 9.632e-08
 13.17171    -89.3 1.755e+04 1.050e-07
 13.19135    -92.3 1.751e+04 1.012e-07
 13.21100    -94.9 1.689e+04 7.703e-08
 13.23064    -96.9 1.595e+04 5.119e-08
 13.25029    -98.1 1.508e+04 3.448e-08
 13.26613    -98.6 1.441e+04 2.373e-08
 13.27595    -98.6 1.403e+04 1.891e-08
 13.28957    -98.8 1.356e+04 1.353e-08
 13.30922    -98.8 1.323e+04 9.950e-09
 13.32886    -98.5 1.304e+04 8.072e-09
 13.34851    -98.0 1.285e+04 6.646e-09
 13.36815    -97.4 1.274e+04 5.518e-09
 13.38779    -97.1 1.270e+04 5.230e-09
 13.41736    -96.4 1.269e+04 4.957e-09
 13.45674    -95.2 1.262e+04 4.520e-09
 13.49603    -94.4 1.262e+04 4.249e-09
 13.53532    -93.6 1.261e+04 3.694e-09
 13.57461    -92.4 1.251e+04 2.775e-09
 13.61390    -90.7 1.239e+04 1.928e-09
 13.63589    -88.8 1.236e+04 1.340e-09
 13.65553    -88.3 1.237e+04 1.345e-09
 13.69247    -86.3 1.245e+04 1.004e-09
 13.73176    -84.4 1.263e+04 8.581e-10
 13.77105    -82.3 1.271e+04 8.244e-10
 13.81034    -80.3 1.276e+04 8.194e-10
 13.84962    -78.3 1.287e+04 8.322e-10
 13.88891    -76.3 1.281e+04 8.889e-10
 13.92820    -74.4 1.271e+04 9.546e-10
 13.96749    -72.4 1.267e+04 1.015e-09
 13.99563    -70.4 1.264e+04 1.069e-09
 14.01527    -70.1 1.263e+04 8.723e-10
 14.04606    -68.2 1.260e+04 8.884e-10
 14.08535    -66.5 1.256e+04 9.072e-10
 14.12464    -64.8 1.253e+04 9.167e-10
 14.16393    -63.1 1.245e+04 9.195e-10
 14.20322    -61.4 1.236e+04 9.183e-10
 14.24250    -59.6 1.226e+04 9.121e-10
 14.28179    -57.8 1.220e+04 8.850e-10
 14.32108    -55.9 1.213e+04 8.543e-10
 14.35537    -54.0 1.201e+04 8.534e-10
 14.37501    -53.7 1.205e+04 8.890e-10
 14.39966    -51.9 1.199e+04 9.093e-10
 14.43894    -50.1 1.191e+04 9.290e-10
 14.47823    -48.2 1.186e+04 9.549e-10
 14.51752    -46.3 1.183e+04 9.782e-10
 14.55681    -44.5 1.183e+04 9.724e-10
 14.59610    -42.7 1.186e+04 9.106e-10
 14.63538    -41.0 1.190e+04 8.438e-10
 14.67467    -39.3 1.191e+04 8.307e-10
 14.71396    -37.8 1.187e+04 9.616e-10
 14.73475    -36.2 1.180e+04 1.341e-09
 14.75440    -36.2 1.186e+04 1.152e-09
 14.79254    -34.7 1.187e+04 1.604e-09
 14.83182    -33.4 1.205e+04 2.095e-09
 14.87111    -32.4 1.232e+04 2.512e-09
 14.91040    -31.6 1.249e+04 2.836e-09
 14.93977    -31.0 1.253e+04 3.027e-09
 14.95932    -30.7 1.248e+04 3.205e-09
 14.97896    -30.1 1.247e+04 3.450e-09
 14.99860    -29.7 1.249e+04 3.545e-09
 15.01825    -29.2 1.256e+04 3.611e-09
 15.03789    -28.6 1.247e+04 3.616e-09
 15.05754    -28.1 1.245e+04 3.548e-09
 15.07718    -27.6 1.246e+04 3.478e-09
 15.09430    -27.2 1.255e+04 3.414e-09
 15.10412    -28.1 1.298e+04 3.719e-09
 15.11647    -29.8 1.408e+04 4.584e-09
 15.13611    -32.7 1.477e+04 9.718e-09
 15.15576    -35.2 1.498e+04 2.411e-08
 15.17540    -36.8 1.520e+04 4.349e-08
 15.19504    -38.6 1.551e+04 4.906e-08
 15.21469    -41.8 1.536e+04 3.141e-08
 15.23433    -46.8 1.449e+04 1.267e-08
 15.25398    -51.9 1.304e+04 6.214e-09
 15.27362    -54.7 1.223e+04 4.687e-09
 15.28399    -55.9 1.192e+04 4.209e-09
 15.29381    -55.4 1.185e+04 4.081e-09
 15.31291    -56.0 1.170e+04 3.760e-09
 15.33255    -56.4 1.153e+04 3.272e-09
 15.35220    -56.6 1.134e+04 2.729e-09
 15.37845    -56.8 1.123e+04 2.221e-09
 15.39809    -57.0 1.114e+04 2.298e-09
 15.41113    -56.8 1.111e+04 2.234e-09
 15.43077    -56.7 1.109e+04 2.230e-09
 15.45042    -56.5 1.099e+04 2.282e-09
 15.46386    -56.4 1.091e+04 2.382e-09
 15.47368    -56.5 1.079e+04 2.644e-09
 15.48970    -56.5 1.068e+04 3.114e-09
 15.50935    -56.3 1.070e+04 3.578e-09
 15.52899    -55.8 1.074e+04 4.067e-09
 15.54864    -55.7 1.077e+04 4.227e-09
 15.57820    -55.3 1.082e+04 4.628e-09
 15.61759    -54.3 1.084e+04 4.778e-09
 15.65687    -53.4 1.070e+04 4.197e-09
 15.69616    -52.4 1.064e+04 3.869e-09
 15.73545    -51.3 1.065e+04 3.830e-09
 15.77474    -50.1 1.071e+04 3.881e-09
 15.81397    -48.9 1.066e+04 3.811e-09
 15.85326    -47.0 1.059e+04 4.288e-09
 15.89260    -45.3 1.042e+04 3.638e-09
 15.93189    -43.6 1.025e+04 2.966e-09
 15.97118    -41.7 1.010e+04 2.428e-09
 16.01047    -39.6 9.979e+03 2.067e-09
 16.04975    -37.3 9.886e+03 1.884e-09
 16.08904    -35.0 9.852e+03 1.828e-09
 16.12833    -32.6 9.901e+03 1.856e-09
 16.16762    -30.3 1.004e+04 2.027e-09
 16.19336    -28.1 1.015e+04 2.204e-09
 16.21300    -28.4 1.006e+04 2.168e-09
 16.24619    -26.4 1.010e+04 2.195e-09
 16.28548    -24.6 1.025e+04 2.229e-09
 16.32477    -23.1 1.052e+04 2.390e-09
 16.36406    -21.7 1.073e+04 2.657e-09
 16.40335    -20.6 1.084e+04 2.847e-09
 16.44263    -19.4 1.089e+04 2.972e-09
 16.48192    -18.6 1.100e+04 2.813e-09
 16.52121    -18.2 1.115e+04 2.595e-09
 16.55310    -17.7 1.128e+04 2.457e-09
 16.57274    -18.1 1.139e+04 3.079e-09
 16.59979    -17.6 1.149e+04 2.869e-09
 16.63907    -17.0 1.153e+04 2.676e-09
 16.67836    -16.5 1.167e+04 2.882e-09
 16.71765    -16.6 1.190e+04 3.917e-09
 16.75694    -17.2 1.240e+04 5.669e-09
 16.78631    -19.2 1.367e+04 1.338e-08
 16.80585    -20.2 1.421e+04 2.338e-08
 16.82550    -20.8 1.455e+04 3.670e-08
 16.84514    -21.2 1.460e+04 4.513e-08
 16.86479    -21.4 1.454e+04 4.599e-08
 16.88443    -21.6 1.417e+04 4.164e-08
 16.90407    -21.9 1.366e+04 3.386e-08
 16.92246    -22.4 1.312e+04 2.634e-08
 16.93228    -23.8 1.279e+04 2.076e-08
 16.94336    -24.4 1.244e+04 1.873e-08
 16.96301    -24.7 1.231e+04 1.844e-08
 16.98265    -24.8 1.223e+04 1.880e-08
 17.00229    -24.7 1.206e+04 1.850e-08
 17.02194    -24.4 1.175e+04 1.648e-08
 17.04158    -24.0 1.138e+04 1.355e-08
 17.06123    -23.7 1.099e+04 1.053e-08
 17.08087    -23.4 1.064e+04 7.845e-09
 17.10051    -23.4 1.029e+04 5.820e-09
 17.11215    -23.4 9.947e+03 4.540e-09
 17.12198    -23.9 9.678e+03 3.253e-09
 17.13980    -23.8 9.424e+03 2.799e-09
 17.15945    -23.5 9.208e+03 2.594e-09
 17.17909    -23.0 9.135e+03 2.564e-09
 17.19873    -22.5 9.168e+03 2.659e-09
 17.21838    -22.2 9.243e+03 2.990e-09
 17.23802    -22.0 9.382e+03 3.624e-09
 17.25767    -21.8 9.652e+03 4.701e-09
 17.27731    -21.4 1.001e+04 6.139e-09
 17.29202    -20.9 1.040e+04 7.789e-09
 17.30185    -21.0 1.063e+04 8.825e-09
 17.31660    -20.6 1.105e+04 1.048e-08
 17.34616    -20.8 1.147e+04 1.224e-08
 17.37563    -21.2 1.161e+04 1.320e-08
 17.39517    -21.6 1.176e+04 1.385e-08
 17.41482    -22.4 1.212e+04 1.578e-08
 17.43446    -23.3 1.233e+04 1.648e-08
 17.45411    -24.9 1.257e+04 1.724e-08
 17.47189    -26.9 1.279e+04 1.810e-08
 17.48172    -27.1 1.317e+04 2.140e-08
 17.49339    -29.2 1.325e+04 2.205e-08
 17.51304    -31.3 1.331e+04 2.189e-08
 17.53268    -33.4 1.332e+04 2.053e-08
 17.55233    -35.3 1.320e+04 1.729e-08
 17.57197    -37.2 1.280e+04 1.367e-08
 17.59161    -38.7 1.235e+04 1.086e-08
 17.61126    -39.4 1.205e+04 9.208e-09
 17.63090    -39.8 1.187e+04 8.062e-09
 17.65055    -40.2 1.158e+04 6.645e-09
 17.66159    -40.4 1.137e+04 5.457e-09
 17.67141    -40.7 1.153e+04 6.035e-09
 17.68983    -40.9 1.130e+04 4.818e-09
 17.70948    -41.0 1.115e+04 3.961e-09
 17.72912    -41.2 1.103e+04 3.338e-09
 17.74877    -41.4 1.094e+04 2.920e-09
 17.76841    -41.5 1.088e+04 2.665e-09
 17.78805    -41.7 1.085e+04 2.557e-09
 17.80770    -41.8 1.085e+04 2.539e-09
 17.82734    -44.4 1.184e+04 2.766e-09
 17.84146    -51.0 1.392e+04 7.590e-09
 17.85128    -52.6 1.397e+04 1.387e-08
 17.86663    -55.2 1.445e+04 3.533e-08
 17.88627    -56.8 1.493e+04 4.970e-08
 17.90592    -59.6 1.502e+04 4.939e-08
 17.92556    -63.8 1.430e+04 2.709e-08
 17.94521    -69.5 1.288e+04 1.383e-08
 17.96485    -73.5 1.232e+04 1.173e-08
 17.98449    -75.3 1.222e+04 1.171e-08
 18.00414    -76.6 1.224e+04 1.309e-08
 18.02133    -77.6 1.228e+04 1.363e-08
 18.03115    -78.1 1.258e+04 1.638e-08
 18.04343    -79.2 1.257e+04 1.647e-08
 18.06307    -80.1 1.256e+04 1.642e-08
 18.08271    -80.9 1.257e+04 1.668e-08
 18.10236    -81.6 1.260e+04 1.677e-08
 18.12200    -82.3 1.264e+04 1.669e-08
 18.14162    -82.8 1.255e+04 1.606e-08
 18.16126    -82.3 1.240e+04 1.410e-08
 18.18093    -82.9 1.207e+04 1.146e-08
 18.20058    -83.6 1.159e+04 8.777e-09
 18.21102    -84.7 1.116e+04 6.540e-09
 18.22084    -85.3 1.097e+04 5.579e-09
 18.23987    -86.2 1.076e+04 4.942e-09
 18.25951    -86.9 1.058e+04 4.677e-09
 18.27915    -87.6 1.050e+04 4.537e-09
 18.29880    -88.1 1.048e+04 4.494e-09
 18.31844    -88.6 1.048e+04 4.497e-09
 18.33809    -89.2 1.051e+04 4.582e-09
 18.35773    -90.3 1.075e+04 4.832e-09
 18.37737    -92.4 1.155e+04 5.878e-09
 18.39089    -94.8 1.302e+04 1.138e-08
 18.40071    -91.9 1.172e+04 7.445e-09
 18.41666    -94.2 1.326e+04 1.489e-08
 18.43631    -95.8 1.450e+04 3.167e-08
 18.45595    -97.1 1.544e+04 5.441e-08
 18.47559    -98.7 1.604e+04 7.223e-08
 18.49524   -100.7 1.604e+04 7.580e-08
 18.51488   -103.0 1.559e+04 5.823e-08
 18.53453   -105.6 1.469e+04 3.641e-08
 18.55417   -107.9 1.414e+04 2.648e-08
 18.57076   -109.9 1.369e+04 2.295e-08
 18.58058   -107.7 1.457e+04 3.140e-08
 18.59346   -109.5 1.411e+04 2.680e-08
 18.61310   -110.9 1.390e+04 2.579e-08
 18.63275   -111.8 1.390e+04 2.617e-08
 18.65239   -112.4 1.412e+04 2.720e-08
 18.66556   -112.7 1.430e+04 2.836e-08
 18.67042   -112.5 1.421e+04 2.699e-08
 18.67685   -112.8 1.442e+04 2.869e-08
 18.68667   -113.2 1.493e+04 3.370e-08
 18.69649   -113.8 1.549e+04 4.301e-08
 18.70631   -114.4 1.600e+04 5.688e-08
 18.71614   -114.9 1.646e+04 7.547e-08
 18.72596   -115.3 1.692e+04 1.004e-07
 18.73578   -115.5 1.747e+04 1.347e-07
 18.74560   -115.7 1.805e+04 1.863e-07
 18.75542   -116.0 1.858e+04 2.573e-07
 18.76525   -115.7 1.906e+04 3.324e-07
 18.77507   -116.2 1.937e+04 3.882e-07
 18.78489   -117.3 1.972e+04 3.641e-07
 18.79471   -118.8 1.945e+04 3.099e-07
 18.80453   -119.7 1.892e+04 2.362e-07
 18.81436   -120.1 1.852e+04 1.846e-07
 18.82914   -120.5 1.803e+04 1.263e-07
 18.84883   -120.4 1.701e+04 6.097e-08
 18.86847   -121.1 1.532e+04 2.487e-08
 18.88812   -121.6 1.379e+04 1.184e-08
 18.90776   -121.9 1.294e+04 7.380e-09
 18.92741   -121.6 1.247e+04 5.464e-09
 18.94032   -121.0 1.215e+04 4.385e-09
 18.95014   -121.1 1.222e+04 4.855e-09
 18.96670   -120.3 1.200e+04 3.834e-09
 18.98634   -119.6 1.184e+04 3.073e-09
 19.00598   -118.6 1.172e+04 2.634e-09
 19.03555   -117.1 1.165e+04 2.487e-09
 19.07493   -114.2 1.139e+04 2.054e-09
 19.11056   -111.6 1.124e+04 1.777e-09
 19.13021   -113.5 1.124e+04 2.212e-09
 19.15351   -111.4 1.113e+04 2.323e-09
 19.19280   -109.8 1.113e+04 2.477e-09
 19.23208   -108.3 1.113e+04 2.678e-09
 19.27137   -106.9 1.109e+04 2.746e-09
 19.31066   -105.6 1.105e+04 2.455e-09
 19.34995   -104.4 1.097e+04 2.118e-09
 19.38924   -103.2 1.091e+04 1.818e-09
 19.42852   -101.9 1.081e+04 1.607e-09
 19.46781   -100.5 1.072e+04 1.521e-09
 19.48995    -98.9 1.068e+04 1.500e-09
 19.50959   -100.6 1.065e+04 1.502e-09
 19.54639    -98.8 1.061e+04 1.563e-09
 19.58568    -96.9 1.055e+04 1.635e-09
 19.62496    -95.0 1.053e+04 1.654e-09
 19.66425    -92.8 1.039e+04 1.641e-09
 19.70354    -90.5 1.031e+04 1.511e-09
 19.74283    -88.0 1.027e+04 1.380e-09
 19.78212    -85.3 1.025e+04 1.314e-09
 19.82141    -82.6 1.025e+04 1.299e-09
 19.84969    -80.0 1.025e+04 1.344e-09
 19.86933    -81.0 1.026e+04 1.651e-09
 19.89998    -78.3 1.026e+04 1.872e-09
 19.93927    -75.7 1.027e+04 2.125e-09
 19.97856    -73.2 1.027e+04 2.324e-09
 20.01785    -70.7 1.026e+04 2.391e-09
 20.05713    -68.1 1.017e+04 2.338e-09
 20.09642    -65.5 1.005e+04 2.163e-09
 20.13571    -62.7 9.957e+03 1.942e-09
 20.17500    -59.8 9.875e+03 1.719e-09
 20.20943    -56.8 9.809e+03 1.507e-09
 20.22907    -57.1 9.820e+03 1.484e-09
 20.25357    -54.1 9.770e+03 1.302e-09
 20.29286    -51.0 9.732e+03 1.163e-09
 20.33215    -48.0 9.716e+03 1.078e-09
 20.37144    -44.9 9.725e+03 1.052e-09
 20.41073    -41.7 9.757e+03 1.058e-09
 20.45001    -38.6 9.849e+03 1.109e-09
 20.48930    -35.5 9.975e+03 1.237e-09
 20.52859    -32.5 1.015e+04 1.499e-09
 20.56788    -29.7 1.042e+04 2.103e-09
 20.58881    -26.8 1.095e+04 3.505e-09
 20.60846    -27.2 1.084e+04 3.817e-09
 20.63653    -24.8 1.144e+04 5.484e-09
 20.65608    -24.3 1.159e+04 6.430e-09
 20.67572    -23.1 1.200e+04 9.458e-09
 20.69537    -22.8 1.231e+04 1.258e-08
 20.71501    -22.4 1.319e+04 1.946e-08
 20.73466    -22.8 1.423e+04 3.022e-08
 20.75430    -23.4 1.533e+04 4.709e-08
 20.76849    -24.5 1.612e+04 6.278e-08
 20.77831    -23.3 1.521e+04 4.575e-08
 20.79359    -24.5 1.575e+04 5.198e-08
 20.81323    -26.2 1.593e+04 5.344e-08
 20.83288    -28.4 1.598e+04 5.292e-08
 20.85252    -30.8 1.598e+04 5.313e-08
 20.87216    -33.0 1.597e+04 5.837e-08
 20.89181    -34.6 1.574e+04 6.142e-08
 20.90488    -35.8 1.535e+04 5.422e-08
 20.91470    -34.3 1.544e+04 5.488e-08
 20.93110    -35.3 1.493e+04 4.333e-08
 20.94836    -36.2 1.412e+04 2.805e-08
 20.95818    -35.6 1.546e+04 5.826e-08
 20.97038    -36.7 1.429e+04 2.986e-08
 20.99003    -37.9 1.310e+04 1.540e-08
 21.00967    -38.7 1.234e+04 9.928e-09
 21.02932    -38.9 1.195e+04 7.783e-09
 21.04896    -38.8 1.176e+04 6.593e-09
 21.06860    -38.4 1.164e+04 5.787e-09
 21.08825    -37.9 1.155e+04 5.238e-09
 21.10789    -37.3 1.146e+04 4.736e-09
 21.12754    -36.6 1.138e+04 4.207e-09
 21.13805    -35.8 1.126e+04 3.651e-09
 21.14787    -36.2 1.138e+04 4.009e-09
 21.16682    -35.4 1.118e+04 3.500e-09
 21.18647    -34.5 1.088e+04 3.078e-09
 21.20611    -33.5 1.060e+04 2.782e-09
 21.22576    -32.2 1.050e+04 2.564e-09
 21.24540    -31.6 1.046e+04 2.511e-09
 21.27496    -28.9 1.040e+04 2.453e-09
 21.30829    -25.9 1.016e+04 2.152e-09
 21.32784    -26.0 1.030e+04 2.229e-09
 21.34362    -24.3 1.040e+04 2.248e-09
 21.36327    -23.8 1.041e+04 2.366e-09
 21.38291    -22.6 1.055e+04 2.645e-09
 21.40255    -21.8 1.050e+04 3.052e-09
 21.42220    -20.4 1.060e+04 3.657e-09
 21.44184    -19.2 1.063e+04 4.227e-09
 21.46149    -17.6 1.059e+04 4.773e-09
 21.48113    -15.9 1.045e+04 5.036e-09
 21.49779    -14.2 1.039e+04 5.295e-09
 21.50761    -15.0 1.192e+04 1.191e-08
 21.52042    -14.2 1.292e+04 1.600e-08
 21.54006    -14.0 1.463e+04 2.512e-08
 21.55971    -14.5 1.670e+04 4.909e-08
 21.57935    -16.8 1.800e+04 1.352e-07
 21.59259    -19.3 1.847e+04 4.034e-07
 21.59745    -18.8 1.831e+04 3.922e-07
 21.60381    -19.0 1.785e+04 1.016e-06
 21.61363    -17.8 1.765e+04 2.305e-06
 21.62345    -17.7 1.762e+04 3.151e-06
 21.63327    -20.6 1.785e+04 2.634e-06
 21.64309    -23.6 1.852e+04 1.063e-06
 21.65292    -26.3 1.863e+04 5.488e-07
 21.66274    -28.0 1.848e+04 3.737e-07
 21.67256    -28.9 1.825e+04 2.811e-07
 21.68238    -29.3 1.800e+04 2.400e-07
 21.68738    -29.4 1.788e+04 2.204e-07
 21.69229    -30.2 1.684e+04 8.342e-08
 21.70203    -30.3 1.683e+04 8.609e-08
 21.71681    -29.8 1.701e+04 1.179e-07
 21.73650    -29.2 1.709e+04 1.400e-07
 21.75615    -28.7 1.706e+04 1.461e-07
 21.77579    -28.2 1.685e+04 1.315e-07
 21.79543    -27.6 1.645e+04 1.144e-07
 21.81508    -26.8 1.583e+04 8.469e-08
 21.83472    -26.1 1.497e+04 5.300e-08
 21.85437    -25.8 1.391e+04 3.002e-08
 21.86735    -26.0 1.285e+04 1.719e-08
 21.87717    -24.5 1.529e+04 4.873e-08
 21.89365    -24.7 1.485e+04 3.406e-08
 21.91330    -24.6 1.463e+04 2.666e-08
 21.93294    -24.9 1.453e+04 2.294e-08
 21.95259    -25.4 1.434e+04 2.099e-08
 21.97223    -25.5 1.433e+04 2.081e-08
 21.99187    -25.4 1.433e+04 2.166e-08
 22.01152    -25.4 1.408e+04 2.150e-08
 22.03116    -25.2 1.403e+04 2.247e-08
 22.04722    -25.1 1.401e+04 2.291e-08
 22.05704    -26.1 1.706e+04 7.699e-08
 22.07045    -26.2 1.715e+04 7.876e-08
 22.09009    -26.3 1.733e+04 8.301e-08
 22.10974    -26.1 1.735e+04 8.501e-08
 22.12938    -25.5 1.723e+04 7.655e-08
 22.14903    -24.9 1.699e+04 6.275e-08
 22.16867    -24.4 1.644e+04 5.068e-08
 22.18831    -23.8 1.569e+04 4.348e-08
 22.20796    -23.1 1.535e+04 4.255e-08
 22.22709    -22.1 1.515e+04 4.352e-08
 22.23691    -22.7 1.662e+04 8.438e-08
 22.24725    -21.0 1.663e+04 8.437e-08
 22.26689    -19.9 1.688e+04 8.744e-08
 22.28653    -18.8 1.716e+04 9.071e-08
 22.30618    -18.0 1.789e+04 1.037e-07
 22.32582    -17.8 1.872e+04 1.289e-07
 22.34547    -17.4 1.921e+04 1.694e-07
 22.36015    -17.5 1.944e+04 2.742e-07
 22.36992    -17.7 1.931e+04 3.801e-07
 22.37975    -17.7 1.926e+04 5.306e-07
 22.38957    -18.4 1.945e+04 6.122e-07
 22.39939    -20.1 1.939e+04 7.182e-07
 22.40921    -24.1 1.927e+04 8.610e-07
 22.41668    -27.3 1.947e+04 1.083e-06
 22.42160    -26.6 1.852e+04 1.327e-06
 22.42886    -29.2 1.837e+04 1.532e-06
 22.43868    -30.8 1.869e+04 1.057e-06
 22.44850    -32.1 1.916e+04 5.441e-07
 22.45832    -32.8 1.921e+04 3.284e-07
 22.46814    -32.9 1.904e+04 2.364e-07
 22.47797    -32.7 1.885e+04 1.961e-07
 22.48779    -32.5 1.863e+04 1.560e-07
 22.50257    -32.8 1.824e+04 1.253e-07
 22.52226    -32.2 1.722e+04 7.970e-08
 22.54191    -31.6 1.559e+04 4.402e-08
 22.56155    -31.2 1.407e+04 2.553e-08
 22.58119    -30.6 1.297e+04 1.559e-08
 22.59665    -30.0 1.220e+04 1.047e-08
 22.60647    -29.9 1.208e+04 1.071e-08
 22.62048    -29.1 1.169e+04 8.189e-09
 22.64013    -28.0 1.146e+04 6.766e-09
 22.65977    -26.8 1.125e+04 5.554e-09
 22.67941    -25.7 1.109e+04 4.576e-09
 22.69906    -24.7 1.108e+04 4.006e-09
 22.71870    -23.9 1.108e+04 3.720e-09
 22.73835    -23.1 1.110e+04 3.661e-09
 22.75799    -22.3 1.119e+04 3.721e-09
 22.77652    -21.7 1.123e+04 4.053e-09
 22.78634    -21.0 1.128e+04 4.094e-09
 22.79728    -20.4 1.136e+04 4.615e-09
 22.81692    -20.0 1.156e+04 5.348e-09
 22.83657    -20.0 1.190e+04 6.843e-09
 22.85621    -20.9 1.233e+04 1.051e-08
 22.87585    -21.8 1.297e+04 1.879e-08
 22.89550    -22.0 1.381e+04 3.072e-08
 22.91514    -22.1 1.432e+04 3.643e-08
 22.93479    -23.6 1.437e+04 3.090e-08
 22.95443    -25.3 1.382e+04 1.448e-08
 22.96621    -27.8 1.326e+04 7.004e-09
 22.97604    -27.3 1.326e+04 7.010e-09
 22.99372    -29.0 1.296e+04 4.628e-09
 23.01336    -30.2 1.277e+04 3.755e-09
 23.03301    -31.3 1.259e+04 3.491e-09
 23.05265    -32.1 1.248e+04 3.529e-09
 23.07229    -32.7 1.232e+04 3.879e-09
 23.09194    -33.1 1.228e+04 4.010e-09
 23.11158    -33.5 1.223e+04 3.889e-09
 23.13123    -34.2 1.217e+04 3.506e-09
 23.14608    -34.9 1.207e+04 3.244e-09
 23.15591    -34.3 1.211e+04 3.305e-09
 23.17051    -34.9 1.202e+04 3.210e-09
 23.19016    -35.3 1.196e+04 3.147e-09
 23.20980    -35.7 1.195e+04 3.049e-09
 23.22945    -36.1 1.195e+04 2.932e-09
 23.24909    -36.4 1.193e+04 2.858e-09
 23.26873    -36.6 1.189e+04 2.818e-09
 23.28838    -36.6 1.186e+04 2.808e-09
 23.30802    -36.5 1.186e+04 2.799e-09
 23.32595    -36.5 1.185e+04 2.883e-09
 23.33578    -36.3 1.183e+04 2.685e-09
 23.34731    -36.2 1.181e+04 2.789e-09
 23.36695    -36.2 1.181e+04 2.886e-09
 23.38660    -36.1 1.181e+04 3.171e-09
 23.40624    -36.0 1.182e+04 3.383e-09
 23.42589    -35.8 1.177e+04 3.535e-09
 23.44553    -35.6 1.170e+04 3.397e-09
 23.46517    -35.3 1.166e+04 2.833e-09
 23.48482    -35.2 1.166e+04 2.639e-09
 23.50592    -34.6 1.162e+04 2.176e-09
 23.52557    -34.9 1.157e+04 2.226e-09
 23.55367    -34.8 1.153e+04 2.095e-09
 23.59306    -34.5 1.146e+04 2.134e-09
 23.63234    -34.1 1.141e+04 2.213e-09
 23.67163    -33.9 1.137e+04 2.327e-09
 23.69561    -33.7 1.133e+04 2.637e-09
 23.70534    -33.8 1.141e+04 2.523e-09
 23.72055    -33.9 1.142e+04 2.576e-09
 23.74019    -33.9 1.145e+04 2.654e-09
 23.75984    -34.0 1.154e+04 2.584e-09
 23.77948    -34.2 1.161e+04 2.534e-09
 23.79912    -34.4 1.167e+04 2.535e-09
 23.81877    -34.4 1.169e+04 2.637e-09
 23.83841    -34.4 1.170e+04 2.773e-09
 23.86566    -34.0 1.171e+04 2.931e-09
 23.88540    -32.9 1.149e+04 2.269e-09
 23.90736    -31.8 1.149e+04 2.295e-09
 23.94665    -30.5 1.141e+04 1.743e-09
 23.98594    -29.1 1.135e+04 1.214e-09
 24.02522    -27.6 1.136e+04 1.080e-09
 24.06451    -26.1 1.141e+04 1.135e-09
 24.10380    -25.0 1.151e+04 1.788e-09
 24.14309    -23.6 1.177e+04 2.684e-09
 24.18238    -22.7 1.200e+04 3.025e-09
 24.22166    -22.4 1.155e+04 2.894e-09
 24.24514    -21.5 1.123e+04 2.531e-09
 24.26479    -20.2 1.133e+04 2.724e-09
 24.30024    -19.2 1.127e+04 2.222e-09
 24.33953    -18.3 1.109e+04 1.842e-09
 24.37882    -17.2 1.097e+04 1.692e-09
 24.41811    -15.9 1.096e+04 1.673e-09
 24.45739    -14.9 1.114e+04 2.123e-09
 24.49668    -14.4 1.129e+04 3.135e-09
 24.52605    -13.6 1.146e+04 5.194e-09
 24.54560    -13.8 1.149e+04 6.619e-09
 24.56524    -13.3 1.155e+04 7.992e-09
 24.58488    -13.0 1.152e+04 8.646e-09
 24.60453    -12.6 1.135e+04 8.750e-09
 24.61451    -11.8 1.098e+04 7.569e-09
 24.62433    -11.9 1.136e+04 8.614e-09
 24.64382    -11.2 1.105e+04 6.949e-09
 24.66346    -10.7 1.080e+04 5.433e-09
 24.68310    -10.1 1.050e+04 4.286e-09
 24.70275     -9.4 1.033e+04 3.612e-09
 24.72239     -8.5 1.030e+04 3.031e-09
 24.74204     -8.3 1.026e+04 2.867e-09
 24.77160     -6.9 1.017e+04 2.427e-09
 24.81099     -5.3 9.897e+03 2.018e-09
 24.85027     -3.4 9.712e+03 1.879e-09
 24.88956     -1.4 9.631e+03 1.881e-09
 24.92885      0.4 9.547e+03 2.059e-09
 24.96462      2.1 9.532e+03 2.311e-09
 24.98427      1.7 9.761e+03 2.771e-09
 25.00743      3.4 9.696e+03 2.843e-09
 25.04671      5.3 9.611e+03 3.028e-09
 25.08600      7.3 9.604e+03 3.123e-09
 25.12529      9.3 9.564e+03 3.302e-09
 25.15422     10.7 9.604e+03 3.769e-09
 25.16394     10.2 9.643e+03 3.933e-09
 25.17420     10.5 9.789e+03 4.111e-09
 25.19385     11.2 9.831e+03 5.046e-09
 25.21349     11.6 1.009e+04 5.501e-09
 25.23314     12.1 1.020e+04 6.837e-09
 25.25278     12.5 1.045e+04 7.489e-09
 25.27242     12.7 1.048e+04 8.542e-09
 25.29207     13.0 1.052e+04 8.831e-09
 25.31171     13.1 1.071e+04 9.339e-09
 25.33136     13.3 1.077e+04 1.031e-08
 25.34381     13.5 1.082e+04 9.943e-09
 25.35363     13.2 1.062e+04 8.698e-09
 25.37064     13.1 1.056e+04 9.174e-09
 25.39029     13.3 1.059e+04 8.930e-09
 25.40993     13.1 1.066e+04 9.340e-09
 25.42958     13.1 1.074e+04 9.906e-09
 25.44922     13.0 1.095e+04 1.100e-08
 25.46886     12.8 1.115e+04 1.224e-08
 25.48851     13.0 1.123e+04 1.425e-08
 25.50815     13.3 1.132e+04 1.436e-08
 25.52368     13.3 1.138e+04 1.367e-08
 25.53350     12.5 1.147e+04 1.358e-08
 25.54744     10.1 1.275e+04 1.746e-08
 25.56708      3.9 1.560e+04 4.204e-08
 25.58673      0.5 1.684e+04 1.256e-07
 25.60637      0.0 1.745e+04 2.126e-07
 25.62602     -1.5 1.726e+04 1.761e-07
 25.64566     -3.9 1.669e+04 6.421e-08
 25.66530     -9.8 1.475e+04 1.533e-08
 25.68495    -14.6 1.156e+04 7.932e-09
 25.70355    -15.4 1.109e+04 6.321e-09
 25.71337    -15.8 1.110e+04 7.029e-09
 25.72424    -15.5 1.103e+04 6.527e-09
 25.74388    -15.2 1.111e+04 6.398e-09
 25.76352    -15.8 1.166e+04 6.675e-09
 25.78317    -19.0 1.280e+04 1.056e-08
 25.80281    -21.3 1.311e+04 2.269e-08
 25.82246    -20.9 1.361e+04 4.162e-08
 25.84210    -19.7 1.401e+04 4.968e-08
 25.86175    -19.4 1.360e+04 3.588e-08
 25.88139    -20.6 1.257e+04 1.456e-08
 25.89324    -23.1 1.154e+04 6.891e-09
 25.90307    -24.9 1.119e+04 5.525e-09
 25.92068    -25.3 1.065e+04 4.351e-09
 25.94032    -25.1 1.038e+04 3.734e-09
 25.95997    -24.6 1.027e+04 3.355e-09
 25.97961    -24.0 1.017e+04 3.107e-09
 25.99925    -23.4 1.015e+04 2.879e-09
 26.02882    -21.8 1.033e+04 2.649e-09
 26.06349    -20.1 1.025e+04 2.425e-09
 26.08313    -20.9 1.024e+04 2.391e-09
 26.10749    -18.8 1.007e+04 2.037e-09
 26.14678    -16.6 1.001e+04 1.803e-09
 26.18607    -14.5 9.985e+03 1.717e-09
 26.22535    -12.3 9.977e+03 1.710e-09
 26.26464    -10.2 9.977e+03 1.892e-09
 26.30393     -8.0 1.007e+04 2.138e-09
 26.34322     -6.0 1.018e+04 2.288e-09
 26.38251     -4.3 1.019e+04 2.323e-09
 26.41196     -2.5 9.918e+03 2.399e-09
 26.43160     -3.5 9.886e+03 2.573e-09
 26.44287     -1.1 9.891e+03 2.728e-09
 26.46251     -2.0 9.930e+03 2.749e-09
 26.50037      0.4 9.995e+03 2.591e-09
 26.53966      2.7 9.968e+03 2.224e-09
 26.57895      4.9 9.896e+03 1.969e-09
 26.61823      7.3 9.922e+03 2.051e-09
 26.65752      9.8 9.938e+03 2.331e-09
 26.69681     12.5 9.949e+03 2.591e-09
 26.73610     15.3 9.911e+03 2.680e-09
 26.77539     18.3 9.967e+03 2.557e-09
 26.80261     20.5 1.023e+04 2.794e-09
 26.82225     19.5 1.024e+04 3.005e-09
 26.84404     21.6 1.007e+04 2.888e-09
 26.86359     22.5 1.012e+04 3.016e-09
 26.88323     23.6 1.009e+04 3.247e-09
 26.90288     24.8 1.009e+04 3.464e-09
 26.92252     26.1 1.012e+04 3.581e-09
 26.94217     27.3 1.023e+04 3.723e-09
 26.96181     28.4 1.043e+04 3.997e-09
 26.98145     29.2 1.068e+04 4.499e-09
 26.99211     29.6 1.101e+04 5.516e-09
 27.00193     29.0 1.116e+04 6.321e-09
 27.02074     28.7 1.187e+04 9.384e-09
 27.04039     27.6 1.312e+04 1.866e-08
 27.06003     26.4 1.466e+04 4.363e-08
 27.07967     25.2 1.581e+04 7.781e-08
 27.09932     23.6 1.668e+04 1.047e-07
 27.11896     20.2 1.744e+04 1.093e-07
 27.13861     16.4 1.744e+04 1.141e-07
 27.15825     13.8 1.691e+04 1.012e-07
 27.17198     12.4 1.603e+04 6.994e-08
 27.18180     11.4 1.695e+04 1.098e-07
 27.19754      9.6 1.562e+04 4.906e-08
 27.21718      6.4 1.410e+04 2.263e-08
 27.23683      4.4 1.296e+04 1.470e-08
 27.25647      4.0 1.273e+04 1.178e-08
 27.27611      4.1 1.300e+04 1.089e-08
 27.29576      3.8 1.280e+04 1.181e-08
 27.31540      4.3 1.227e+04 1.416e-08
 27.33505      5.0 1.232e+04 1.598e-08
 27.35185      5.7 1.248e+04 1.644e-08
 27.36167      5.3 1.287e+04 1.073e-08
 27.37433      5.7 1.288e+04 9.820e-09
 27.39398      6.0 1.295e+04 9.447e-09
 27.41362      5.6 1.287e+04 1.109e-08
 27.43327      5.4 1.300e+04 1.478e-08
 27.45291      4.5 1.367e+04 2.241e-08
 27.47255      4.0 1.401e+04 3.901e-08
 27.49220      4.9 1.399e+04 5.322e-08
 27.51184      6.1 1.379e+04 4.249e-08
 27.53149      7.0 1.329e+04 2.557e-08
 27.54154      7.3 1.308e+04 1.336e-08
 27.55136      7.2 1.342e+04 1.904e-08
 27.57077      7.1 1.293e+04 1.351e-08
 27.59042      7.8 1.256e+04 9.589e-09
 27.61006      8.6 1.262e+04 7.279e-09
 27.62971      9.7 1.272e+04 6.451e-09
 27.64935     11.0 1.285e+04 5.763e-09
 27.66899     12.2 1.297e+04 5.021e-09
 27.68864     13.3 1.296e+04 5.109e-09
 27.70828     14.5 1.297e+04 5.106e-09
 27.72141     15.9 1.298e+04 4.887e-09
 27.73123     16.2 1.370e+04 4.984e-09
 27.74757     17.4 1.373e+04 4.585e-09
 27.76721     18.5 1.381e+04 4.516e-09
 27.78686     19.5 1.373e+04 4.491e-09
 27.80650     20.8 1.367e+04 4.605e-09
 27.82615     21.9 1.371e+04 5.152e-09
 27.84579     22.8 1.363e+04 6.230e-09
 27.86543     23.8 1.331e+04 8.251e-09
 27.88508     25.1 1.317e+04 1.133e-08
 27.90128     26.6 1.329e+04 1.412e-08
 27.91110     26.5 1.363e+04 1.593e-08
 27.92437     27.9 1.370e+04 1.997e-08
 27.94401     29.2 1.397e+04 2.256e-08
 27.96365     30.2 1.406e+04 2.250e-08
 27.98330     31.4 1.404e+04 2.084e-08
 28.00294     32.5 1.404e+04 1.771e-08
 28.02259     33.2 1.398e+04 1.472e-08
 28.04223     33.9 1.377e+04 1.378e-08
 28.06187     34.6 1.375e+04 1.406e-08
 28.08115     35.2 1.370e+04 1.501e-08
 28.09097     35.6 1.405e+04 1.788e-08
 28.10116     36.2 1.395e+04 1.900e-08
 28.12081     36.9 1.397e+04 2.035e-08
 28.14045     37.5 1.403e+04 2.086e-08
 28.16009     37.8 1.399e+04 2.040e-08
 28.17974     37.8 1.393e+04 1.843e-08
 28.19938     37.8 1.381e+04 1.590e-08
 28.21903     37.8 1.360e+04 1.400e-08
 28.23867     37.8 1.337e+04 1.277e-08
 28.25832     38.2 1.324e+04 1.191e-08
 28.27084     39.1 1.331e+04 1.165e-08
 28.28066     38.8 1.359e+04 1.682e-08
 28.29760     39.5 1.360e+04 1.709e-08
 28.31725     40.5 1.366e+04 1.774e-08
 28.33689     41.4 1.384e+04 1.914e-08
 28.35654     42.1 1.405e+04 2.139e-08
 28.37618     42.7 1.441e+04 2.607e-08
 28.39582     42.9 1.501e+04 3.641e-08
 28.41547     43.2 1.565e+04 5.561e-08
 28.43511     43.9 1.631e+04 8.421e-08
 28.45071     44.5 1.698e+04 1.098e-07
 28.46053     44.4 1.806e+04 1.572e-07
 28.47440     44.3 1.828e+04 1.599e-07
 28.49404     44.4 1.816e+04 1.394e-07
 28.51369     44.4 1.787e+04 9.875e-08
 28.53333     44.1 1.745e+04 6.443e-08
 28.55298     43.2 1.677e+04 4.241e-08
 28.57262     41.8 1.556e+04 2.968e-08
 28.59226     40.5 1.421e+04 2.288e-08
 28.61191     39.6 1.327e+04 1.984e-08
 28.63058     39.1 1.267e+04 1.817e-08
 28.64040     39.4 1.292e+04 1.900e-08
 28.65120     39.0 1.246e+04 1.814e-08
 28.67084     39.0 1.223e+04 1.706e-08
 28.69048     39.2 1.196e+04 1.526e-08
 28.71013     39.5 1.170e+04 1.319e-08
 28.72977     39.9 1.147e+04 1.134e-08
 28.74942     40.4 1.134e+04 1.003e-08
 28.76906     40.9 1.130e+04 9.198e-09
 28.78870     41.4 1.129e+04 8.754e-09
 28.80835     42.1 1.132e+04 8.782e-09
 28.82027     42.8 1.142e+04 9.013e-09
 28.83010     42.2 1.122e+04 9.603e-09
 28.84764     42.8 1.118e+04 9.820e-09
 28.86728     43.3 1.110e+04 1.027e-08
 28.88692     44.0 1.106e+04 1.123e-08
 28.90657     44.5 1.126e+04 1.227e-08
 28.93613     44.4 1.112e+04 1.324e-08
 28.97552     44.7 1.103e+04 1.289e-08
 29.00034     44.7 1.062e+04 1.107e-08
 29.01998     43.5 9.636e+03 6.605e-09
 29.05409     43.2 9.016e+03 4.724e-09
 29.09338     43.3 8.339e+03 3.232e-09
 29.13267     43.8 7.917e+03 2.419e-09
 29.17196     44.9 7.898e+03 2.400e-09
 29.21125     46.9 8.074e+03 2.930e-09
 29.24061     47.7 8.192e+03 3.088e-09
 29.26016     48.4 8.216e+03 3.181e-09
 29.27980     49.2 8.257e+03 3.329e-09
 29.29945     49.8 8.339e+03 3.537e-09
 29.31909     50.5 8.422e+03 3.747e-09
 29.33874     51.4 8.540e+03 4.011e-09
 29.35838     51.9 8.734e+03 4.440e-09
 29.36971     51.1 9.545e+03 6.092e-09
 29.37953     48.8 1.078e+04 1.164e-08
 29.39767     46.6 1.305e+04 2.831e-08
 29.41235     45.3 1.432e+04 4.834e-08
 29.42213     45.5 1.510e+04 7.243e-08
 29.43195     45.3 1.617e+04 1.126e-07
 29.44177     45.4 1.701e+04 1.620e-07
 29.45159     45.2 1.766e+04 2.100e-07
 29.45954     44.2 1.829e+04 2.587e-07
 29.46445     43.6 1.844e+04 2.749e-07
 29.47124     42.5 1.861e+04 2.939e-07
 29.48106     41.3 1.882e+04 2.952e-07
 29.49088     39.9 1.900e+04 2.976e-07
 29.50070     38.3 1.916e+04 3.032e-07
 29.51052     36.5 1.929e+04 3.130e-07
 29.52035     34.8 1.928e+04 3.239e-07
 29.53017     33.5 1.907e+04 3.369e-07
 29.53999     32.7 1.887e+04 3.584e-07
 29.54948     32.2 1.874e+04 4.014e-07
 29.55439     31.9 1.884e+04 4.175e-07
 29.55963     31.4 1.877e+04 5.044e-07
 29.56946     31.1 1.860e+04 6.264e-07
 29.57928     31.1 1.845e+04 8.530e-07
 29.58910     30.9 1.831e+04 1.272e-06
 29.59892     30.0 1.827e+04 1.660e-06
 29.60874     28.4 1.831e+04 1.591e-06
 29.61857     26.8 1.847e+04 1.232e-06
 29.62839     24.8 1.884e+04 9.095e-07
 29.63821     22.4 1.886e+04 9.687e-07
 29.64432     19.3 1.862e+04 1.464e-06
 29.64923     18.1 2.015e+04 4.636e-07
 29.65785     16.5 1.986e+04 4.268e-07
 29.66768     14.3 2.002e+04 3.668e-07
 29.67750     13.1 1.972e+04 2.912e-07
 29.68732     12.2 1.924e+04 2.165e-07
 29.69714     11.3 1.847e+04 1.674e-07
 29.70696     11.6 1.753e+04 1.028e-07
 29.71679     10.8 1.714e+04 9.051e-08
 29.72940     10.3 1.727e+04 6.295e-08
 29.73927      8.4 1.602e+04 4.113e-08
 29.75126      3.6 1.445e+04 2.757e-08
 29.77090      1.1 1.404e+04 2.819e-08
 29.79055     -2.7 1.498e+04 3.553e-08
 29.81019    -10.8 1.745e+04 6.448e-08
 29.82424    -16.8 1.773e+04 1.287e-07
 29.82910    -17.3 1.745e+04 1.236e-07
 29.83465    -19.3 1.780e+04 1.476e-07
 29.84447    -21.5 1.774e+04 1.865e-07
 29.85429    -23.0 1.768e+04 1.408e-07
 29.86412    -26.3 1.723e+04 7.317e-08
 29.87394    -32.2 1.544e+04 3.668e-08
 29.88376    -36.6 1.434e+04 2.515e-08
 29.89358    -37.7 1.446e+04 2.381e-08
 29.90836    -43.3 1.376e+04 1.942e-08
 29.91914    -47.2 1.377e+04 2.054e-08
 29.92896    -46.6 1.377e+04 2.089e-08
 29.94770    -49.2 1.398e+04 2.538e-08
 29.96734    -51.7 1.400e+04 2.643e-08
 29.98699    -53.9 1.360e+04 2.370e-08
 30.00663    -56.1 1.286e+04 1.730e-08
 30.02628    -58.2 1.208e+04 1.229e-08
 30.04592    -59.8 1.144e+04 9.328e-09
 30.06556    -60.9 1.094e+04 7.429e-09
 30.08521    -61.5 1.051e+04 5.796e-09
 30.09901    -62.0 1.010e+04 4.290e-09
 30.10883    -61.6 1.007e+04 4.274e-09
 30.12450    -62.1 9.739e+03 3.208e-09
 30.15406    -62.5 9.410e+03 2.503e-09
 30.19345    -62.9 9.023e+03 1.945e-09
 30.23273    -62.8 8.687e+03 1.698e-09
 30.27202    -62.1 8.503e+03 1.645e-09
 30.31131    -61.3 8.448e+03 1.650e-09
 30.35060    -60.4 8.348e+03 1.756e-09
 30.38989    -59.3 8.318e+03 1.884e-09
 30.42917    -58.2 8.298e+03 1.978e-09
 30.45894    -57.2 8.262e+03 2.048e-09
 30.47859    -56.9 8.218e+03 1.977e-09
 30.50775    -55.7 8.160e+03 1.992e-09
 30.54704    -54.4 8.005e+03 1.928e-09
 30.58633    -53.0 7.833e+03 1.751e-09
 30.62561    -51.4 7.655e+03 1.549e-09
 30.66490    -49.7 7.510e+03 1.394e-09
 30.70419    -47.9 7.425e+03 1.332e-09
 30.74348    -46.2 7.398e+03 1.329e-09
 30.78277    -44.5 7.403e+03 1.384e-09
 30.81868    -42.9 7.469e+03 1.494e-09
 30.83833    -42.3 7.486e+03 1.501e-09
 30.86134    -40.9 7.570e+03 1.623e-09
 30.90063    -39.7 7.667e+03 1.770e-09
 30.93992    -38.6 7.776e+03 1.958e-09
 30.97921    -37.7 7.942e+03 2.257e-09
 31.01849    -36.9 8.209e+03 2.763e-09
 31.04786    -36.1 8.352e+03 3.162e-09
 31.06741    -36.2 8.430e+03 3.445e-09
 31.08705    -35.9 8.613e+03 4.155e-09
 31.10670    -35.7 8.850e+03 4.891e-09
 31.12634    -35.4 9.113e+03 5.827e-09
 31.14599    -35.2 9.351e+03 6.734e-09
 31.16563    -34.9 9.567e+03 7.650e-09
 31.18527    -34.5 9.739e+03 8.426e-09
 31.19787    -34.1 9.890e+03 9.043e-09
 31.20769    -33.4 9.575e+03 7.452e-09
 31.22456    -33.0 9.770e+03 8.120e-09
 31.24421    -32.8 1.001e+04 8.890e-09
 31.26385    -32.9 1.042e+04 1.037e-08
 31.28349    -33.9 1.111e+04 1.360e-08
 31.30314    -35.2 1.197e+04 2.039e-08
 31.32278    -36.3 1.296e+04 3.155e-08
 31.33747    -36.2 1.355e+04 3.962e-08
 31.34724    -37.6 1.464e+04 4.875e-08
 31.35706    -40.1 1.657e+04 7.526e-08
 31.36688    -43.2 1.786e+04 1.130e-07
 31.37671    -45.8 1.826e+04 1.570e-07
 31.38255    -47.9 1.821e+04 1.771e-07
 31.38747    -46.1 1.844e+04 1.948e-07
 31.39635    -47.9 1.836e+04 2.067e-07
 31.40617    -49.6 1.796e+04 1.851e-07
 31.42095    -50.7 1.762e+04 1.569e-07
 31.44065    -54.4 1.655e+04 7.084e-08
 31.46029    -59.0 1.389e+04 1.687e-08
 31.47993    -63.2 1.119e+04 5.450e-09
 31.49958    -64.3 1.022e+04 3.774e-09
 31.51922    -64.2 1.004e+04 3.275e-09
 31.53887    -63.5 9.997e+03 2.745e-09
 31.55761    -63.0 9.956e+03 2.353e-09
 31.56743    -62.7 1.011e+04 2.425e-09
 31.57815    -62.2 1.008e+04 2.270e-09
 31.60772    -61.3 1.013e+04 2.309e-09
 31.64710    -60.1 1.036e+04 2.661e-09
 31.67647    -59.5 1.054e+04 3.245e-09
 31.69602    -59.2 1.072e+04 3.892e-09
 31.71566    -59.2 1.098e+04 5.011e-09
 31.73531    -60.4 1.160e+04 8.310e-09
 31.74730    -62.2 1.276e+04 1.771e-08
 31.75713    -62.1 1.273e+04 1.575e-08
 31.77459    -63.0 1.406e+04 3.593e-08
 31.79424    -63.3 1.518e+04 6.075e-08
 31.81388    -64.5 1.553e+04 6.761e-08
 31.83353    -66.2 1.529e+04 5.144e-08
 31.85317    -68.5 1.433e+04 2.124e-08
 31.87281    -71.9 1.332e+04 9.800e-09
 31.89246    -74.3 1.280e+04 8.011e-09
 31.91210    -75.1 1.270e+04 7.924e-09
 31.92717    -75.5 1.272e+04 8.225e-09
 31.93371    -74.8 1.251e+04 7.484e-09
 31.93829    -75.1 1.251e+04 7.785e-09
 31.95139    -75.2 1.249e+04 8.085e-09
 31.97103    -75.2 1.236e+04 7.887e-09
 31.99068    -75.0 1.222e+04 6.554e-09
 32.01032    -74.7 1.214e+04 5.134e-09
 32.02997    -74.3 1.202e+04 4.052e-09
 32.04961    -73.7 1.189e+04 3.352e-09
 32.06925    -73.0 1.180e+04 2.916e-09
 32.08890    -72.1 1.176e+04 2.609e-09
 32.10704    -71.1 1.175e+04 2.355e-09
 32.11687    -70.6 1.160e+04 2.648e-09
 32.12819    -69.6 1.158e+04 2.449e-09
 32.14783    -68.5 1.155e+04 2.280e-09
 32.16747    -67.3 1.152e+04 2.183e-09
 32.18712    -66.0 1.152e+04 2.162e-09
 32.20676    -65.3 1.163e+04 2.183e-09
 32.22641    -65.2 1.242e+04 2.491e-09
 32.24605    -65.4 1.266e+04 4.727e-09
 32.26569    -65.2 1.296e+04 1.096e-08
 32.28534    -64.4 1.373e+04 2.280e-08
 32.29674    -63.7 1.460e+04 3.912e-08
 32.30656    -63.0 1.355e+04 2.060e-08
 32.32463    -62.5 1.424e+04 3.161e-08
 32.34427    -62.2 1.469e+04 3.804e-08
 32.36391    -62.2 1.480e+04 3.918e-08
 32.38356    -62.6 1.475e+04 3.433e-08
 32.40320    -62.9 1.460e+04 2.659e-08
 32.42285    -63.6 1.439e+04 2.177e-08
 32.44249    -64.2 1.412e+04 1.977e-08
 32.46213    -64.7 1.388e+04 1.920e-08
 32.47661    -64.9 1.372e+04 1.966e-08
 32.48643    -64.0 1.336e+04 1.418e-08
 32.50142    -64.3 1.321e+04 1.504e-08
 32.52107    -64.4 1.310e+04 1.579e-08
 32.54071    -64.5 1.301e+04 1.585e-08
 32.56035    -64.7 1.286e+04 1.478e-08
 32.58000    -65.1 1.275e+04 1.340e-08
 32.59964    -65.5 1.265e+04 1.248e-08
 32.61929    -65.8 1.259e+04 1.168e-08
 32.63893    -66.0 1.251e+04 1.078e-08
 32.65648    -66.4 1.246e+04 9.367e-09
 32.66630    -65.9 1.225e+04 8.387e-09
 32.67822    -66.3 1.211e+04 6.106e-09
 32.69786    -66.9 1.197e+04 4.766e-09
 32.71751    -67.2 1.180e+04 4.374e-09
 32.73715    -67.2 1.172e+04 4.323e-09
 32.75679    -66.7 1.157e+04 4.354e-09
 32.77644    -65.7 1.138e+04 4.171e-09
 32.79608    -64.7 1.122e+04 3.545e-09
 32.82565    -63.7 1.106e+04 2.610e-09
 32.86503    -61.7 1.079e+04 1.941e-09
 32.90432    -59.3 1.045e+04 1.340e-09
 32.94361    -57.0 1.033e+04 1.156e-09
 32.98290    -54.6 1.030e+04 1.136e-09
 33.01641    -52.3 1.026e+04 1.191e-09
 33.03605    -51.5 1.050e+04 1.528e-09
 33.06147    -49.3 1.042e+04 1.734e-09
 33.10076    -47.2 1.037e+04 1.969e-09
 33.14005    -45.0 1.035e+04 2.149e-09
 33.17934    -42.9 1.031e+04 2.228e-09
 33.21862    -40.7 1.028e+04 2.263e-09
 33.25791    -38.7 1.024e+04 2.275e-09
 33.29720    -36.6 1.023e+04 2.246e-09
 33.33649    -34.5 1.024e+04 2.330e-09
 33.37578    -32.5 1.025e+04 2.405e-09
 33.39579    -30.5 1.025e+04 2.376e-09
 33.41544    -29.9 1.032e+04 2.439e-09
 33.45435    -28.0 1.027e+04 2.088e-09
 33.49364    -26.2 1.022e+04 1.756e-09
 33.53293    -24.5 1.018e+04 1.614e-09
 33.57222    -22.6 1.016e+04 1.624e-09
 33.61150    -20.6 1.019e+04 1.699e-09
 33.65079    -18.5 1.021e+04 1.727e-09
 33.69008    -16.4 1.029e+04 1.638e-09
 33.72937    -14.3 1.034e+04 1.574e-09
 33.75553    -12.1 1.042e+04 1.578e-09
 33.77518    -12.2 1.070e+04 2.437e-09
 33.80795    -10.2 1.079e+04 2.438e-09
 33.84723     -8.3 1.098e+04 2.689e-09
 33.88652     -6.5 1.106e+04 3.457e-09
 33.92581     -4.3 1.113e+04 4.474e-09
 33.96510     -2.0 1.118e+04 5.113e-09
 34.00439      0.3 1.131e+04 5.142e-09
 34.04367      2.3 1.142e+04 5.175e-09
 34.08296      4.3 1.135e+04 4.974e-09
 34.11527      6.7 1.133e+04 4.714e-09
 34.13492      6.8 1.119e+04 4.056e-09
 34.16154      9.0 1.127e+04 4.424e-09
 34.20083     11.2 1.134e+04 5.181e-09
 34.24011     13.5 1.152e+04 6.303e-09
 34.27940     15.4 1.185e+04 8.251e-09
 34.31869     17.5 1.223e+04 1.039e-08
 34.35798     18.9 1.242e+04 1.041e-08
 34.39727     20.5 1.232e+04 8.693e-09
 34.43655     21.8 1.218e+04 6.531e-09
 34.47501     23.0 1.209e+04 4.936e-09
 34.49466     23.5 1.200e+04 4.442e-09
 34.51513     25.0 1.193e+04 3.262e-09
 34.55442     26.9 1.188e+04 2.444e-09
 34.59371     29.0 1.190e+04 1.909e-09
 34.63299     31.3 1.193e+04 1.655e-09
 34.67228     33.5 1.202e+04 1.637e-09
 34.71157     35.6 1.211e+04 1.732e-09
 34.75086     37.6 1.224e+04 1.845e-09
 34.79015     39.4 1.234e+04 1.831e-09
 34.82943     41.1 1.235e+04 1.751e-09
 34.85440     42.9 1.237e+04 1.616e-09
 34.87404     43.5 1.254e+04 2.919e-09
 34.90801     45.0 1.262e+04 2.280e-09
 34.94730     46.9 1.259e+04 1.876e-09
 34.98659     49.0 1.262e+04 1.697e-09
 35.02587     51.4 1.269e+04 1.695e-09
 35.06516     53.8 1.281e+04 1.729e-09
 35.10445     56.3 1.301e+04 1.875e-09
 35.14374     58.4 1.326e+04 2.156e-09
 35.17311     59.4 1.336e+04 2.438e-09
 35.19265     60.3 1.340e+04 2.868e-09
 35.21230     61.1 1.347e+04 3.542e-09
 35.22376     61.7 1.354e+04 4.436e-09
 35.23359     62.3 1.364e+04 4.540e-09
 35.25159     62.9 1.365e+04 5.493e-09
 35.27123     63.4 1.365e+04 6.633e-09
 35.29087     63.8 1.363e+04 7.815e-09
 35.31052     63.9 1.362e+04 8.773e-09
 35.33016     64.0 1.356e+04 9.398e-09
 35.34981     63.9 1.349e+04 9.573e-09
 35.36945     63.8 1.342e+04 9.400e-09
 35.38909     63.7 1.325e+04 8.918e-09
 35.40363     63.5 1.305e+04 8.162e-09
 35.41346     64.4 1.321e+04 8.811e-09
 35.42838     64.1 1.303e+04 8.347e-09
 35.44803     63.7 1.286e+04 7.730e-09
 35.46767     63.2 1.272e+04 7.189e-09
 35.49723     63.2 1.254e+04 6.410e-09
 35.53662     63.3 1.228e+04 5.265e-09
 35.57388     64.2 1.199e+04 3.649e-09
 35.59352     64.2 1.214e+04 3.999e-09
 35.61519     65.4 1.193e+04 2.323e-09
 35.65448     66.6 1.186e+04 1.407e-09
 35.69377     68.1 1.159e+04 1.205e-09
 35.73306     69.9 1.156e+04 1.208e-09
 35.77235     71.7 1.151e+04 1.272e-09
 35.81163     73.3 1.146e+04 1.391e-09
 35.85092     74.8 1.137e+04 1.858e-09
 35.89021     76.1 1.142e+04 2.598e-09
 35.91958     76.4 1.149e+04 3.173e-09
 35.93913     76.4 1.155e+04 3.870e-09
 35.95307     76.4 1.162e+04 4.733e-09
 35.96289     76.5 1.157e+04 4.645e-09
 35.97841     76.4 1.165e+04 5.427e-09
 35.99806     76.1 1.171e+04 6.087e-09
 36.01770     75.6 1.174e+04 6.144e-09
 36.03735     75.1 1.170e+04 6.042e-09
 36.05699     74.7 1.158e+04 5.657e-09
 36.07663     74.2 1.146e+04 5.065e-09
 36.09628     73.7 1.133e+04 4.607e-09
 36.11592     73.2 1.124e+04 4.482e-09
 36.13294     72.8 1.124e+04 4.502e-09
 36.14276     73.2 1.125e+04 4.580e-09
 36.15521     72.9 1.126e+04 4.681e-09
 36.17485     72.8 1.128e+04 4.897e-09
 36.19450     72.8 1.131e+04 5.211e-09
 36.21414     72.9 1.135e+04 5.640e-09
 36.23379     73.0 1.143e+04 6.195e-09
 36.25343     73.2 1.169e+04 7.162e-09
 36.27307     73.2 1.199e+04 9.328e-09
 36.29272     73.4 1.232e+04 1.262e-08
 36.31236     73.6 1.260e+04 1.654e-08
 36.32263     73.9 1.283e+04 1.974e-08
 36.33245     75.1 1.278e+04 1.779e-08
 36.35165     75.3 1.322e+04 2.309e-08
 36.37129     75.6 1.347e+04 2.896e-08
 36.39094     76.2 1.371e+04 3.273e-08
 36.41058     76.6 1.381e+04 3.165e-08
 36.43023     76.4 1.384e+04 2.694e-08
 36.44987     75.2 1.379e+04 2.330e-08
 36.46951     73.0 1.365e+04 2.376e-08
 36.48916     71.1 1.363e+04 2.912e-08
 36.50250     70.1 1.380e+04 3.622e-08
 36.50736     70.3 1.430e+04 4.275e-08
 36.51362     69.9 1.434e+04 4.430e-08
 36.52344     69.6 1.423e+04 4.311e-08
 36.53326     69.4 1.414e+04 4.158e-08
 36.54804     69.5 1.368e+04 3.308e-08
 36.56773     69.2 1.288e+04 1.952e-08
 36.58738     68.0 1.216e+04 1.022e-08
 36.60702     66.4 1.147e+04 6.105e-09
 36.62667     65.8 1.098e+04 4.792e-09
 36.64631     65.9 1.076e+04 4.276e-09
 36.66595     66.3 1.064e+04 3.776e-09
 36.68237     66.8 1.060e+04 3.230e-09
 36.69219     66.3 1.047e+04 2.044e-09
 36.70524     66.6 1.045e+04 1.733e-09
 36.72489     66.9 1.042e+04 1.609e-09
 36.75445     67.4 1.022e+04 1.565e-09
 36.78392     67.7 1.029e+04 1.768e-09
 36.80346     67.7 1.045e+04 2.138e-09
 36.82311     67.6 1.071e+04 2.802e-09
 36.84275     67.1 1.098e+04 3.958e-09
 36.86224     66.5 1.126e+04 5.618e-09
 36.87206     67.1 1.094e+04 4.746e-09
 36.88204     66.6 1.124e+04 6.342e-09
 36.90168     66.1 1.153e+04 7.948e-09
 36.92133     65.4 1.184e+04 9.514e-09
 36.94097     64.2 1.217e+04 1.145e-08
 36.96061     62.9 1.256e+04 1.480e-08
 36.98026     61.6 1.301e+04 1.888e-08
 36.99990     60.1 1.345e+04 2.142e-08
 37.01955     58.2 1.352e+04 2.122e-08
 37.03919     56.1 1.342e+04 1.899e-08
 37.05193     53.8 1.307e+04 1.540e-08
 37.06175     55.0 1.393e+04 2.142e-08
 37.07848     52.3 1.337e+04 1.429e-08
 37.09812     49.4 1.282e+04 1.041e-08
 37.11777     47.0 1.227e+04 9.522e-09
 37.13741     45.2 1.217e+04 9.627e-09
 37.15705     44.1 1.204e+04 1.023e-08
 37.17670     43.3 1.189e+04 1.075e-08
 37.19634     42.4 1.181e+04 1.078e-08
 37.21599     42.1 1.142e+04 9.850e-09
 37.23180     41.6 1.107e+04 8.399e-09
 37.24162     41.8 1.105e+04 8.075e-09
 37.25527     41.9 1.066e+04 6.363e-09
 37.27492     41.8 1.039e+04 5.067e-09
 37.29456     42.0 1.010e+04 3.714e-09
 37.31421     41.8 9.967e+03 2.972e-09
 37.34377     42.6 9.697e+03 2.071e-09
 37.38316     43.0 9.271e+03 1.519e-09
 37.41187     43.9 9.024e+03 1.504e-09
 37.43151     43.6 9.260e+03 1.898e-09
 37.44536     44.7 9.165e+03 1.917e-09
 37.46501     43.7 9.271e+03 2.208e-09
 37.50102     44.7 9.152e+03 2.242e-09
 37.54031     45.5 9.119e+03 2.328e-09
 37.57960     46.3 9.085e+03 2.509e-09
 37.61888     47.0 9.096e+03 2.801e-09
 37.65817     47.8 9.118e+03 3.140e-09
 37.68754     48.2 9.230e+03 3.807e-09
 37.70709     48.2 9.361e+03 4.544e-09
 37.72673     48.2 9.534e+03 5.229e-09
 37.74638     47.7 9.777e+03 6.050e-09
 37.76602     46.7 1.010e+04 7.320e-09
 37.78123     45.2 1.043e+04 9.434e-09
 37.79105     44.2 1.050e+04 9.807e-09
 37.80531     42.7 1.075e+04 1.210e-08
 37.82495     41.5 1.077e+04 1.235e-08
 37.84460     39.9 1.072e+04 1.136e-08
 37.86424     38.0 1.042e+04 8.990e-09
 37.88388     34.8 1.013e+04 7.333e-09
 37.90353     33.9 9.754e+03 6.816e-09
 37.93309     30.7 9.683e+03 6.394e-09
 37.97248     28.2 9.659e+03 6.940e-09
 38.01176     26.4 9.655e+03 7.569e-09
 38.05105     25.9 9.373e+03 6.575e-09
 38.09034     25.9 8.910e+03 4.566e-09
 38.12963     26.3 8.472e+03 2.567e-09
 38.15099     26.2 8.372e+03 1.535e-09
 38.17063     27.6 8.011e+03 1.444e-09
 38.20820     28.1 7.891e+03 1.236e-09
 38.24749     29.2 7.954e+03 1.316e-09
 38.28678     30.7 8.093e+03 1.602e-09
 38.32607     32.5 8.230e+03 1.899e-09
 38.36536     34.3 8.349e+03 1.990e-09
 38.40465     36.0 8.399e+03 1.927e-09
 38.44393     37.6 8.474e+03 1.828e-09
 38.48322     39.2 8.562e+03 1.778e-09
 38.51073     40.6 8.687e+03 1.859e-09
 38.53037     41.1 8.713e+03 1.963e-09
 38.56180     42.4 8.839e+03 2.006e-09
 38.60109     43.5 9.027e+03 2.166e-09
 38.64037     44.6 9.325e+03 2.757e-09
 38.67966     45.6 9.614e+03 3.415e-09
 38.71895     46.5 9.855e+03 4.081e-09
 38.75824     47.3 1.017e+04 4.813e-09
 38.78761     47.7 1.036e+04 5.161e-09
 38.80715     47.9 1.051e+04 5.533e-09
 38.82680     48.0 1.086e+04 6.758e-09
 38.84644     48.3 1.104e+04 7.665e-09
 38.87037     48.4 1.145e+04 9.585e-09
 38.89011     48.5 1.173e+04 1.162e-08
 38.91539     48.6 1.182e+04 1.124e-08
 38.95468     48.9 1.164e+04 8.698e-09
 38.99397     49.3 1.142e+04 5.649e-09
 39.03325     49.7 1.117e+04 4.072e-09
 39.07254     50.8 1.110e+04 3.984e-09
 39.11183     52.0 1.115e+04 4.361e-09
 39.15112     53.1 1.143e+04 5.628e-09
 39.19041     53.7 1.181e+04 7.720e-09
 39.22969     53.9 1.218e+04 1.076e-08
 39.24985     53.9 1.253e+04 1.243e-08
 39.26950     55.1 1.270e+04 1.466e-08
 39.30827     54.4 1.277e+04 1.428e-08
 39.34756     54.3 1.253e+04 1.107e-08
 39.38685     54.8 1.203e+04 5.842e-09
 39.42613     55.4 1.169e+04 2.650e-09
 39.46542     55.8 1.149e+04 1.478e-09
 39.50471     57.1 1.126e+04 1.359e-09
 39.54400     59.1 1.124e+04 1.340e-09
 39.58329     61.2 1.125e+04 1.288e-09
 39.60959     63.4 1.129e+04 1.175e-09
 39.62924     64.1 1.130e+04 1.281e-09
 39.66186     66.1 1.138e+04 1.235e-09
 39.70115     68.1 1.149e+04 1.168e-09
 39.74044     70.0 1.158e+04 1.135e-09
 39.77973     71.8 1.163e+04 1.148e-09
 39.81901     73.6 1.174e+04 1.165e-09
 39.85830     75.4 1.186e+04 1.172e-09
 39.89759     76.9 1.199e+04 1.178e-09
 39.93688     78.2 1.212e+04 1.206e-09
 39.96933     79.4 1.224e+04 1.277e-09
 39.98898     79.5 1.238e+04 1.605e-09
 40.01545     80.3 1.255e+04 1.812e-09
 40.05474     81.2 1.259e+04 2.145e-09
 40.09403     82.1 1.268e+04 2.543e-09
 40.13332     82.8 1.286e+04 2.897e-09
 40.17261     83.3 1.303e+04 3.174e-09
 40.21189     83.9 1.312e+04 3.519e-09
 40.25118     84.6 1.316e+04 4.196e-09
 40.29047     85.1 1.323e+04 5.492e-09
 40.32907     85.4 1.331e+04 7.445e-09
 40.34872     83.9 1.324e+04 6.958e-09
 40.36905     84.2 1.329e+04 8.518e-09
 40.40833     84.2 1.325e+04 9.062e-09
 40.44762     84.2 1.314e+04 8.606e-09
 40.48691     84.5 1.287e+04 6.859e-09
 40.52620     85.1 1.264e+04 4.603e-09
 40.56549     86.0 1.245e+04 3.064e-09
 40.60478     87.2 1.219e+04 2.722e-09
 40.64406     88.8 1.216e+04 2.785e-09
 40.68335     90.7 1.211e+04 3.234e-09
 40.70846     92.4 1.221e+04 4.026e-09
 40.72810     91.5 1.224e+04 4.532e-09
 40.76193     92.9 1.231e+04 4.823e-09
 40.80122     93.9 1.230e+04 4.712e-09
 40.84050     95.4 1.213e+04 3.729e-09
 40.87979     97.2 1.194e+04 2.305e-09
 40.91908     99.1 1.187e+04 1.279e-09
 40.95837    100.8 1.174e+04 8.055e-10
 40.99766    102.9 1.155e+04 7.407e-10
 41.03694    105.3 1.153e+04 7.561e-10
 41.06820    107.8 1.148e+04 8.321e-10
 41.08784    108.0 1.144e+04 8.412e-10
 41.11552    110.6 1.138e+04 1.059e-09
 41.15481    113.3 1.142e+04 1.468e-09
 41.19410    115.9 1.164e+04 2.011e-09
 41.23338    117.7 1.176e+04 2.420e-09
 41.25779    118.8 1.175e+04 2.937e-09
 41.26752    119.0 1.174e+04 2.940e-09
 41.28230    120.4 1.176e+04 3.601e-09
 41.30194    121.8 1.190e+04 4.461e-09
 41.32159    122.8 1.215e+04 5.511e-09
 41.34123    123.4 1.247e+04 7.054e-09
 41.36087    123.9 1.276e+04 9.571e-09
 41.38052    124.2 1.304e+04 1.336e-08
 41.40016    124.4 1.331e+04 1.820e-08
 41.41981    124.6 1.352e+04 2.235e-08
 41.43756    124.6 1.356e+04 2.328e-08
 41.44739    124.9 1.355e+04 2.219e-08
 41.45909    124.7 1.351e+04 2.184e-08
 41.47874    124.5 1.333e+04 2.011e-08
 41.49838    124.7 1.296e+04 1.661e-08
 41.51803    124.8 1.273e+04 1.453e-08
 41.54759    125.2 1.248e+04 1.200e-08
 41.58698    125.7 1.210e+04 8.627e-09
 41.62626    126.4 1.178e+04 6.094e-09
 41.66555    127.3 1.143e+04 4.654e-09
 41.70484    128.6 1.120e+04 4.332e-09
 41.74413    130.2 1.121e+04 4.426e-09
 41.78342    132.0 1.126e+04 4.641e-09
 41.80732    133.4 1.133e+04 4.919e-09
 41.82697    133.6 1.112e+04 3.426e-09
 41.85207    134.5 1.125e+04 3.795e-09
 41.87162    135.0 1.130e+04 4.075e-09
 41.89126    135.5 1.130e+04 4.242e-09
 41.91091    136.2 1.128e+04 4.249e-09
 41.93055    136.8 1.127e+04 4.288e-09
 41.95019    137.5 1.124e+04 4.331e-09
 41.96984    138.2 1.120e+04 4.372e-09
 41.98700    138.9 1.116e+04 4.322e-09
 41.99682    139.5 1.112e+04 4.112e-09
 42.00913    140.2 1.112e+04 4.104e-09
 42.02877    141.0 1.109e+04 3.985e-09
 42.04841    141.7 1.104e+04 3.698e-09
 42.06806    142.4 1.096e+04 3.317e-09
 42.08770    143.1 1.087e+04 2.949e-09
 42.10735    143.9 1.077e+04 2.610e-09
 42.12699    144.6 1.070e+04 2.389e-09
 42.14664    145.5 1.064e+04 2.283e-09
 42.16628    146.2 1.063e+04 2.283e-09
 42.17669    146.9 1.063e+04 2.294e-09
 42.18651    147.7 1.073e+04 2.587e-09
 42.20557    148.5 1.073e+04 2.601e-09
 42.22521    149.3 1.074e+04 2.703e-09
 42.24486    150.1 1.081e+04 2.948e-09
 42.26450    150.8 1.091e+04 3.324e-09
 42.28414    151.4 1.103e+04 3.815e-09
 42.30379    151.9 1.115e+04 4.418e-09
 42.32343    152.4 1.127e+04 5.159e-09
 42.34308    152.8 1.139e+04 6.135e-09
 42.35656    153.0 1.154e+04 7.377e-09
 42.36638    153.5 1.168e+04 7.561e-09
 42.38236    153.5 1.189e+04 9.253e-09
 42.40201    153.2 1.213e+04 1.134e-08
 42.42165    152.8 1.240e+04 1.376e-08
 42.44130    151.9 1.275e+04 1.673e-08
 42.46094    150.2 1.330e+04 2.177e-08
 42.48058    147.5 1.429e+04 3.138e-08
 42.50023    143.8 1.545e+04 4.346e-08
 42.51987    138.9 1.640e+04 4.464e-08
 42.53643    132.7 1.650e+04 3.762e-08
 42.54625    129.6 1.542e+04 3.272e-08
 42.55916    123.1 1.427e+04 2.195e-08
 42.57880    117.6 1.282e+04 1.420e-08
 42.59845    113.7 1.173e+04 9.862e-09
 42.61809    111.0 1.161e+04 8.408e-09
 42.63774    109.4 1.160e+04 8.427e-09
 42.65738    108.2 1.163e+04 8.691e-09
 42.67702    107.3 1.169e+04 9.304e-09
 42.69667    106.4 1.169e+04 9.716e-09
 42.71630    105.7 1.162e+04 9.619e-09
 42.73594    105.8 1.141e+04 8.880e-09
 42.75560    105.5 1.113e+04 8.267e-09
 42.77524    105.4 1.083e+04 7.316e-09
 42.79489    105.4 1.058e+04 6.350e-09
 42.81453    105.5 1.037e+04 5.494e-09
 42.83418    105.7 1.019e+04 4.821e-09
 42.85382    106.1 1.005e+04 4.465e-09
 42.87346    106.7 1.003e+04 4.450e-09
 42.89311    107.5 1.007e+04 4.546e-09
 42.90599    108.2 1.021e+04 4.949e-09
 42.91581    108.1 1.075e+04 6.419e-09
 42.93240    108.6 1.112e+04 8.282e-09
 42.95204    109.3 1.159e+04 1.149e-08
 42.97168    110.4 1.169e+04 1.124e-08
 42.99133    111.2 1.209e+04 1.466e-08
 43.01097    112.0 1.243e+04 1.815e-08
 43.03062    112.8 1.264e+04 2.043e-08
 43.05026    113.4 1.269e+04 2.111e-08
 43.06990    114.0 1.265e+04 2.094e-08
 43.08586    114.7 1.257e+04 2.074e-08
 43.09568    114.1 1.411e+04 4.046e-08
 43.10919    114.9 1.401e+04 3.914e-08
 43.12884    115.9 1.391e+04 3.758e-08
 43.14848    117.0 1.385e+04 3.674e-08
 43.16812    118.0 1.384e+04 3.709e-08
 43.18777    119.1 1.387e+04 3.704e-08
 43.20741    120.2 1.382e+04 3.578e-08
 43.22706    121.2 1.364e+04 3.386e-08
 43.24670    122.5 1.344e+04 3.170e-08
 43.26573    123.6 1.326e+04 2.948e-08
 43.27555    123.1 1.323e+04 2.778e-08
 43.28599    124.2 1.302e+04 2.580e-08
 43.30563    125.4 1.282e+04 2.450e-08
 43.32528    126.8 1.278e+04 2.447e-08
 43.34492    128.1 1.279e+04 2.483e-08
 43.36456    129.3 1.285e+04 2.566e-08
 43.38421    130.6 1.304e+04 2.747e-08
 43.40385    132.0 1.329e+04 3.068e-08
 43.42350    133.0 1.361e+04 3.490e-08
 43.44314    134.0 1.397e+04 3.992e-08
 43.45542    134.8 1.435e+04 4.575e-08
 43.46524    134.7 1.438e+04 4.517e-08
 43.48243    135.5 1.475e+04 5.193e-08
 43.50207    136.4 1.511e+04 5.900e-08
 43.52172    137.1 1.540e+04 6.593e-08
 43.54136    137.8 1.562e+04 7.129e-08
 43.56100    138.4 1.577e+04 7.465e-08
 43.58065    139.1 1.589e+04 7.688e-08
 43.60029    139.8 1.602e+04 7.874e-08
 43.61994    140.5 1.621e+04 8.136e-08
 43.63529    141.1 1.644e+04 8.575e-08
 43.64511    141.5 1.638e+04 8.623e-08
 43.65922    142.1 1.669e+04 9.589e-08
 43.67887    142.9 1.692e+04 1.087e-07
 43.69851    143.8 1.712e+04 1.202e-07
 43.71816    145.1 1.735e+04 1.340e-07
 43.73009    145.5 1.752e+04 1.370e-07
 43.73495    145.6 1.760e+04 1.537e-07
 43.74261    145.7 1.781e+04 1.738e-07
 43.75244    145.8 1.788e+04 1.910e-07
 43.76226    146.3 1.779e+04 2.012e-07
 43.77208    147.1 1.768e+04 2.106e-07
 43.78190    148.0 1.779e+04 2.226e-07
 43.79172    148.5 1.787e+04 2.198e-07
 43.80155    148.5 1.795e+04 2.059e-07
 43.81137    148.6 1.779e+04 1.804e-07
 43.81998    148.9 1.746e+04 1.535e-07
 43.82489    148.8 1.758e+04 2.496e-07
 43.83101    149.4 1.727e+04 2.175e-07
 43.84083    150.0 1.708e+04 1.945e-07
 43.85066    150.3 1.699e+04 1.792e-07
 43.86048    150.5 1.685e+04 1.666e-07
 43.87030    150.9 1.659e+04 1.554e-07
 43.88012    151.5 1.645e+04 1.474e-07
 43.88994    152.4 1.647e+04 1.470e-07
 43.89977    153.3 1.661e+04 1.497e-07
 43.90959    154.0 1.688e+04 1.591e-07
 43.91482    154.5 1.711e+04 1.726e-07
 43.91973    155.0 1.735e+04 2.315e-07
 43.92923    155.4 1.757e+04 2.507e-07
 43.93905    155.8 1.777e+04 2.517e-07
 43.94888    156.2 1.788e+04 2.419e-07
 43.95870    156.6 1.799e+04 2.265e-07
 43.96852    157.0 1.807e+04 2.161e-07
 43.97834    157.4 1.804e+04 2.199e-07
 43.98816    157.6 1.813e+04 2.264e-07
 43.99799    157.9 1.838e+04 2.256e-07
 44.00476    158.2 1.848e+04 2.226e-07
 44.00967    157.5 1.866e+04 1.479e-07
 44.01763    157.5 1.872e+04 1.368e-07
 44.02745    157.4 1.882e+04 1.186e-07
 44.03727    157.3 1.867e+04 1.050e-07
 44.05206    158.0 1.899e+04 1.018e-07
 44.06679    157.6 1.856e+04 7.996e-08
 44.07656    157.1 1.787e+04 6.217e-08
 44.08638    156.0 1.678e+04 4.503e-08
 44.09469    154.9 1.543e+04 3.592e-08
 44.09960    154.0 1.434e+04 3.180e-08
 44.10603    153.0 1.319e+04 2.764e-08
 44.11585    152.5 1.257e+04 2.569e-08
 44.12567    152.0 1.219e+04 2.408e-08
 44.13549    151.7 1.211e+04 2.339e-08
 44.14532    151.4 1.211e+04 2.242e-08
 44.15514    151.3 1.215e+04 2.218e-08
 44.16992    151.1 1.244e+04 2.372e-08
 44.18472    150.4 1.261e+04 2.427e-08
 44.19455    149.9 1.267e+04 2.625e-08
 44.20926    149.0 1.301e+04 2.795e-08
 44.22394    148.1 1.342e+04 2.951e-08
 44.23371    147.4 1.378e+04 3.193e-08
 44.24354    146.4 1.424e+04 3.695e-08
 44.25336    145.7 1.457e+04 4.111e-08
 44.26318    144.8 1.495e+04 4.680e-08
 44.27300    143.9 1.534e+04 5.329e-08
 44.27947    142.8 1.572e+04 6.013e-08
 44.28438    143.2 1.556e+04 5.775e-08
 44.29265    142.0 1.577e+04 6.111e-08
 44.30247    140.7 1.579e+04 6.120e-08
 44.31229    139.4 1.570e+04 5.909e-08
 44.32211    138.3 1.547e+04 5.408e-08
 44.33193    137.1 1.517e+04 4.768e-08
 44.33850    136.0 1.480e+04 4.070e-08
 44.34341    134.1 1.589e+04 4.430e-08
 44.35158    131.3 1.708e+04 4.616e-08
 44.36140    126.3 2.041e+04 6.456e-08
 44.36941    120.1 2.170e+04 1.784e-07
 44.37432    124.1 2.136e+04 8.684e-08
 44.38104    118.0 2.094e+04 3.644e-07
 44.39087    113.7 1.891e+04 1.446e-06
 44.40069    111.3 1.775e+04 3.420e-06
 44.41051    109.6 1.761e+04 3.961e-06
 44.42033    107.9 1.770e+04 3.567e-06
 44.43015    106.6 1.804e+04 2.145e-06
 44.43998    105.8 1.884e+04 7.914e-07
 44.44980    104.6 2.066e+04 1.898e-07
 44.45934    102.4 2.175e+04 6.661e-08
 44.46425    103.7 2.159e+04 1.015e-07
 44.46944    101.0 2.235e+04 3.177e-08
 44.48422     96.4 1.598e+04 1.745e-08
 44.50392     94.1 1.147e+04 1.313e-08
 44.52356     94.8 1.082e+04 1.115e-08
 44.54321     96.2 1.063e+04 1.012e-08
 44.55429     97.7 1.058e+04 9.279e-09
 44.56411     98.2 1.075e+04 1.070e-08
 44.58249     99.5 1.069e+04 9.929e-09
 44.60214    100.6 1.060e+04 9.207e-09
 44.62178    101.5 1.050e+04 8.590e-09
 44.64143    102.3 1.040e+04 8.043e-09
 44.66107    103.1 1.030e+04 7.465e-09
 44.68071    104.0 1.019e+04 6.817e-09
 44.70036    104.8 1.007e+04 6.130e-09
 44.72000    105.6 9.957e+03 5.525e-09
 44.73416    106.3 9.864e+03 5.092e-09
 44.74398    107.4 1.007e+04 6.094e-09
 44.75929    108.1 9.982e+03 5.523e-09
 44.77893    108.6 9.900e+03 5.141e-09
 44.79858    109.2 9.843e+03 4.900e-09
 44.81822    109.8 9.805e+03 4.745e-09
 44.83787    110.5 9.815e+03 4.702e-09
 44.85751    110.9 9.809e+03 4.688e-09
 44.88707    112.6 9.843e+03 4.822e-09
 44.92646    114.1 9.804e+03 4.698e-09
 44.96575    115.9 9.733e+03 4.376e-09
 44.99512    116.6 9.810e+03 4.703e-09
 45.01466    117.4 9.774e+03 4.810e-09
 45.03431    118.4 9.741e+03 4.703e-09
 45.05395    119.5 9.755e+03 4.643e-09
 45.07359    120.5 9.799e+03 4.674e-09
 45.09324    121.5 9.909e+03 4.811e-09
 45.10372    122.5 1.006e+04 5.095e-09
 45.11354    122.2 1.025e+04 5.984e-09
 45.13253    123.3 1.042e+04 6.402e-09
 45.15217    124.3 1.062e+04 7.037e-09
 45.17181    125.3 1.081e+04 7.828e-09
 45.19146    126.4 1.098e+04 8.697e-09
 45.21110    127.3 1.115e+04 9.713e-09
 45.23075    128.3 1.129e+04 1.078e-08
 45.25039    129.3 1.135e+04 1.158e-08
 45.27995    130.8 1.166e+04 1.339e-08
 45.31934    132.3 1.172e+04 1.373e-08
 45.35863    133.9 1.173e+04 1.350e-08
 45.38800    134.1 1.159e+04 1.281e-08
 45.40754    134.6 1.155e+04 1.249e-08
 45.42719    135.4 1.161e+04 1.274e-08
 45.44683    136.1 1.171e+04 1.306e-08
 45.46346    136.7 1.186e+04 1.357e-08
 45.47328    135.6 1.093e+04 8.637e-09
 45.48612    136.4 1.095e+04 8.609e-09
 45.50576    137.1 1.105e+04 8.836e-09
 45.52541    137.7 1.127e+04 9.456e-09
 45.54505    138.1 1.161e+04 1.071e-08
 45.56469    138.5 1.206e+04 1.297e-08
 45.58434    138.9 1.261e+04 1.663e-08
 45.60398    139.3 1.323e+04 2.217e-08
 45.62363    139.6 1.382e+04 2.982e-08
 45.64327    139.8 1.442e+04 3.959e-08
 45.66291    139.6 1.345e+04 2.614e-08
 45.68256    139.6 1.402e+04 3.407e-08
 45.70220    139.5 1.443e+04 3.976e-08
 45.71532    139.0 1.452e+04 4.005e-08
 45.72514    138.6 1.442e+04 3.703e-08
 45.74149    137.9 1.431e+04 3.527e-08
 45.76113    137.2 1.392e+04 2.957e-08
 45.78078    136.5 1.329e+04 2.215e-08
 45.80042    135.9 1.253e+04 1.529e-08
 45.82007    135.1 1.189e+04 1.093e-08
 45.83302    134.2 1.145e+04 8.444e-09
 45.84294    133.6 1.127e+04 8.498e-09
 45.86937    131.5 1.116e+04 8.312e-09
 45.90866    129.5 1.128e+04 8.813e-09
 45.94795    127.2 1.153e+04 9.181e-09
 45.98724    124.2 1.155e+04 8.433e-09
 46.02652    121.3 1.136e+04 5.163e-09
 46.06581    118.6 1.096e+04 1.639e-09
 46.10510    115.2 9.870e+03 5.359e-10
 46.14439    112.7 9.515e+03 5.192e-10
 46.18313    111.6 9.459e+03 6.403e-10
 46.20278    111.8 9.431e+03 6.464e-10
 46.22296    111.5 9.693e+03 1.199e-09
 46.25233    110.9 9.942e+03 1.672e-09
 46.27188    110.6 1.014e+04 2.190e-09
 46.29152    110.0 1.054e+04 3.342e-09
 46.31117    108.9 1.114e+04 5.462e-09
 46.33081    107.0 1.189e+04 8.734e-09
 46.35045    104.3 1.266e+04 1.265e-08
 46.37010    101.3 1.327e+04 1.586e-08
 46.38245     97.9 1.351e+04 1.646e-08
 46.39227     98.1 1.408e+04 2.199e-08
 46.40939     94.7 1.398e+04 2.125e-08
 46.42903     91.7 1.355e+04 1.811e-08
 46.44867     89.4 1.289e+04 1.345e-08
 46.46832     87.5 1.222e+04 9.363e-09
 46.48796     86.1 1.171e+04 6.668e-09
 46.50761     84.9 1.140e+04 5.226e-09
 46.52725     84.0 1.122e+04 4.540e-09
 46.54689     83.3 1.109e+04 4.258e-09
 46.56232     82.9 1.097e+04 4.074e-09
 46.57214     83.0 1.103e+04 4.486e-09
 46.58618     82.8 1.091e+04 4.257e-09
 46.60583     82.4 1.081e+04 3.646e-09
 46.62547     82.1 1.072e+04 3.179e-09
 46.65503     81.4 1.064e+04 2.688e-09
 46.69442     80.3 1.045e+04 2.195e-09
 46.73371     79.4 1.029e+04 2.022e-09
 46.77300     78.7 1.021e+04 1.929e-09
 46.81228     78.1 1.022e+04 1.915e-09
 46.85157     77.2 1.026e+04 2.004e-09
 46.89086     76.2 1.039e+04 2.393e-09
 46.92023     75.0 1.062e+04 2.996e-09
 46.93188     73.8 1.093e+04 3.674e-09
 46.94171     73.1 1.113e+04 4.558e-09
 46.95942     70.6 1.194e+04 7.222e-09
 46.97906     67.5 1.293e+04 1.479e-08
 46.99871     65.3 1.378e+04 2.784e-08
 47.01835     63.5 1.430e+04 3.619e-08
 47.03800     61.6 1.426e+04 3.467e-08
 47.05764     60.0 1.384e+04 2.699e-08
 47.07728     58.3 1.321e+04 1.843e-08
 47.09693     56.7 1.259e+04 1.256e-08
 47.11175     55.5 1.217e+04 9.390e-09
 47.12158     55.1 1.235e+04 1.157e-08
 47.13622     54.7 1.231e+04 1.131e-08
 47.15586     54.5 1.233e+04 1.155e-08
 47.17550     54.5 1.230e+04 1.187e-08
 47.19515     54.5 1.221e+04 1.184e-08
 47.21479     54.6 1.198e+04 1.128e-08
 47.24436     54.5 1.159e+04 9.149e-09
 47.28200     54.9 1.086e+04 6.079e-09
 47.30164     54.0 1.093e+04 6.281e-09
 47.32303     54.9 1.013e+04 2.907e-09
 47.36232     55.6 9.656e+03 1.244e-09
 47.40160     56.5 9.291e+03 7.996e-10
 47.44089     58.4 9.164e+03 7.757e-10
 47.48018     60.8 9.150e+03 8.002e-10
 47.51947     63.2 9.175e+03 8.894e-10
 47.55876     65.6 9.251e+03 1.027e-09
 47.59805     68.0 9.345e+03 1.174e-09
 47.63733     70.3 9.418e+03 1.282e-09
 47.66138     72.5 9.428e+03 1.336e-09
 47.68103     71.8 9.557e+03 1.773e-09
 47.71591     73.9 9.550e+03 1.830e-09
 47.75520     76.0 9.539e+03 1.872e-09
 47.79449     77.9 9.531e+03 1.875e-09
 47.83377     79.6 9.495e+03 1.805e-09
 47.87306     81.2 9.432e+03 1.699e-09
 47.91235     82.7 9.504e+03 1.709e-09
 47.95164     84.0 9.769e+03 1.909e-09
 47.98101     84.1 9.890e+03 2.121e-09
 48.00055     84.4 1.004e+04 2.593e-09
 48.02020     84.7 1.033e+04 3.599e-09
 48.03075     84.9 1.074e+04 5.227e-09
 48.04057     83.6 1.093e+04 5.889e-09
 48.05948     83.5 1.138e+04 8.588e-09
 48.07913     83.6 1.179e+04 1.171e-08
 48.09877     83.7 1.210e+04 1.457e-08
 48.11842     84.0 1.227e+04 1.625e-08
 48.13806     84.1 1.230e+04 1.627e-08
 48.15770     84.3 1.221e+04 1.551e-08
 48.18727     84.0 1.161e+04 1.122e-08
 48.22665     84.7 1.107e+04 8.520e-09
 48.26594     85.8 1.042e+04 5.984e-09
 48.30523     86.8 9.948e+03 4.347e-09
 48.34452     87.7 9.519e+03 3.148e-09
 48.38086     88.8 9.246e+03 2.399e-09
 48.40051     87.4 8.647e+03 1.129e-09
 48.42309     89.2 8.653e+03 1.131e-09
 48.45913     91.1 8.661e+03 1.181e-09
 48.47877     90.8 8.687e+03 1.280e-09
 48.50167     92.7 8.781e+03 1.472e-09
 48.54096     94.4 9.054e+03 1.844e-09
 48.58025     94.9 9.333e+03 2.285e-09
 48.60961     94.8 9.504e+03 2.693e-09
 48.62916     95.1 9.771e+03 3.419e-09
 48.64880     95.6 1.016e+04 4.582e-09
 48.66845     95.7 1.053e+04 5.859e-09
 48.68809     95.6 1.083e+04 6.908e-09
 48.70774     95.3 1.106e+04 7.564e-09
 48.72738     94.6 1.123e+04 7.931e-09
 48.74702     93.7 1.139e+04 8.392e-09
 48.76005     92.5 1.160e+04 9.507e-09
 48.76987     91.2 1.195e+04 1.343e-08
 48.78631     90.2 1.226e+04 1.645e-08
 48.80596     89.3 1.262e+04 1.968e-08
 48.82560     88.3 1.280e+04 2.038e-08
 48.84524     87.3 1.276e+04 1.966e-08
 48.86489     85.8 1.270e+04 1.727e-08
 48.88453     83.2 1.285e+04 1.725e-08
 48.90418     78.8 1.348e+04 1.972e-08
 48.92382     72.9 1.465e+04 3.033e-08
 48.93992     66.9 1.516e+04 4.235e-08
 48.94974     65.8 1.432e+04 3.648e-08
 48.96311     60.7 1.435e+04 3.622e-08
 48.98275     55.5 1.413e+04 2.990e-08
 49.00240     49.8 1.335e+04 2.008e-08
 49.02204     44.1 1.213e+04 1.280e-08
 49.04168     39.8 1.130e+04 1.240e-08
 49.06133     37.3 1.120e+04 1.263e-08
 49.08097     35.8 1.110e+04 1.305e-08
 49.10062     34.8 1.094e+04 1.239e-08
 49.11979     34.2 1.070e+04 1.053e-08
 49.12961     34.5 1.050e+04 1.033e-08
 49.13991     34.3 1.026e+04 9.326e-09
 49.15955     34.1 1.001e+04 7.623e-09
 49.17919     33.6 9.738e+03 6.021e-09
 49.19884     33.0 9.412e+03 4.846e-09
 49.21848     32.6 9.097e+03 4.154e-09
 49.23813     32.6 8.890e+03 3.884e-09
 49.25777     32.8 8.869e+03 3.960e-09
 49.27741     33.0 8.915e+03 4.268e-09
 49.29706     33.4 9.048e+03 4.853e-09
 49.30948     34.1 9.227e+03 5.643e-09
 49.31930     34.6 9.449e+03 5.860e-09
 49.33635     35.1 9.937e+03 7.765e-09
 49.35599     35.1 1.065e+04 1.091e-08
 49.37563     34.7 1.149e+04 1.602e-08
 49.39528     33.4 1.332e+04 3.177e-08
 49.41492     31.8 1.517e+04 6.391e-08
 49.42961     28.2 1.755e+04 1.224e-07
 49.43938     23.6 1.938e+04 3.056e-07
 49.44920     21.0 1.912e+04 7.181e-07
 49.45902     17.9 1.916e+04 8.833e-07
 49.46884     15.9 1.921e+04 6.170e-07
 49.47867     13.3 1.963e+04 2.804e-07
 49.48849      8.1 1.958e+04 8.586e-08
 49.49417      1.8 1.644e+04 4.526e-08
 49.49908      1.6 1.666e+04 5.626e-08
 49.50813     -4.7 1.411e+04 2.395e-08
 49.51795     -4.9 1.396e+04 2.332e-08
 49.53274    -10.2 1.141e+04 1.121e-08
 49.55243    -13.0 1.018e+04 7.691e-09
 49.57207    -14.3 9.748e+03 6.493e-09
 49.59172    -15.0 9.559e+03 5.879e-09
 49.61136    -15.4 9.429e+03 5.402e-09
 49.63101    -15.6 9.295e+03 4.958e-09
 49.65065    -15.8 9.223e+03 4.622e-09
 49.66922    -16.0 9.148e+03 4.307e-09
 49.67904    -16.3 9.574e+03 5.679e-09
 49.68994    -16.3 9.618e+03 5.647e-09
 49.70958    -16.4 9.607e+03 5.575e-09
 49.72923    -16.3 9.692e+03 5.716e-09
 49.74887    -16.3 9.869e+03 6.055e-09
 49.76851    -16.3 1.011e+04 6.666e-09
 49.78816    -16.2 1.041e+04 7.694e-09
 49.80780    -16.1 1.065e+04 8.883e-09
 49.82745    -15.5 1.092e+04 1.030e-08
 49.84709    -15.0 1.119e+04 1.160e-08
 49.85891    -14.5 1.146e+04 1.283e-08
 49.86874    -14.7 1.112e+04 1.051e-08
 49.88638    -14.7 1.119e+04 1.097e-08
 49.90602    -14.4 1.146e+04 1.221e-08
 49.92567    -13.8 1.174e+04 1.351e-08
 49.94531    -13.2 1.178e+04 1.405e-08
 49.96495    -12.6 1.205e+04 1.543e-08
 49.98460    -13.5 1.341e+04 1.989e-08
 50.00424    -20.7 1.993e+04 5.764e-08
 50.01893    -29.4 2.240e+04 1.835e-07
 50.02870    -32.2 1.913e+04 8.930e-07
 50.03852    -32.4 1.770e+04 3.272e-06
 50.04360    -31.7 1.688e+04 8.031e-06
 50.04851    -32.2 1.709e+04 6.049e-06
 50.05817    -32.8 1.704e+04 6.891e-06
 50.06799    -33.9 1.778e+04 3.670e-06
 50.07781    -35.1 1.991e+04 9.016e-07
 50.08763    -38.6 2.236e+04 2.342e-07
 50.09745    -42.3 2.099e+04 1.115e-07
 50.10728    -44.2 1.872e+04 7.465e-08
 50.12206    -45.1 1.721e+04 5.151e-08
 50.14175    -44.9 1.569e+04 3.467e-08
 50.16139    -44.1 1.473e+04 2.816e-08
 50.18104    -43.2 1.400e+04 2.373e-08
 50.20068    -42.3 1.345e+04 2.073e-08
 50.21865    -41.4 1.297e+04 1.813e-08
 50.22848    -42.2 1.294e+04 1.854e-08
 50.23997    -41.3 1.258e+04 1.645e-08
 50.25961    -40.6 1.219e+04 1.463e-08
 50.27926    -39.9 1.182e+04 1.321e-08
 50.29890    -39.2 1.155e+04 1.233e-08
 50.31855    -38.5 1.139e+04 1.191e-08
 50.33819    -37.9 1.131e+04 1.183e-08
 50.35783    -37.2 1.122e+04 1.185e-08
 50.37748    -36.2 1.115e+04 1.173e-08
 50.39712    -35.2 1.119e+04 1.113e-08
 50.40835    -34.3 1.136e+04 1.016e-08
 50.41817    -35.8 1.204e+04 1.723e-08
 50.43641    -35.3 1.201e+04 1.763e-08
 50.45605    -34.9 1.192e+04 1.808e-08
 50.47570    -34.5 1.193e+04 1.973e-08
 50.49534    -34.2 1.213e+04 2.282e-08
 50.51499    -33.3 1.241e+04 2.698e-08
 50.53463    -32.2 1.277e+04 3.136e-08
 50.55427    -31.2 1.301e+04 3.352e-08
 50.57392    -30.6 1.310e+04 3.345e-08
 50.58822    -30.2 1.308e+04 3.010e-08
 50.59804    -30.7 1.319e+04 3.037e-08
 50.61321    -30.7 1.302e+04 2.693e-08
 50.63285    -31.0 1.294e+04 2.411e-08
 50.65249    -31.3 1.295e+04 2.187e-08
 50.67214    -31.4 1.289e+04 1.963e-08
 50.69178    -31.4 1.263e+04 1.709e-08
 50.71143    -31.2 1.218e+04 1.388e-08
 50.73107    -31.0 1.171e+04 1.051e-08
 50.75071    -30.9 1.145e+04 7.706e-09
 50.76809    -31.0 1.140e+04 5.900e-09
 50.77791    -30.8 1.124e+04 6.184e-09
 50.79000    -30.7 1.111e+04 5.114e-09
 50.80965    -30.3 1.116e+04 4.839e-09
 50.82929    -30.0 1.151e+04 4.790e-09
 50.84893    -30.0 1.200e+04 5.012e-09
 50.86858    -31.2 1.315e+04 7.679e-09
 50.88822    -33.5 1.433e+04 1.807e-08
 50.90787    -34.6 1.518e+04 4.739e-08
 50.92751    -34.2 1.621e+04 1.017e-07
 50.94715    -32.5 1.659e+04 1.459e-07
 50.95773    -31.6 1.621e+04 1.440e-07
 50.96259    -31.5 1.613e+04 8.476e-08
 50.97161    -31.2 1.588e+04 7.919e-08
 50.98143    -30.9 1.521e+04 5.927e-08
 50.99126    -30.7 1.466e+04 4.386e-08
 51.00604    -31.7 1.367e+04 2.743e-08
 51.02573    -31.9 1.307e+04 1.716e-08
 51.04537    -32.8 1.218e+04 9.725e-09
 51.06502    -32.7 1.188e+04 8.130e-09
 51.08466    -31.7 1.175e+04 7.634e-09
 51.10431    -30.8 1.175e+04 7.370e-09
 51.12395    -30.0 1.180e+04 7.097e-09
 51.13765    -29.4 1.187e+04 6.974e-09
 51.14747    -29.2 1.175e+04 6.534e-09
 51.16324    -28.7 1.175e+04 6.664e-09
 51.18288    -28.4 1.176e+04 6.844e-09
 51.20253    -28.2 1.190e+04 7.085e-09
 51.22217    -28.2 1.223e+04 7.669e-09
 51.24181    -27.3 1.295e+04 1.186e-08
 51.26146    -27.5 1.305e+04 1.444e-08
 51.28110    -27.5 1.296e+04 1.614e-08
 51.30075    -27.5 1.278e+04 1.627e-08
 51.31752    -27.7 1.254e+04 1.458e-08
 51.32734    -26.7 1.238e+04 1.204e-08
 51.34003    -27.0 1.220e+04 1.165e-08
 51.35968    -27.3 1.212e+04 1.085e-08
 51.37932    -27.6 1.212e+04 9.703e-09
 51.39897    -28.1 1.206e+04 8.023e-09
 51.41861    -28.6 1.192e+04 6.356e-09
 51.43826    -29.1 1.167e+04 5.120e-09
 51.45790    -29.3 1.133e+04 4.181e-09
 51.47754    -29.3 1.105e+04 3.361e-09
 51.49719    -29.4 1.092e+04 2.664e-09
 51.50721    -29.7 1.087e+04 2.177e-09
 51.51703    -28.8 1.081e+04 2.489e-09
 51.53648    -29.1 1.078e+04 2.157e-09
 51.56604    -29.5 1.085e+04 2.011e-09
 51.60542    -29.7 1.085e+04 2.038e-09
 51.63479    -29.8 1.073e+04 2.343e-09
 51.65434    -30.1 1.073e+04 2.643e-09
 51.67398    -30.4 1.062e+04 3.574e-09
 51.68708    -30.7 1.087e+04 4.610e-09
 51.69690    -29.6 1.078e+04 4.141e-09
 51.71327    -30.3 1.106e+04 5.424e-09
 51.73292    -31.3 1.141e+04 7.019e-09
 51.75256    -32.4 1.164e+04 8.702e-09
 51.77220    -33.3 1.167e+04 9.415e-09
 51.79185    -34.0 1.146e+04 9.207e-09
 51.81149    -34.6 1.102e+04 6.961e-09
 51.83114    -35.9 1.081e+04 4.860e-09
 51.85078    -38.5 1.084e+04 4.245e-09
 51.86695    -43.4 1.137e+04 4.879e-09
 51.87677    -40.1 1.102e+04 4.117e-09
 51.89007    -46.6 1.277e+04 9.074e-09
 51.90971    -52.4 1.593e+04 2.858e-08
 51.92936    -58.0 1.748e+04 6.083e-08
 51.94900    -63.8 1.757e+04 7.737e-08
 51.96175    -67.8 1.744e+04 8.009e-08
 51.96661    -66.7 1.723e+04 7.503e-08
 51.97346    -69.0 1.721e+04 7.480e-08
 51.98328    -71.9 1.630e+04 6.128e-08
 51.99310    -73.8 1.570e+04 4.696e-08
 52.00788    -76.2 1.512e+04 3.500e-08
 52.02758    -80.1 1.410e+04 2.302e-08
 52.04682    -84.6 1.325e+04 1.737e-08
 52.05664    -85.1 1.283e+04 1.417e-08
 52.06686    -88.2 1.264e+04 1.324e-08
 52.08651    -90.9 1.256e+04 1.292e-08
 52.10615    -93.5 1.239e+04 1.187e-08
 52.12580    -95.9 1.200e+04 9.195e-09
 52.14544    -98.3 1.150e+04 6.511e-09
 52.16508   -100.1 1.106e+04 5.155e-09
 52.18473   -101.1 1.084e+04 4.726e-09
 52.20437   -101.4 1.078e+04 4.613e-09
 52.22402   -101.5 1.078e+04 4.580e-09
 52.23651   -101.6 1.080e+04 4.547e-09
 52.24633   -102.6 1.079e+04 4.533e-09
 52.26330   -102.5 1.081e+04 4.528e-09
 52.28295   -102.2 1.083e+04 4.418e-09
 52.30259   -101.7 1.081e+04 4.226e-09
 52.32224   -101.1 1.078e+04 3.998e-09
 52.34188   -100.4 1.079e+04 3.752e-09
 52.36152    -99.6 1.084e+04 3.548e-09
 52.38117    -98.9 1.088e+04 3.452e-09
 52.40081    -98.2 1.093e+04 3.425e-09
 52.41638    -97.7 1.138e+04 3.446e-09
 52.42620    -98.9 1.187e+04 5.183e-09
 52.44010    -98.4 1.210e+04 6.321e-09
 52.45974    -97.7 1.224e+04 7.851e-09
 52.47939    -97.0 1.233e+04 9.440e-09
 52.49903    -96.2 1.232e+04 1.059e-08
 52.51868    -95.5 1.229e+04 1.091e-08
 52.53832    -94.6 1.209e+04 1.075e-08
 52.55796    -93.5 1.165e+04 9.133e-09
 52.57761    -92.0 1.129e+04 6.778e-09
 52.59625    -90.4 1.111e+04 4.611e-09
 52.60607    -90.9 1.107e+04 5.408e-09
 52.61690    -89.2 1.093e+04 3.813e-09
 52.63654    -87.6 1.099e+04 2.796e-09
 52.66610    -86.1 1.108e+04 2.246e-09
 52.70549    -83.5 1.090e+04 1.738e-09
 52.74478    -80.3 1.075e+04 1.377e-09
 52.77632    -77.2 1.072e+04 1.175e-09
 52.79586    -76.6 1.104e+04 1.375e-09
 52.81334    -74.8 1.115e+04 1.320e-09
 52.83298    -73.7 1.117e+04 1.303e-09
 52.85262    -72.0 1.134e+04 1.290e-09
 52.87227    -70.9 1.137e+04 1.320e-09
 52.89191    -69.3 1.153e+04 1.370e-09
 52.91156    -68.3 1.161e+04 1.446e-09
 52.93120    -66.6 1.177e+04 1.574e-09
 52.95084    -65.7 1.182e+04 1.717e-09
 52.96581    -64.2 1.199e+04 1.942e-09
 52.97564    -65.1 1.221e+04 5.537e-09
 52.99013    -64.1 1.230e+04 6.772e-09
 53.00978    -63.1 1.247e+04 8.823e-09
 53.02942    -62.4 1.275e+04 1.207e-08
 53.04906    -61.7 1.311e+04 1.724e-08
 53.06871    -60.8 1.365e+04 2.471e-08
 53.08835    -59.8 1.429e+04 3.355e-08
 53.10800    -58.9 1.484e+04 4.119e-08
 53.12764    -58.4 1.530e+04 4.801e-08
 53.14568    -58.2 1.570e+04 5.643e-08
 53.15551    -59.4 1.523e+04 3.310e-08
 53.16693    -59.3 1.529e+04 2.952e-08
 53.18657    -59.4 1.534e+04 2.574e-08
 53.20622    -59.6 1.539e+04 2.383e-08
 53.22586    -59.7 1.543e+04 2.238e-08
 53.24550    -59.9 1.542e+04 2.089e-08
 53.26515    -59.9 1.528e+04 1.854e-08
 53.28479    -59.8 1.497e+04 1.551e-08
 53.30444    -59.4 1.456e+04 1.236e-08
 53.32408    -58.8 1.403e+04 9.703e-09
 53.33538    -58.2 1.354e+04 8.135e-09
 53.34520    -59.1 1.194e+04 4.981e-09
 53.36337    -58.5 1.186e+04 5.289e-09
 53.38301    -58.2 1.198e+04 6.157e-09
 53.40266    -58.0 1.219e+04 7.774e-09
 53.42230    -57.8 1.240e+04 1.039e-08
 53.44194    -57.5 1.258e+04 1.342e-08
 53.46159    -57.1 1.267e+04 1.587e-08
 53.48123    -56.8 1.263e+04 1.655e-08
 53.50088    -56.2 1.215e+04 1.532e-08
 53.51525    -55.6 1.150e+04 1.112e-08
 53.52507    -56.9 1.049e+04 7.177e-09
 53.54016    -56.9 9.935e+03 4.623e-09
 53.55981    -57.2 9.467e+03 3.236e-09
 53.57945    -57.0 9.110e+03 2.678e-09
 53.59910    -56.5 8.933e+03 2.484e-09
 53.61874    -55.8 8.813e+03 2.380e-09
 53.63838    -55.0 8.728e+03 2.343e-09
 53.65803    -54.1 8.711e+03 2.339e-09
 53.67767    -53.7 8.801e+03 2.384e-09
 53.69512    -53.7 9.267e+03 2.758e-09
 53.70494    -55.9 1.008e+04 4.382e-09
 53.71696    -56.4 1.048e+04 6.965e-09
 53.73661    -56.6 1.081e+04 1.092e-08
 53.75625    -56.0 1.113e+04 1.549e-08
 53.77589    -55.3 1.143e+04 1.934e-08
 53.79554    -54.7 1.163e+04 2.102e-08
 53.81518    -54.3 1.168e+04 2.127e-08
 53.83483    -54.2 1.162e+04 1.894e-08
 53.85447    -54.6 1.133e+04 1.497e-08
 53.87411    -55.8 1.081e+04 1.145e-08
 53.88481    -57.4 1.016e+04 8.973e-09
 53.89463    -58.4 9.310e+03 6.806e-09
 53.91340    -59.3 9.323e+03 6.816e-09
 53.93305    -61.1 9.613e+03 7.282e-09
 53.95269    -63.5 1.006e+04 8.803e-09
 53.97233    -66.1 1.050e+04 1.134e-08
 53.98546    -68.8 1.087e+04 1.385e-08
 53.99528    -69.1 1.124e+04 1.568e-08
 54.01162    -72.2 1.147e+04 1.793e-08
 54.03127    -75.6 1.149e+04 1.840e-08
 54.05091    -78.5 1.124e+04 1.817e-08
 54.06468    -80.8 1.091e+04 1.669e-08
 54.07450    -80.6 1.120e+04 1.825e-08
 54.09020    -82.4 1.093e+04 1.606e-08
 54.10984    -83.8 1.058e+04 1.296e-08
 54.12949    -85.4 1.011e+04 9.582e-09
 54.14913    -87.1 9.631e+03 7.049e-09
 54.16877    -88.5 9.317e+03 5.778e-09
 54.18842    -89.4 9.225e+03 5.463e-09
 54.20806    -89.9 9.228e+03 5.448e-09
 54.22771    -90.1 9.342e+03 6.137e-09
 54.24455    -90.0 9.480e+03 7.141e-09
 54.25437    -90.2 1.008e+04 1.273e-08
 54.26699    -89.4 1.020e+04 1.386e-08
 54.28664    -88.5 1.031e+04 1.443e-08
 54.30628    -87.6 1.034e+04 1.449e-08
 54.32593    -86.7 1.027e+04 1.398e-08
 54.34557    -85.5 1.008e+04 1.270e-08
 54.36521    -84.4 9.860e+03 1.103e-08
 54.38486    -83.3 9.633e+03 9.293e-09
 54.40450    -82.2 9.431e+03 7.810e-09
 54.42415    -81.3 9.257e+03 6.715e-09
 54.43424    -80.4 9.138e+03 6.029e-09
 54.44406    -80.7 9.101e+03 6.128e-09
 54.46343    -79.6 9.055e+03 5.770e-09
 54.48308    -78.6 9.058e+03 5.675e-09
 54.50272    -77.7 9.108e+03 5.662e-09
 54.52237    -76.9 9.315e+03 5.923e-09
 54.54201    -76.1 9.556e+03 6.525e-09
 54.56165    -75.2 9.788e+03 7.274e-09
 54.58130    -74.4 1.001e+04 8.002e-09
 54.60094    -73.7 1.024e+04 8.592e-09
 54.61411    -73.2 1.046e+04 9.004e-09
 54.62393    -74.5 9.715e+03 6.555e-09
 54.64023    -74.5 1.006e+04 7.135e-09
 54.65987    -74.6 1.038e+04 7.947e-09
 54.67952    -75.2 1.076e+04 9.257e-09
 54.69916    -76.3 1.153e+04 1.260e-08
 54.71881    -77.9 1.262e+04 1.964e-08
 54.73845    -80.0 1.371e+04 2.971e-08
 54.75809    -82.8 1.469e+04 4.201e-08
 54.77774    -86.2 1.541e+04 5.546e-08
 54.79398    -89.8 1.579e+04 6.753e-08
 54.80380    -88.9 1.502e+04 4.958e-08
 54.81703    -92.4 1.540e+04 5.658e-08
 54.83667    -96.9 1.619e+04 5.701e-08
 54.85631   -103.5 1.785e+04 5.134e-08
 54.87596   -112.5 1.961e+04 5.011e-08
 54.89560   -120.6 1.925e+04 6.428e-08
 54.91525   -126.0 1.819e+04 7.292e-08
 54.93489   -129.9 1.639e+04 5.412e-08
 54.95453   -132.7 1.461e+04 3.389e-08
 54.97385   -134.3 1.329e+04 2.338e-08
 54.98367   -132.4 1.492e+04 3.632e-08
 54.99382   -133.8 1.374e+04 2.767e-08
 55.01347   -134.1 1.351e+04 2.646e-08
 55.03311   -134.0 1.356e+04 2.751e-08
 55.05275   -134.0 1.355e+04 2.828e-08
 55.07240   -134.0 1.374e+04 3.241e-08
 55.09204   -133.9 1.402e+04 3.823e-08
 55.11169   -133.5 1.424e+04 4.335e-08
 55.13133   -133.0 1.436e+04 4.593e-08
 55.15097   -132.9 1.440e+04 4.458e-08
 55.16354   -132.8 1.420e+04 3.939e-08
 55.17336   -132.6 1.463e+04 4.336e-08
 55.19026   -133.2 1.443e+04 3.803e-08
 55.20991   -134.1 1.408e+04 3.115e-08
 55.22955   -135.2 1.370e+04 2.505e-08
 55.24919   -136.5 1.342e+04 2.080e-08
 55.26884   -137.7 1.321e+04 1.829e-08
 55.28848   -138.8 1.306e+04 1.689e-08
 55.30813   -140.0 1.293e+04 1.589e-08
 55.32777   -141.1 1.277e+04 1.478e-08
 55.34341   -142.1 1.255e+04 1.347e-08
 55.35323   -142.9 1.272e+04 1.411e-08
 55.36706   -144.4 1.236e+04 1.128e-08
 55.38670   -145.5 1.200e+04 9.244e-09
 55.41627   -146.6 1.155e+04 7.374e-09
 55.45565   -147.6 1.101e+04 5.417e-09
 55.49494   -147.9 1.075e+04 4.340e-09
 55.53423   -148.0 1.058e+04 3.513e-09
 55.57352   -147.5 1.044e+04 2.864e-09
 55.61280   -146.7 1.030e+04 2.317e-09
 55.65209   -145.3 1.019e+04 1.896e-09
 55.69138   -143.8 1.011e+04 1.560e-09
 55.71317   -142.2 1.004e+04 1.297e-09
 55.73281   -142.5 1.000e+04 1.236e-09
 55.76996   -140.6 9.965e+03 1.078e-09
 55.80924   -138.6 9.954e+03 1.043e-09
 55.84853   -136.5 9.975e+03 1.047e-09
 55.88782   -134.7 1.012e+04 1.245e-09
 55.92711   -133.0 1.024e+04 1.765e-09
 55.96640   -131.3 1.039e+04 2.555e-09
 56.00568   -129.8 1.059e+04 3.441e-09
 56.04497   -128.5 1.079e+04 4.071e-09
 56.07291   -127.3 1.087e+04 4.226e-09
 56.09255   -127.9 1.095e+04 4.334e-09
 56.12355   -126.8 1.097e+04 4.261e-09
 56.16284   -125.6 1.099e+04 4.004e-09
 56.20212   -124.5 1.098e+04 3.822e-09
 56.24141   -123.3 1.098e+04 3.781e-09
 56.28070   -122.1 1.104e+04 3.895e-09
 56.31999   -120.9 1.110e+04 4.188e-09
 56.35928   -119.7 1.122e+04 4.408e-09
 56.39856   -118.5 1.129e+04 4.470e-09
 56.43265   -117.6 1.134e+04 4.426e-09
 56.45229   -118.1 1.111e+04 3.129e-09
 56.47714   -117.3 1.098e+04 2.887e-09
 56.51643   -116.8 1.073e+04 2.834e-09
 56.55572   -116.4 1.044e+04 2.902e-09
 56.59500   -116.2 1.014e+04 3.024e-09
 56.63429   -115.8 9.910e+03 3.070e-09
 56.67358   -115.5 9.700e+03 3.053e-09
 56.71287   -115.0 9.521e+03 3.044e-09
 56.75216   -114.5 9.409e+03 3.119e-09
 56.79144   -113.9 9.247e+03 3.382e-09
 56.81203   -113.3 9.176e+03 3.685e-09
 56.83168   -112.8 9.020e+03 2.420e-09
 56.87002   -112.2 9.023e+03 2.762e-09
 56.90931   -111.7 9.036e+03 3.134e-09
 56.94860   -111.4 9.020e+03 3.457e-09
 56.98789   -111.2 8.977e+03 3.670e-09
 57.02717   -111.0 8.955e+03 3.957e-09
 57.06646   -110.7 9.004e+03 4.360e-09
 57.10575   -110.4 9.075e+03 4.756e-09
 57.14504   -110.2 9.121e+03 5.041e-09
 57.17177   -110.1 9.139e+03 5.212e-09
 57.19142   -110.8 9.690e+03 6.820e-09
 57.22361   -110.9 9.666e+03 6.961e-09
 57.26290   -111.0 9.718e+03 7.222e-09
 57.30219   -111.1 9.772e+03 7.595e-09
 57.34148   -111.1 9.729e+03 7.711e-09
 57.38077   -111.0 9.432e+03 7.008e-09
 57.42005   -110.5 8.911e+03 5.262e-09
 57.45934   -109.8 8.268e+03 3.520e-09
 57.49863   -109.0 7.660e+03 2.310e-09
 57.53151   -108.2 7.194e+03 1.615e-09
 57.55116   -108.7 7.412e+03 2.030e-09
 57.57721   -107.6 7.168e+03 1.662e-09
 57.61649   -106.4 7.079e+03 1.492e-09
 57.65578   -105.1 7.065e+03 1.444e-09
 57.69507   -103.8 7.065e+03 1.438e-09
 57.73436   -102.6 7.168e+03 1.533e-09
 57.77365   -101.7 7.426e+03 1.922e-09
 57.81293   -100.8 7.750e+03 2.515e-09
 57.85222   -100.1 8.147e+03 3.291e-09
 57.89125    -99.8 8.588e+03 4.205e-09
 57.91090    -99.8 8.669e+03 4.195e-09
 57.93080    -99.7 9.187e+03 5.534e-09
 57.97009    -99.7 9.653e+03 6.594e-09
 58.00937   -100.3 9.847e+03 6.968e-09
 58.04866   -101.1 9.959e+03 6.876e-09
 58.08795   -101.9 9.942e+03 5.907e-09
 58.12724   -102.6 9.828e+03 4.643e-09
 58.16653   -102.9 9.674e+03 3.560e-09
 58.20581   -102.9 9.559e+03 2.844e-09
 58.24510   -102.4 9.500e+03 2.442e-09
 58.27064   -101.5 9.540e+03 2.119e-09
 58.29028   -101.5 9.666e+03 2.048e-09
 58.32368   -100.4 9.762e+03 1.688e-09
 58.36297    -99.3 9.981e+03 1.386e-09
 58.40225    -98.0 1.032e+04 1.194e-09
 58.44154    -96.6 1.045e+04 1.144e-09
 58.48083    -95.1 1.068e+04 1.127e-09
 58.52012    -93.6 1.075e+04 1.190e-09
 58.55941    -92.0 1.060e+04 1.314e-09
 58.59869    -90.4 1.047e+04 1.409e-09
 58.63038    -88.7 1.041e+04 1.455e-09
 58.65002    -88.4 1.058e+04 1.886e-09
 58.67727    -86.8 1.057e+04 1.880e-09
 58.71656    -85.3 1.058e+04 1.903e-09
 58.75585    -84.1 1.057e+04 2.118e-09
 58.79513    -83.1 1.060e+04 2.773e-09
 58.83442    -82.3 1.086e+04 4.164e-09
 58.87371    -81.7 1.151e+04 6.966e-09
 58.90308    -82.0 1.223e+04 1.098e-08
 58.92263    -83.0 1.284e+04 1.681e-08
 58.94227    -83.8 1.329e+04 2.293e-08
 58.96191    -84.8 1.357e+04 2.748e-08
 58.98156    -86.1 1.364e+04 2.860e-08
 58.99974    -87.6 1.337e+04 2.494e-08
 59.00957    -87.6 1.340e+04 2.412e-08
 59.02085    -89.3 1.284e+04 1.820e-08
 59.04049    -91.0 1.209e+04 1.323e-08
 59.06013    -92.0 1.159e+04 1.077e-08
 59.07978    -93.1 1.116e+04 8.765e-09
 59.10934    -93.8 1.079e+04 7.399e-09
 59.14873    -93.9 1.036e+04 5.542e-09
 59.18802    -93.8 9.972e+03 4.137e-09
 59.22730    -93.5 9.715e+03 3.589e-09
 59.26659    -93.0 9.644e+03 3.516e-09
 59.30588    -92.5 9.609e+03 3.598e-09
 59.34517    -92.0 9.588e+03 3.633e-09
 59.36950    -91.5 9.492e+03 3.527e-09
 59.38914    -92.5 1.021e+04 6.667e-09
 59.42374    -91.8 9.926e+03 5.970e-09
 59.46303    -90.8 9.646e+03 4.941e-09
 59.49254    -89.8 9.438e+03 4.249e-09
 59.51218    -91.3 9.456e+03 4.230e-09
 59.54161    -90.1 9.386e+03 3.960e-09
 59.58090    -89.1 9.399e+03 3.913e-09
 59.62018    -88.4 9.467e+03 4.086e-09
 59.65947    -87.9 9.566e+03 4.365e-09
 59.68884    -86.9 9.543e+03 4.451e-09
 59.70839    -86.9 9.540e+03 4.426e-09
 59.72803    -86.9 9.543e+03 4.386e-09
 59.73887    -87.0 9.561e+03 4.303e-09
 59.74869    -87.1 9.383e+03 3.477e-09
 59.76732    -87.1 9.405e+03 3.567e-09
 59.78696    -87.4 9.475e+03 3.612e-09
 59.81653    -88.0 9.435e+03 3.571e-09
 59.85591    -87.8 9.338e+03 3.384e-09
 59.89520    -87.1 9.158e+03 2.870e-09
 59.93449    -86.3 8.970e+03 2.137e-09
 59.97378    -85.3 8.746e+03 1.455e-09
 60.01306    -84.0 8.537e+03 1.049e-09
 60.05235    -82.6 8.395e+03 8.991e-10
 60.08898    -81.0 8.339e+03 8.418e-10
 60.10862    -80.9 8.420e+03 9.542e-10
 60.13093    -79.3 8.414e+03 9.504e-10
 60.17022    -77.8 8.438e+03 1.009e-09
 60.20950    -76.4 8.537e+03 1.155e-09
 60.24879    -75.2 8.683e+03 1.327e-09
 60.28808    -74.4 8.862e+03 1.518e-09
 60.32737    -74.3 9.063e+03 1.913e-09
 60.36666    -76.1 9.631e+03 4.070e-09
 60.39602    -78.7 1.115e+04 8.744e-09
 60.41557    -81.1 1.247e+04 1.519e-08
 60.43521    -84.0 1.406e+04 3.324e-08
 60.45486    -87.2 1.522e+04 5.577e-08
 60.46817    -91.2 1.562e+04 6.407e-08
 60.47799    -91.4 1.563e+04 6.243e-08
 60.49415    -96.8 1.549e+04 5.863e-08
 60.51379   -102.5 1.454e+04 3.153e-08
 60.53343   -108.4 1.309e+04 1.451e-08
 60.55308   -112.8 1.218e+04 8.436e-09
 60.57272   -115.3 1.184e+04 6.730e-09
 60.59237   -116.8 1.171e+04 6.145e-09
 60.61201   -117.8 1.165e+04 5.773e-09
 60.63165   -118.4 1.159e+04 5.337e-09
 60.64804   -118.6 1.153e+04 4.846e-09
 60.65786   -118.7 1.146e+04 4.655e-09
 60.68086   -118.7 1.153e+04 4.267e-09
 60.72025   -118.5 1.153e+04 3.222e-09
 60.75954   -118.1 1.150e+04 2.432e-09
 60.79882   -117.0 1.145e+04 1.935e-09
 60.82810   -115.4 1.150e+04 1.684e-09
 60.84775   -115.3 1.156e+04 1.250e-09
 60.87740   -113.4 1.157e+04 1.241e-09
 60.91669   -111.6 1.175e+04 1.236e-09
 60.95598   -109.9 1.194e+04 1.369e-09
 60.99526   -108.1 1.195e+04 1.643e-09
 61.03455   -106.3 1.205e+04 1.946e-09
 61.07384   -104.6 1.225e+04 2.169e-09
 61.11313   -103.0 1.242e+04 2.220e-09
 61.15242   -101.5 1.249e+04 2.189e-09
 61.18784    -99.7 1.266e+04 1.957e-09
 61.20749    -99.5 1.255e+04 2.029e-09
 61.23099    -97.6 1.268e+04 1.832e-09
 61.27028    -95.5 1.274e+04 1.801e-09
 61.30957    -93.5 1.282e+04 1.908e-09
 61.34886    -91.6 1.282e+04 2.121e-09
 61.38814    -89.7 1.275e+04 2.311e-09
 61.42743    -87.9 1.267e+04 2.421e-09
 61.46672    -86.0 1.260e+04 2.472e-09
 61.50601    -84.2 1.252e+04 2.553e-09
 61.54530    -82.4 1.251e+04 2.854e-09
 61.56723    -80.8 1.259e+04 3.428e-09
 61.58687    -80.9 1.283e+04 3.302e-09
 61.62387    -79.4 1.278e+04 4.120e-09
 61.66316    -78.2 1.268e+04 4.972e-09
 61.70245    -77.3 1.256e+04 5.365e-09
 61.74174    -76.2 1.232e+04 5.383e-09
 61.78103    -75.2 1.203e+04 4.260e-09
 61.82031    -74.2 1.192e+04 2.968e-09
 61.85960    -73.4 1.187e+04 2.090e-09
 61.89889    -72.7 1.176e+04 1.757e-09
 61.92697    -71.9 1.163e+04 1.664e-09
 61.93669    -72.1 1.187e+04 3.036e-09
 61.94780    -71.8 1.187e+04 2.840e-09
 61.96745    -71.4 1.187e+04 2.641e-09
 61.98709    -71.0 1.188e+04 2.558e-09
 62.00674    -70.6 1.189e+04 2.494e-09
 62.02638    -70.2 1.189e+04 2.483e-09
 62.04602    -69.8 1.187e+04 2.543e-09
 62.06567    -69.5 1.188e+04 2.708e-09
 62.08531    -69.3 1.193e+04 2.921e-09
 62.10496    -69.1 1.196e+04 3.218e-09
 62.11647    -68.9 1.200e+04 3.507e-09
 62.12629    -69.1 1.185e+04 3.922e-09
 62.14424    -68.9 1.191e+04 3.928e-09
 62.17381    -68.5 1.206e+04 3.806e-09
 62.21319    -68.1 1.212e+04 3.572e-09
 62.25248    -67.8 1.223e+04 3.311e-09
 62.28671    -67.2 1.237e+04 3.120e-09
 62.30635    -68.3 1.242e+04 4.094e-09
 62.33106    -67.4 1.254e+04 4.158e-09
 62.37035    -66.2 1.270e+04 4.210e-09
 62.40963    -64.8 1.288e+04 4.135e-09
 62.44892    -63.2 1.305e+04 4.031e-09
 62.48821    -61.7 1.336e+04 4.105e-09
 62.52750    -60.3 1.358e+04 5.147e-09
 62.56679    -59.1 1.378e+04 7.078e-09
 62.60607    -58.2 1.403e+04 8.961e-09
 62.64536    -57.5 1.424e+04 9.859e-09
 62.66609    -57.0 1.440e+04 1.025e-08
 62.68574    -57.9 1.443e+04 9.669e-09
 62.72394    -57.1 1.456e+04 1.065e-08
 62.76323    -56.4 1.455e+04 1.068e-08
 62.80251    -54.9 1.439e+04 9.086e-09
 62.84180    -53.0 1.416e+04 7.448e-09
 62.88109    -51.0 1.397e+04 6.945e-09
 62.92038    -48.5 1.388e+04 7.179e-09
 62.95967    -46.5 1.394e+04 9.467e-09
 62.99895    -44.7 1.419e+04 1.329e-08
 63.02583    -43.3 1.444e+04 1.706e-08
 63.03556    -43.4 1.373e+04 1.056e-08
 63.04787    -42.7 1.375e+04 1.176e-08
 63.06751    -41.9 1.391e+04 1.332e-08
 63.08716    -41.5 1.390e+04 1.400e-08
 63.11672    -40.5 1.401e+04 1.497e-08
 63.14619    -40.0 1.431e+04 1.837e-08
 63.16573    -39.5 1.422e+04 1.848e-08
 63.18538    -38.8 1.408e+04 1.863e-08
 63.20502    -38.2 1.401e+04 1.810e-08
 63.21533    -37.5 1.394e+04 1.747e-08
 63.22515    -37.4 1.395e+04 1.995e-08
 63.24431    -36.7 1.391e+04 2.038e-08
 63.26395    -36.1 1.391e+04 2.051e-08
 63.28360    -35.5 1.386e+04 2.008e-08
 63.30324    -34.8 1.394e+04 1.947e-08
 63.32289    -34.3 1.402e+04 1.918e-08
 63.34253    -33.7 1.404e+04 1.904e-08
 63.36217    -33.1 1.415e+04 1.909e-08
 63.38182    -32.6 1.421e+04 1.895e-08
 63.39520    -32.1 1.420e+04 1.783e-08
 63.40502    -32.0 1.380e+04 1.698e-08
 63.42111    -31.6 1.379e+04 1.467e-08
 63.44075    -31.3 1.377e+04 1.323e-08
 63.46039    -30.8 1.381e+04 1.276e-08
 63.48004    -30.4 1.394e+04 1.257e-08
 63.49968    -30.0 1.414e+04 1.259e-08
 63.51933    -29.8 1.425e+04 1.254e-08
 63.53897    -29.7 1.426e+04 1.259e-08
 63.55861    -29.7 1.422e+04 1.303e-08
 63.57507    -29.4 1.417e+04 1.362e-08
 63.58489    -29.2 1.414e+04 1.077e-08
 63.59790    -28.9 1.404e+04 1.015e-08
 63.61755    -28.4 1.383e+04 8.954e-09
 63.63719    -27.5 1.375e+04 7.347e-09
 63.65683    -26.8 1.353e+04 5.576e-09
 63.67648    -25.7 1.351e+04 4.476e-09
 63.69612    -25.0 1.340e+04 3.353e-09
 63.71577    -24.1 1.319e+04 3.052e-09
 63.74521    -22.3 1.303e+04 2.831e-09
 63.78460    -20.4 1.302e+04 3.015e-09
 63.82400    -18.5 1.304e+04 4.716e-09
 63.86329    -16.2 1.312e+04 7.691e-09
 63.90258    -14.2 1.303e+04 9.954e-09
 63.94187    -12.8 1.283e+04 1.010e-08
 63.98116    -11.4 1.262e+04 7.933e-09
 64.01052    -10.5 1.247e+04 6.775e-09
 64.03007    -10.3 1.237e+04 6.631e-09
 64.04971     -9.1 1.221e+04 6.608e-09
 64.06936     -8.6 1.216e+04 6.565e-09
 64.08900     -7.7 1.200e+04 6.754e-09
 64.10865     -6.9 1.200e+04 6.784e-09
 64.12450     -6.1 1.189e+04 6.933e-09
 64.13432     -6.0 1.174e+04 5.861e-09
 64.14793     -5.3 1.171e+04 5.792e-09
 64.16758     -4.4 1.166e+04 5.694e-09
 64.18722     -3.9 1.165e+04 5.672e-09
 64.20687     -3.1 1.157e+04 5.877e-09
 64.22651     -2.9 1.174e+04 6.413e-09
 64.24615     -2.4 1.153e+04 8.284e-09
 64.26580     -1.3 1.161e+04 9.664e-09
 64.28544     -0.4 1.164e+04 1.018e-08
 64.30437      1.0 1.135e+04 9.586e-09
 64.31419      1.1 1.140e+04 1.017e-08
 64.32473      2.5 1.126e+04 7.595e-09
 64.34437      3.3 1.092e+04 5.717e-09
 64.36402      4.3 1.081e+04 3.869e-09
 64.38366      4.7 1.062e+04 2.947e-09
 64.41323      6.0 1.039e+04 2.154e-09
 64.45261      7.8 1.002e+04 1.909e-09
 64.48444     10.3 9.981e+03 1.961e-09
 64.50408     10.3 1.004e+04 2.070e-09
 64.53119     11.9 1.013e+04 2.611e-09
 64.57048     14.1 1.040e+04 3.897e-09
 64.60976     14.9 1.152e+04 8.173e-09
 64.63913     15.9 1.164e+04 1.031e-08
 64.65868     16.8 1.207e+04 1.288e-08
 64.67393     17.7 1.232e+04 1.462e-08
 64.68375     16.4 1.311e+04 1.974e-08
 64.69797     16.5 1.377e+04 2.053e-08
 64.71761     15.6 1.471e+04 2.304e-08
 64.73725     13.8 1.556e+04 2.981e-08
 64.75690     11.8 1.597e+04 4.402e-08
 64.77654     10.1 1.609e+04 6.870e-08
 64.79619      8.9 1.640e+04 1.007e-07
 64.81583      8.2 1.662e+04 1.275e-07
 64.83547      8.2 1.604e+04 8.221e-08
 64.85380      6.2 1.500e+04 4.234e-08
 64.86362      3.6 1.358e+04 2.436e-08
 64.87476      2.0 1.248e+04 1.533e-08
 64.89441      0.6 1.244e+04 1.245e-08
 64.91405     -1.5 1.332e+04 1.672e-08
 64.93369     -2.3 1.429e+04 3.089e-08
 64.95334     -1.9 1.519e+04 5.647e-08
 64.97298     -1.5 1.582e+04 7.399e-08
 64.99263     -1.7 1.595e+04 7.752e-08
 65.00905     -2.6 1.597e+04 7.453e-08
 65.01887     -2.9 1.564e+04 6.072e-08
 65.03191     -3.9 1.564e+04 6.103e-08
 65.04349     -4.8 1.594e+04 6.556e-08
 65.05332     -6.6 1.461e+04 3.652e-08
 65.07120     -7.2 1.465e+04 4.209e-08
 65.09085     -7.5 1.457e+04 4.203e-08
 65.11049     -7.9 1.454e+04 3.404e-08
 65.13013     -8.8 1.447e+04 2.626e-08
 65.14978     -9.8 1.411e+04 2.213e-08
 65.16942    -10.1 1.400e+04 2.101e-08
 65.18907    -10.9 1.415e+04 2.159e-08
 65.20871    -14.5 1.510e+04 3.421e-08
 65.22336    -19.3 1.661e+04 7.885e-08
 65.23319    -20.1 1.651e+04 8.309e-08
 65.24800    -21.5 1.755e+04 1.833e-07
 65.26764    -23.8 1.780e+04 2.002e-07
 65.28729    -27.4 1.645e+04 6.198e-08
 65.30693    -34.8 1.275e+04 1.399e-08
 65.32657    -38.5 1.091e+04 6.772e-09
 65.34622    -39.3 1.041e+04 5.166e-09
 65.36586    -39.8 1.015e+04 4.241e-09
 65.38551    -40.2 9.846e+03 3.906e-09
 65.40323    -40.4 9.737e+03 3.857e-09
 65.41306    -40.0 9.740e+03 3.843e-09
 65.42480    -40.0 9.697e+03 3.802e-09
 65.44444    -40.0 9.667e+03 3.881e-09
 65.46408    -40.0 9.682e+03 4.102e-09
 65.48373    -39.9 9.672e+03 4.288e-09
 65.51329    -40.2 9.594e+03 4.378e-09
 65.55268    -40.0 9.406e+03 3.744e-09
 65.58330    -40.1 9.223e+03 2.931e-09
 65.60285    -39.2 9.570e+03 4.173e-09
 65.63115    -39.7 9.724e+03 4.372e-09
 65.67054    -41.2 1.016e+04 4.951e-09
 65.69991    -43.2 1.058e+04 6.663e-09
 65.71946    -44.3 1.101e+04 9.008e-09
 65.73910    -45.8 1.139e+04 1.105e-08
 65.75874    -47.9 1.151e+04 1.147e-08
 65.77280    -50.5 1.151e+04 1.160e-08
 65.78262    -50.6 1.250e+04 1.865e-08
 65.79803    -53.3 1.256e+04 2.050e-08
 65.81768    -55.6 1.263e+04 2.276e-08
 65.83732    -57.6 1.263e+04 2.355e-08
 65.85696    -59.4 1.241e+04 2.170e-08
 65.87661    -61.3 1.226e+04 1.942e-08
 65.89625    -63.1 1.224e+04 1.852e-08
 65.91590    -64.7 1.226e+04 1.824e-08
 65.93554    -66.1 1.229e+04 1.795e-08
 65.95267    -67.2 1.223e+04 1.748e-08
 65.96249    -68.7 1.241e+04 1.847e-08
 65.97483    -69.5 1.218e+04 1.674e-08
 65.99447    -70.2 1.189e+04 1.450e-08
 66.02404    -71.2 1.149e+04 1.195e-08
 66.06342    -71.3 1.095e+04 8.946e-09
 66.10271    -71.0 1.033e+04 6.213e-09
 66.14200    -69.8 9.976e+03 4.621e-09
 66.18129    -68.0 9.719e+03 3.430e-09
 66.22057    -66.1 9.540e+03 2.645e-09
 66.25986    -64.1 9.427e+03 2.142e-09
 66.29915    -61.9 9.371e+03 1.808e-09
 66.32242    -59.6 9.368e+03 1.554e-09
 66.34207    -59.3 9.388e+03 1.736e-09
 66.37773    -57.0 9.405e+03 1.552e-09
 66.41701    -54.8 9.420e+03 1.423e-09
 66.45630    -52.5 9.440e+03 1.367e-09
 66.49559    -50.4 9.515e+03 1.369e-09
 66.53488    -48.5 9.680e+03 1.607e-09
 66.57417    -46.6 9.778e+03 2.109e-09
 66.61345    -44.5 9.946e+03 2.638e-09
 66.65274    -42.4 1.008e+04 3.025e-09
 66.68216    -40.4 1.012e+04 3.107e-09
 66.70181    -40.4 1.005e+04 2.844e-09
 66.73132    -38.1 9.958e+03 2.493e-09
 66.77061    -35.7 9.733e+03 1.917e-09
 66.80989    -33.2 9.515e+03 1.403e-09
 66.84918    -30.5 9.347e+03 1.054e-09
 66.88847    -27.7 9.224e+03 8.359e-10
 66.92776    -24.9 9.211e+03 6.974e-10
 66.96705    -22.1 9.209e+03 6.284e-10
 67.00633    -19.2 9.264e+03 6.232e-10
 67.04190    -17.1 9.431e+03 7.235e-10
 67.06155    -17.1 9.451e+03 7.075e-10
 67.08491    -14.8 9.402e+03 1.103e-09
 67.12420    -11.9 9.563e+03 1.596e-09
 67.16349     -9.8 9.873e+03 1.863e-09
 67.20277     -8.5 1.019e+04 2.115e-09
 67.23150     -7.5 1.036e+04 2.929e-09
 67.24122     -7.5 1.024e+04 2.767e-09
 67.25169     -7.3 1.042e+04 2.911e-09
 67.27133     -7.0 1.036e+04 4.159e-09
 67.29098     -7.2 1.072e+04 4.904e-09
 67.31062     -7.8 1.078e+04 7.653e-09
 67.33026     -9.8 1.182e+04 1.086e-08
 67.34991    -13.5 1.302e+04 1.963e-08
 67.36955    -16.1 1.354e+04 3.594e-08
 67.38920    -17.1 1.387e+04 4.438e-08
 67.40884    -18.2 1.341e+04 3.481e-08
 67.42109    -20.3 1.223e+04 1.714e-08
 67.43091    -20.7 1.196e+04 1.637e-08
 67.44813    -23.9 1.037e+04 8.020e-09
 67.46777    -25.7 9.502e+03 5.241e-09
 67.48742    -26.1 9.101e+03 4.096e-09
 67.50706    -26.2 8.819e+03 3.468e-09
 67.52670    -25.8 8.634e+03 3.187e-09
 67.55627    -25.0 8.488e+03 2.939e-09
 67.59565    -23.5 8.138e+03 2.536e-09
 67.63494    -21.3 7.959e+03 2.375e-09
 67.67423    -18.8 7.914e+03 2.340e-09
 67.71352    -16.0 8.033e+03 2.508e-09
 67.75281    -13.0 8.157e+03 2.939e-09
 67.78093     -9.3 8.460e+03 3.748e-09
 67.80057     -8.9 8.302e+03 3.510e-09
 67.82146     -6.0 8.468e+03 4.299e-09
 67.84101     -3.7 8.937e+03 5.122e-09
 67.86065     -2.5 9.662e+03 7.269e-09
 67.88030     -2.1 1.096e+04 1.192e-08
 67.89994     -1.1 1.238e+04 2.141e-08
 67.91959      0.5 1.413e+04 3.645e-08
 67.93427     -3.5 2.063e+04 4.468e-08
 67.94404    -18.6 3.632e+04 6.719e-08
 67.95386    -33.6 2.478e+04 7.973e-07
 67.96369    -49.1 1.878e+04 4.534e-06
 67.97043    -69.3 1.884e+04 5.541e-06
 67.97286    -71.3 1.808e+04 7.698e-06
 67.97592    -76.5 1.996e+04 5.510e-06
 67.98331   -100.1 2.265e+04 8.845e-07
 67.99315   -119.3 1.965e+04 1.391e-07
 68.00297   -122.6 1.699e+04 8.746e-08
 68.01776   -122.8 1.613e+04 6.859e-08
 68.03745   -118.8 1.474e+04 4.713e-08
 68.05709   -115.7 1.298e+04 2.883e-08
 68.07674   -113.9 1.227e+04 2.100e-08
 68.09638   -111.9 1.150e+04 1.610e-08
 68.11603   -109.7 1.085e+04 1.300e-08
 68.13567   -107.6 1.047e+04 1.139e-08
 68.15039   -105.7 1.027e+04 1.058e-08
 68.16022   -106.6 9.713e+03 7.833e-09
 68.17496   -104.7 9.627e+03 7.515e-09
 68.19460   -102.8 9.567e+03 7.258e-09
 68.21425   -101.1 9.529e+03 7.034e-09
 68.23389    -99.6 9.497e+03 6.803e-09
 68.25353    -98.2 9.465e+03 6.569e-09
 68.27318    -97.0 9.439e+03 6.367e-09
 68.29282    -96.0 9.417e+03 6.190e-09
 68.31247    -95.0 9.409e+03 6.070e-09
 68.33026    -94.2 9.408e+03 5.999e-09
 68.34009    -94.5 9.071e+03 4.838e-09
 68.35175    -93.6 9.089e+03 4.841e-09
 68.37140    -92.8 9.100e+03 4.841e-09
 68.39104    -92.0 9.090e+03 4.778e-09
 68.41069    -91.3 9.067e+03 4.643e-09
 68.43033    -90.7 9.058e+03 4.492e-09
 68.44997    -90.1 9.081e+03 4.433e-09
 68.46962    -89.7 9.180e+03 4.475e-09
 68.48926    -89.4 9.344e+03 4.670e-09
 68.50891    -89.3 9.548e+03 5.045e-09
 68.51996    -89.3 9.732e+03 5.453e-09
 68.53970    -91.2 9.850e+03 5.975e-09
 68.57786    -90.9 1.004e+04 6.725e-09
 68.60722    -89.8 1.018e+04 7.316e-09
 68.62677    -89.9 1.031e+04 7.838e-09
 68.64641    -89.9 1.047e+04 8.589e-09
 68.66606    -90.1 1.068e+04 9.829e-09
 68.68570    -90.2 1.103e+04 1.198e-08
 68.69983    -90.5 1.150e+04 1.517e-08
 68.70965    -91.0 1.109e+04 1.178e-08
 68.72499    -91.0 1.161e+04 1.529e-08
 68.74463    -91.6 1.195e+04 1.712e-08
 68.76428    -92.3 1.208e+04 1.772e-08
 68.78392    -93.0 1.212e+04 1.714e-08
 68.80357    -93.4 1.195e+04 1.485e-08
 68.82321    -93.6 1.165e+04 1.220e-08
 68.84285    -93.7 1.132e+04 9.978e-09
 68.86250    -93.6 1.099e+04 8.261e-09
 68.87970    -92.7 1.075e+04 6.859e-09
 68.88952    -92.8 1.043e+04 5.213e-09
 68.90179    -91.7 1.027e+04 4.434e-09
 68.92143    -90.5 1.015e+04 3.742e-09
 68.94107    -89.1 1.015e+04 3.208e-09
 68.96072    -87.7 1.023e+04 2.907e-09
 68.98036    -86.4 1.030e+04 2.760e-09
 69.00993    -84.9 1.037e+04 2.756e-09
 69.04931    -81.9 1.035e+04 2.650e-09
 69.08860    -78.9 1.035e+04 2.621e-09
 69.12789    -75.8 1.036e+04 2.638e-09
 69.16718    -72.9 1.050e+04 2.804e-09
 69.20646    -70.1 1.065e+04 3.146e-09
 69.23963    -67.5 1.080e+04 3.421e-09
 69.25928    -67.5 1.070e+04 3.060e-09
 69.28504    -64.9 1.078e+04 3.177e-09
 69.32433    -62.5 1.081e+04 3.101e-09
 69.36362    -60.0 1.084e+04 2.668e-09
 69.40290    -57.5 1.087e+04 2.256e-09
 69.44219    -55.1 1.091e+04 2.060e-09
 69.48148    -53.0 1.113e+04 2.117e-09
 69.51085    -51.9 1.124e+04 2.513e-09
 69.53039    -51.5 1.133e+04 3.349e-09
 69.55004    -50.7 1.152e+04 4.695e-09
 69.56968    -50.3 1.183e+04 6.855e-09
 69.58933    -50.2 1.240e+04 1.070e-08
 69.60897    -50.7 1.322e+04 1.786e-08
 69.62861    -50.5 1.332e+04 1.931e-08
 69.64826    -51.2 1.394e+04 2.676e-08
 69.66790    -51.9 1.433e+04 3.081e-08
 69.68755    -53.0 1.450e+04 2.995e-08
 69.70719    -54.2 1.424e+04 2.207e-08
 69.72683    -55.4 1.378e+04 1.641e-08
 69.74648    -56.0 1.333e+04 1.139e-08
 69.76612    -56.4 1.288e+04 7.342e-09
 69.79569    -56.1 1.261e+04 5.314e-09
 69.83507    -56.2 1.210e+04 2.593e-09
 69.87436    -56.0 1.167e+04 1.356e-09
 69.91365    -54.9 1.131e+04 8.989e-10
 69.95294    -53.3 1.116e+04 7.636e-10
 69.97876    -51.5 1.111e+04 6.186e-10
 69.99840    -50.5 1.121e+04 5.950e-10
 70.03151    -48.7 1.114e+04 4.930e-10
 70.07080    -46.9 1.107e+04 4.496e-10
 70.11009    -44.9 1.106e+04 4.435e-10
 70.14938    -43.3 1.108e+04 5.271e-10
 70.18866    -41.7 1.097e+04 7.796e-10
 70.22795    -39.7 1.087e+04 1.188e-09
 70.26724    -37.6 1.088e+04 1.556e-09
 70.30653    -35.6 1.091e+04 1.666e-09
 70.33850    -33.4 1.083e+04 1.594e-09
 70.35814    -32.8 1.087e+04 1.444e-09
 70.38510    -30.5 1.081e+04 1.230e-09
 70.42439    -28.3 1.079e+04 1.074e-09
 70.46368    -26.0 1.079e+04 1.051e-09
 70.50297    -23.8 1.080e+04 1.216e-09
 70.52595    -21.5 1.078e+04 1.624e-09
 70.54559    -21.8 1.085e+04 1.709e-09
 70.58154    -19.5 1.091e+04 2.128e-09
 70.62083    -17.4 1.098e+04 2.458e-09
 70.66012    -15.4 1.101e+04 2.743e-09
 70.69824    -13.8 1.109e+04 2.803e-09
 70.71788    -13.5 1.106e+04 2.781e-09
 70.73870    -12.1 1.118e+04 2.994e-09
 70.77798    -10.8 1.131e+04 3.762e-09
 70.81727     -9.2 1.148e+04 4.728e-09
 70.85656     -7.8 1.167e+04 5.446e-09
 70.89585     -7.2 1.209e+04 6.435e-09
 70.93514     -7.6 1.263e+04 9.525e-09
 70.96451     -7.0 1.277e+04 1.359e-08
 70.98405     -6.8 1.308e+04 1.552e-08
 71.00370     -6.7 1.345e+04 1.723e-08
 71.02334     -7.1 1.362e+04 1.771e-08
 71.04298     -7.6 1.371e+04 1.848e-08
 71.06263     -8.3 1.356e+04 1.906e-08
 71.07742     -8.7 1.330e+04 1.879e-08
 71.08725     -8.2 1.352e+04 1.949e-08
 71.10192     -8.6 1.358e+04 2.228e-08
 71.12156     -9.4 1.390e+04 2.217e-08
 71.14120    -11.0 1.420e+04 1.996e-08
 71.16085    -13.1 1.398e+04 1.638e-08
 71.18049    -14.9 1.302e+04 1.406e-08
 71.20014    -15.4 1.258e+04 1.281e-08
 71.21978    -16.0 1.245e+04 1.061e-08
 71.24934    -17.4 1.239e+04 6.933e-09
 71.28873    -19.7 1.223e+04 5.123e-09
 71.32802    -22.2 1.243e+04 7.489e-09
 71.36731    -24.0 1.288e+04 1.263e-08
 71.40659    -26.0 1.292e+04 1.325e-08
 71.43736    -27.7 1.216e+04 6.793e-09
 71.45700    -29.0 1.187e+04 5.617e-09
 71.48517    -29.6 1.136e+04 2.396e-09
 71.52446    -29.0 1.115e+04 1.299e-09
 71.56375    -27.4 1.108e+04 9.625e-10
 71.60303    -25.3 1.110e+04 8.601e-10
 71.64232    -23.1 1.115e+04 7.828e-10
 71.68161    -20.9 1.120e+04 7.469e-10
 71.72090    -18.7 1.128e+04 7.808e-10
 71.76019    -16.6 1.118e+04 9.851e-10
 71.79710    -14.3 1.123e+04 1.283e-09
 71.81674    -14.7 1.151e+04 1.544e-09
 71.83876    -13.3 1.179e+04 2.409e-09
 71.87805    -12.7 1.211e+04 4.907e-09
 71.91734    -11.9 1.267e+04 1.048e-08
 71.95663    -10.8 1.289e+04 1.471e-08
 71.99591    -10.2 1.273e+04 9.893e-09
 72.03520     -9.8 1.205e+04 6.623e-09
 72.07449     -8.4 1.163e+04 4.294e-09
 72.11378     -6.9 1.143e+04 3.230e-09
 72.15307     -5.2 1.149e+04 3.441e-09
 72.17648     -4.1 1.167e+04 5.011e-09
 72.19613     -3.9 1.174e+04 4.458e-09
 72.23164     -2.3 1.201e+04 6.677e-09
 72.27093     -1.6 1.268e+04 9.127e-09
 72.30030     -2.4 1.329e+04 1.220e-08
 72.31985     -3.6 1.374e+04 1.735e-08
 72.33949     -4.1 1.390e+04 2.481e-08
 72.35616     -4.8 1.400e+04 2.756e-08
 72.36598     -4.6 1.430e+04 3.147e-08
 72.37878     -5.3 1.413e+04 2.936e-08
 72.39842     -5.8 1.364e+04 2.211e-08
 72.41807     -6.2 1.321e+04 1.355e-08
 72.43771     -6.7 1.260e+04 1.003e-08
 72.46727     -6.9 1.238e+04 7.661e-09
 72.50666     -6.1 1.229e+04 7.607e-09
 72.53622     -5.8 1.256e+04 1.086e-08
 72.55577     -5.3 1.262e+04 8.669e-09
 72.57522     -5.7 1.294e+04 1.306e-08
 72.59486     -5.1 1.296e+04 1.755e-08
 72.61451     -4.8 1.318e+04 1.830e-08
 72.63415     -4.8 1.313e+04 1.749e-08
 72.65379     -5.1 1.305e+04 1.551e-08
 72.67344     -5.1 1.274e+04 1.380e-08
 72.69308     -4.8 1.272e+04 9.959e-09
 72.71273     -4.5 1.219e+04 8.419e-09
 72.72572     -3.7 1.241e+04 5.430e-09
 72.73554     -3.4 1.261e+04 5.757e-09
 72.75201     -3.3 1.220e+04 4.782e-09
 72.77166     -2.7 1.219e+04 3.514e-09
 72.79130     -2.4 1.208e+04 3.233e-09
 72.82087     -1.5 1.191e+04 2.704e-09
 72.86025      0.5 1.180e+04 2.330e-09
 72.89596      2.7 1.183e+04 1.900e-09
 72.91561      3.3 1.193e+04 1.862e-09
 72.93883      5.6 1.202e+04 1.569e-09
 72.97811      7.8 1.201e+04 1.409e-09
 73.01740     10.0 1.199e+04 1.358e-09
 73.05669     12.3 1.204e+04 1.389e-09
 73.09598     14.6 1.207e+04 1.455e-09
 73.13527     17.0 1.207e+04 1.490e-09
 73.17456     19.5 1.203e+04 1.400e-09
 73.21384     21.8 1.203e+04 1.246e-09
 73.25313     24.2 1.198e+04 1.110e-09
 73.27535     26.6 1.188e+04 1.072e-09
 73.29499     26.8 1.193e+04 1.000e-09
 73.33171     29.1 1.188e+04 1.012e-09
 73.37100     31.2 1.176e+04 1.165e-09
 73.41028     33.7 1.178e+04 1.706e-09
 73.44957     35.7 1.200e+04 2.380e-09
 73.47894     36.3 1.207e+04 2.955e-09
 73.49849     36.6 1.215e+04 3.751e-09
 73.51813     36.5 1.223e+04 5.061e-09
 73.53777     36.2 1.245e+04 7.393e-09
 73.55742     35.7 1.271e+04 1.118e-08
 73.57706     35.3 1.296e+04 1.519e-08
 73.59671     34.9 1.297e+04 1.625e-08
 73.61635     34.5 1.284e+04 1.559e-08
 73.63499     34.4 1.227e+04 1.016e-08
 73.64481     34.3 1.266e+04 1.496e-08
 73.65564     34.0 1.224e+04 1.114e-08
 73.68520     34.3 1.193e+04 7.960e-09
 73.72459     34.5 1.127e+04 4.096e-09
 73.76388     35.5 1.085e+04 2.846e-09
 73.80316     37.6 1.070e+04 2.678e-09
 73.84245     40.0 1.068e+04 2.701e-09
 73.88174     42.6 1.068e+04 2.875e-09
 73.92103     45.2 1.072e+04 3.185e-09
 73.96032     47.6 1.076e+04 3.589e-09
 73.99483     50.1 1.079e+04 4.051e-09
 74.01447     50.4 1.061e+04 3.178e-09
 74.03889     52.8 1.067e+04 3.539e-09
 74.07818     55.1 1.074e+04 3.792e-09
 74.11747     57.3 1.085e+04 4.030e-09
 74.15676     59.2 1.091e+04 4.037e-09
 74.19604     60.9 1.091e+04 3.733e-09
 74.23533     62.4 1.085e+04 3.060e-09
 74.27462     64.0 1.076e+04 2.346e-09
 74.31391     65.7 1.064e+04 1.789e-09
 74.35320     67.6 1.050e+04 1.468e-09
 74.37421     69.7 1.038e+04 1.387e-09
 74.39386     69.3 1.046e+04 1.118e-09
 74.43177     71.4 1.044e+04 9.353e-10
 74.47106     73.4 1.041e+04 8.097e-10
 74.51035     75.4 1.034e+04 7.495e-10
 74.54964     77.4 1.028e+04 7.177e-10
 74.58892     79.4 1.025e+04 7.169e-10
 74.62821     81.4 1.018e+04 7.450e-10
 74.66750     83.5 1.004e+04 8.358e-10
 74.70679     85.6 9.865e+03 1.015e-09
 74.73395     87.9 9.796e+03 1.340e-09
 74.75360     87.7 9.873e+03 1.171e-09
 74.78536     90.2 9.852e+03 1.667e-09
 74.82465     92.7 9.945e+03 2.412e-09
 74.86394     94.2 1.001e+04 3.142e-09
 74.89331     95.0 9.940e+03 3.933e-09
 74.91286     95.9 9.935e+03 4.971e-09
 74.92345     96.9 1.003e+04 6.176e-09
 74.93327     96.8 9.870e+03 4.700e-09
 74.95214     97.8 9.986e+03 5.599e-09
 74.97179     98.6 1.018e+04 6.609e-09
 74.99143     99.1 1.049e+04 8.003e-09
 75.01108     99.2 1.085e+04 1.016e-08
 75.03072     99.1 1.135e+04 1.333e-08
 75.05036     98.9 1.179e+04 1.736e-08
 75.07001     98.6 1.220e+04 2.037e-08
 75.08965     98.0 1.242e+04 2.117e-08
 75.10332     97.6 1.241e+04 2.072e-08
 75.11314     96.7 1.376e+04 2.857e-08
 75.12894     96.2 1.413e+04 2.962e-08
 75.14858     95.7 1.463e+04 3.150e-08
 75.16823     95.3 1.523e+04 3.634e-08
 75.18787     94.9 1.612e+04 4.676e-08
 75.20752     94.7 1.682e+04 6.476e-08
 75.22716     94.9 1.718e+04 8.894e-08
 75.24680     95.8 1.746e+04 1.213e-07
 75.26149     95.7 1.792e+04 1.559e-07
 75.27126     95.8 1.828e+04 1.941e-07
 75.28108     96.0 1.844e+04 2.340e-07
 75.28800     96.5 1.846e+04 2.664e-07
 75.29291     95.8 1.843e+04 2.617e-07
 75.30073     96.5 1.851e+04 2.557e-07
 75.31055     97.0 1.866e+04 2.346e-07
 75.32037     97.3 1.893e+04 2.011e-07
 75.33019     97.0 1.935e+04 1.606e-07
 75.34001     96.4 1.976e+04 1.206e-07
 75.34984     95.1 2.004e+04 8.715e-08
 75.35966     93.6 1.948e+04 6.772e-08
 75.36948     92.0 1.913e+04 5.478e-08
 75.37794     90.4 1.882e+04 4.331e-08
 75.38285     86.6 1.274e+04 1.438e-08
 75.38912     85.3 1.227e+04 1.286e-08
 75.39895     83.8 1.194e+04 1.175e-08
 75.40877     82.3 1.191e+04 1.116e-08
 75.41859     81.1 1.217e+04 1.112e-08
 75.42841     80.1 1.315e+04 1.198e-08
 75.43824     79.2 1.481e+04 1.453e-08
 75.44806     78.2 1.677e+04 2.012e-08
 75.45788     77.4 1.843e+04 3.306e-08
 75.46770     76.9 1.926e+04 5.985e-08
 75.47278     76.5 1.941e+04 1.055e-07
 75.47769     78.4 1.685e+04 1.783e-08
 75.48735     77.9 1.841e+04 3.095e-08
 75.49717     77.9 1.917e+04 5.813e-08
 75.50699     78.2 1.934e+04 1.141e-07
 75.51681     78.5 1.924e+04 2.257e-07
 75.52663     78.8 1.900e+04 3.969e-07
 75.53646     79.1 1.871e+04 5.794e-07
 75.54628     79.7 1.843e+04 7.030e-07
 75.55610     80.5 1.826e+04 7.455e-07
 75.56272     81.4 1.820e+04 7.431e-07
 75.56763     81.9 1.871e+04 5.576e-07
 75.57574     82.9 1.846e+04 7.062e-07
 75.58557     84.3 1.823e+04 8.018e-07
 75.59539     86.2 1.816e+04 8.993e-07
 75.60521     88.7 1.807e+04 1.181e-06
 75.61503     92.3 1.787e+04 1.979e-06
 75.62485     97.2 1.770e+04 3.970e-06
 75.63468     99.0 1.727e+04 9.638e-06
 75.64202    101.8 1.470e+04 7.696e-05
 75.64690     99.8 1.120e+04 2.929e-03
 75.65181     87.9 9.931e+03 1.624e-02
 75.65506     73.0 9.989e+03 1.514e-02
 75.65627     75.3 9.732e+03 2.123e-02
 75.65793     68.3 9.948e+03 1.609e-02
 75.66162     63.2 1.015e+04 9.721e-03
 75.66655     62.7 1.639e+04 3.781e-05
 75.67394     63.2 2.253e+04 1.411e-06
 75.68379     61.6 2.263e+04 2.053e-07
 75.69361     62.3 2.022e+04 1.376e-07
 75.70343     64.1 1.883e+04 1.090e-07
 75.71821     67.6 1.763e+04 8.146e-08
 75.73790     70.3 1.568e+04 5.370e-08
 75.75755     72.0 1.446e+04 3.933e-08
 75.77719     73.1 1.378e+04 3.351e-08
 75.79684     74.2 1.352e+04 3.127e-08
 75.81648     75.3 1.336e+04 2.975e-08
 75.83262     76.5 1.316e+04 2.761e-08
 75.84244     76.5 1.288e+04 2.261e-08
 75.85577     77.9 1.269e+04 2.091e-08
 75.87541     79.1 1.250e+04 1.902e-08
 75.89506     80.0 1.230e+04 1.703e-08
 75.91470     80.7 1.207e+04 1.498e-08
 75.93434     81.3 1.189e+04 1.355e-08
 75.96391     82.6 1.174e+04 1.224e-08
 76.00329     83.4 1.143e+04 1.035e-08
 76.03283     84.3 1.117e+04 8.765e-09
 76.05247     83.8 1.096e+04 6.702e-09
 76.08187     85.3 1.076e+04 5.468e-09
 76.12116     86.8 1.063e+04 4.531e-09
 76.16045     88.3 1.050e+04 3.557e-09
 76.19256     89.7 1.034e+04 2.843e-09
 76.21220     89.7 9.918e+03 1.849e-09
 76.23902     91.0 9.891e+03 1.923e-09
 76.27831     92.2 9.834e+03 2.179e-09
 76.31760     93.1 9.793e+03 2.645e-09
 76.35689     94.0 9.783e+03 3.220e-09
 76.39617     94.7 9.784e+03 3.559e-09
 76.43546     95.4 9.759e+03 3.539e-09
 76.47475     96.1 9.647e+03 3.322e-09
 76.51404     96.9 9.503e+03 3.084e-09
 76.55230     98.0 9.487e+03 3.094e-09
 76.57194     97.6 9.182e+03 1.989e-09
 76.59261     98.8 9.209e+03 2.147e-09
 76.63190     99.8 9.335e+03 2.724e-09
 76.67119    100.9 9.538e+03 3.690e-09
 76.71048    102.0 9.679e+03 4.628e-09
 76.74977    103.2 9.816e+03 5.400e-09
 76.78905    104.7 9.958e+03 5.895e-09
 76.81842    105.1 1.004e+04 6.099e-09
 76.83797    105.0 1.020e+04 6.623e-09
 76.85761    104.9 1.048e+04 7.897e-09
 76.87726    104.6 1.087e+04 1.025e-08
 76.89690    104.3 1.130e+04 1.380e-08
 76.91654    104.0 1.170e+04 1.803e-08
 76.93148    103.8 1.199e+04 2.123e-08
 76.94131    102.6 1.204e+04 2.117e-08
 76.95583    102.2 1.197e+04 2.028e-08
 76.97548    101.5 1.175e+04 1.753e-08
 76.99512    100.7 1.136e+04 1.385e-08
 77.01477     99.8 1.087e+04 1.043e-08
 77.03441     98.7 1.039e+04 7.831e-09
 77.05405     97.6 1.001e+04 6.094e-09
 77.07370     96.7 9.703e+03 5.121e-09
 77.09334     95.7 9.706e+03 5.074e-09
 77.11135     95.0 9.703e+03 5.139e-09
 77.12118     93.9 9.615e+03 4.963e-09
 77.14255     93.5 9.851e+03 5.843e-09
 77.18193     91.9 1.040e+04 7.612e-09
 77.21130     89.5 1.095e+04 9.413e-09
 77.23085     87.0 1.123e+04 1.048e-08
 77.25049     84.4 1.119e+04 1.032e-08
 77.27014     82.3 1.099e+04 9.086e-09
 77.28978     80.0 1.071e+04 7.107e-09
 77.30105     77.3 1.049e+04 5.282e-09
 77.31087     73.9 1.081e+04 6.497e-09
 77.32907     71.1 1.074e+04 6.791e-09
 77.34871     68.8 1.065e+04 7.454e-09
 77.36836     66.9 1.063e+04 8.124e-09
 77.38800     65.3 1.064e+04 8.536e-09
 77.40765     63.8 1.056e+04 8.506e-09
 77.42729     62.4 1.050e+04 8.419e-09
 77.44693     60.9 1.049e+04 8.508e-09
 77.46658     59.0 1.059e+04 8.834e-09
 77.48092     56.8 1.087e+04 1.012e-08
 77.49074     53.8 1.080e+04 9.710e-09
 77.50587     52.0 1.083e+04 1.151e-08
 77.52551     50.6 1.075e+04 1.156e-08
 77.54515     49.6 1.047e+04 1.055e-08
 77.56480     48.7 9.994e+03 8.184e-09
 77.58444     47.7 9.447e+03 6.005e-09
 77.60409     46.7 8.972e+03 4.663e-09
 77.62373     45.9 8.626e+03 3.950e-09
 77.64337     45.7 8.747e+03 3.722e-09
 77.66079     45.6 8.809e+03 3.912e-09
 77.67061     44.3 9.136e+03 4.637e-09
 77.68266     44.5 9.268e+03 5.147e-09
 77.70231     44.6 9.447e+03 5.879e-09
 77.73187     44.6 1.005e+04 7.902e-09
 77.77126     45.1 1.074e+04 1.092e-08
 77.81054     45.5 1.130e+04 1.428e-08
 77.83991     45.3 1.172e+04 1.748e-08
 77.85048     45.0 1.197e+04 1.942e-08
 77.86030     44.3 1.218e+04 2.112e-08
 77.87910     44.1 1.220e+04 2.114e-08
 77.89875     43.8 1.213e+04 2.024e-08
 77.92831     43.9 1.154e+04 1.542e-08
 77.96770     43.8 1.064e+04 1.006e-08
 78.00698     43.8 9.734e+03 5.988e-09
 78.03054     43.8 9.052e+03 3.688e-09
 78.05019     42.9 9.662e+03 4.978e-09
 78.08556     43.5 9.092e+03 3.194e-09
 78.12485     44.2 8.775e+03 2.265e-09
 78.16414     45.1 8.727e+03 2.121e-09
 78.20342     46.0 8.842e+03 2.103e-09
 78.24271     46.7 9.063e+03 2.094e-09
 78.28200     47.0 9.310e+03 2.115e-09
 78.32129     46.9 9.567e+03 2.179e-09
 78.36058     46.7 9.840e+03 2.328e-09
 78.39028     46.4 1.005e+04 2.549e-09
 78.40993     45.8 1.013e+04 2.522e-09
 78.42923     45.5 1.022e+04 2.706e-09
 78.44878     45.1 1.047e+04 2.992e-09
 78.46842     44.5 1.072e+04 3.678e-09
 78.48807     44.0 1.090e+04 4.812e-09
 78.50771     43.7 1.106e+04 6.145e-09
 78.52735     43.6 1.120e+04 6.972e-09
 78.54700     43.5 1.123e+04 6.947e-09
 78.56664     43.4 1.120e+04 6.626e-09
 78.57978     43.4 1.117e+04 5.969e-09
 78.58960     43.1 1.122e+04 6.496e-09
 78.60593     43.0 1.119e+04 5.651e-09
 78.62557     43.0 1.124e+04 5.444e-09
 78.64522     43.1 1.126e+04 5.469e-09
 78.66486     43.2 1.137e+04 5.599e-09
 78.68451     43.3 1.153e+04 5.952e-09
 78.70415     43.3 1.171e+04 6.595e-09
 78.72379     43.2 1.192e+04 7.617e-09
 78.74344     43.0 1.221e+04 9.111e-09
 78.75965     42.6 1.254e+04 1.104e-08
 78.76947     42.4 1.272e+04 1.132e-08
 78.78273     41.9 1.308e+04 1.370e-08
 78.79590     41.1 1.342e+04 1.589e-08
 78.80572     41.3 1.372e+04 1.722e-08
 78.82201     40.3 1.397e+04 1.977e-08
 78.84166     39.1 1.421e+04 2.235e-08
 78.86130     37.6 1.448e+04 2.482e-08
 78.88095     35.6 1.475e+04 2.749e-08
 78.90059     33.4 1.479e+04 2.766e-08
 78.92023     31.2 1.465e+04 2.631e-08
 78.93952     29.5 1.416e+04 2.212e-08
 78.94934     29.1 1.405e+04 1.966e-08
 78.95952     27.7 1.344e+04 1.486e-08
 78.97917     26.4 1.279e+04 1.020e-08
 78.99881     25.2 1.222e+04 6.724e-09
 79.01845     24.2 1.174e+04 4.524e-09
 79.03810     23.4 1.138e+04 3.284e-09
 79.05774     22.9 1.111e+04 2.575e-09
 79.07739     22.3 1.093e+04 2.197e-09
 79.10695     22.3 1.085e+04 2.019e-09
 79.12941     22.6 1.057e+04 1.701e-09
 79.14905     22.3 1.059e+04 1.532e-09
 79.18562     22.6 1.027e+04 1.516e-09
 79.22491     22.5 1.025e+04 1.641e-09
 79.25428     22.7 1.038e+04 1.767e-09
 79.27383     21.8 1.075e+04 2.206e-09
 79.29347     20.4 1.099e+04 3.405e-09
 79.30908     19.0 1.128e+04 5.707e-09
 79.31890     18.0 1.156e+04 7.236e-09
 79.33276     16.8 1.187e+04 1.086e-08
 79.35240     15.7 1.202e+04 1.353e-08
 79.37205     14.1 1.211e+04 1.435e-08
 79.39169     11.9 1.218e+04 1.477e-08
 79.41134      9.5 1.222e+04 1.557e-08
 79.43098      7.4 1.214e+04 1.553e-08
 79.45062      6.0 1.189e+04 1.443e-08
 79.47027      4.6 1.166e+04 1.217e-08
 79.48895      3.1 1.135e+04 9.895e-09
 79.49877      2.1 1.140e+04 9.617e-09
 79.50956      0.9 1.107e+04 8.206e-09
 79.52920     -0.8 1.143e+04 8.907e-09
 79.54884     -4.2 1.257e+04 1.330e-08
 79.56849     -7.7 1.363e+04 2.708e-08
 79.58813     -8.7 1.432e+04 5.113e-08
 79.60778     -9.1 1.459e+04 5.805e-08
 79.62742     -9.7 1.447e+04 4.765e-08
 79.64706    -12.9 1.454e+04 3.532e-08
 79.66671    -18.1 1.477e+04 3.538e-08
 79.67864    -23.1 1.536e+04 5.441e-08
 79.68847    -23.7 1.479e+04 4.875e-08
 79.70600    -24.7 1.522e+04 7.338e-08
 79.72564    -24.9 1.542e+04 8.562e-08
 79.74528    -26.1 1.570e+04 6.233e-08
 79.76493    -29.2 1.490e+04 4.650e-08
 79.78457    -31.0 1.391e+04 3.834e-08
 79.80422    -31.2 1.317e+04 2.961e-08
 79.82386    -31.2 1.249e+04 2.040e-08
 79.84350    -31.8 1.179e+04 1.308e-08
 79.85851    -32.4 1.107e+04 8.676e-09
 79.86834    -31.7 1.094e+04 8.174e-09
 79.88279    -31.7 1.059e+04 6.347e-09
 79.90244    -31.5 1.027e+04 5.046e-09
 79.92208    -31.0 9.965e+03 4.336e-09
 79.94172    -30.4 9.792e+03 3.880e-09
 79.97129    -29.3 9.724e+03 3.383e-09
 80.01067    -27.5 9.639e+03 3.051e-09
 80.04996    -25.6 9.486e+03 2.776e-09
 80.08925    -24.1 9.426e+03 2.601e-09
 80.12854    -22.6 9.389e+03 3.131e-09
 80.16783    -21.0 9.548e+03 3.526e-09
 80.20711    -19.8 9.658e+03 3.641e-09
 80.22827    -18.4 9.534e+03 3.391e-09
 80.24792    -17.6 9.502e+03 3.096e-09
 80.28569    -15.8 9.277e+03 2.652e-09
 80.32498    -14.4 9.096e+03 2.287e-09
 80.36427    -12.9 9.006e+03 2.107e-09
 80.40355    -11.4 9.040e+03 2.045e-09
 80.44284    -10.5 9.200e+03 2.432e-09
 80.48213     -9.9 9.395e+03 3.446e-09
 80.51150     -9.8 9.713e+03 5.054e-09
 80.53104    -10.5 1.021e+04 7.061e-09
 80.55069    -12.7 1.140e+04 1.159e-08
 80.57033    -14.3 1.237e+04 2.087e-08
 80.58782    -14.5 1.292e+04 3.089e-08
 80.59764    -14.7 1.345e+04 3.809e-08
 80.60962    -15.0 1.328e+04 3.136e-08
 80.62926    -16.8 1.278e+04 2.376e-08
 80.64891    -19.1 1.188e+04 1.660e-08
 80.66855    -20.3 1.095e+04 1.307e-08
 80.68820    -20.4 1.059e+04 1.108e-08
 80.70784    -20.2 1.028e+04 9.282e-09
 80.72748    -19.8 1.004e+04 7.010e-09
 80.74713    -20.0 9.633e+03 5.227e-09
 80.76677    -20.7 9.311e+03 3.840e-09
 80.77751    -20.8 9.086e+03 3.495e-09
 80.78733    -20.3 9.171e+03 2.980e-09
 80.80606    -20.2 9.204e+03 2.770e-09
 80.82570    -19.7 9.248e+03 2.666e-09
 80.84535    -19.5 9.256e+03 2.684e-09
 80.86499    -18.8 9.360e+03 2.515e-09
 80.88464    -18.7 9.394e+03 2.539e-09
 80.90428    -18.4 9.697e+03 2.493e-09
 80.92392    -18.8 9.827e+03 2.904e-09
 80.94357    -19.3 1.003e+04 3.874e-09
 80.95738    -19.5 1.027e+04 5.030e-09
 80.96720    -18.2 1.023e+04 3.609e-09
 80.98286    -18.3 1.000e+04 5.372e-09
 81.00250    -17.6 9.988e+03 6.085e-09
 81.02214    -17.6 1.007e+04 6.110e-09
 81.04179    -17.6 1.005e+04 6.357e-09
 81.06143    -17.7 1.018e+04 6.573e-09
 81.08108    -18.0 1.035e+04 7.461e-09
 81.10072    -18.1 1.046e+04 8.917e-09
 81.12036    -18.0 1.072e+04 1.040e-08
 81.13725    -18.5 1.125e+04 1.189e-08
 81.14707    -16.8 1.112e+04 1.115e-08
 81.15965    -17.7 1.162e+04 1.339e-08
 81.17930    -18.9 1.208e+04 1.657e-08
 81.19894    -19.8 1.237e+04 1.936e-08
 81.21858    -20.4 1.243e+04 1.981e-08
 81.23823    -20.9 1.203e+04 1.550e-08
 81.25787    -21.8 1.120e+04 1.059e-08
 81.27752    -23.1 1.056e+04 7.196e-09
 81.30708    -23.4 1.055e+04 5.184e-09
 81.32713    -23.1 1.026e+04 2.474e-09
 81.34678    -21.9 1.059e+04 2.798e-09
 81.38575    -20.7 1.016e+04 1.535e-09
 81.42504    -19.4 9.996e+03 1.212e-09
 81.46433    -17.5 1.008e+04 1.217e-09
 81.50362    -16.4 1.039e+04 1.797e-09
 81.53971    -14.5 1.077e+04 3.147e-09
 81.55936    -14.3 1.070e+04 3.053e-09
 81.58219    -12.3 1.104e+04 4.084e-09
 81.62148    -11.0 1.130e+04 3.954e-09
 81.66077     -9.8 1.144e+04 3.367e-09
 81.68687     -8.5 1.149e+04 2.620e-09
 81.70652     -7.6 1.174e+04 3.283e-09
 81.73935     -6.2 1.184e+04 2.403e-09
 81.77863     -5.2 1.213e+04 1.974e-09
 81.81792     -4.1 1.235e+04 2.030e-09
 81.85721     -3.5 1.266e+04 2.235e-09
 81.88658     -4.1 1.286e+04 2.642e-09
 81.90613     -4.1 1.289e+04 2.804e-09
 81.93569     -5.2 1.332e+04 4.099e-09
 81.96515     -6.1 1.357e+04 4.778e-09
 81.98470     -7.3 1.401e+04 5.424e-09
 82.00435     -8.6 1.393e+04 7.572e-09
 82.02399     -9.4 1.387e+04 8.750e-09
 82.04363    -10.5 1.382e+04 8.913e-09
 82.05624    -11.0 1.350e+04 7.926e-09
 82.06606    -11.3 1.340e+04 7.178e-09
 82.08292    -11.8 1.346e+04 5.070e-09
 82.10257    -11.9 1.292e+04 3.807e-09
 82.13213    -11.9 1.288e+04 1.951e-09
 82.17151    -10.9 1.289e+04 9.307e-10
 82.21080     -9.5 1.276e+04 6.224e-10
 82.25009     -7.6 1.284e+04 4.676e-10
 82.28938     -5.3 1.274e+04 4.587e-10
 82.32867     -3.2 1.266e+04 4.955e-10
 82.36795     -0.8 1.256e+04 5.367e-10
 82.40635      1.7 1.245e+04 5.535e-10
 82.42600      2.0 1.249e+04 5.241e-10
 82.44653      4.4 1.246e+04 5.014e-10
 82.48582      6.8 1.245e+04 4.877e-10
 82.52511      9.2 1.244e+04 4.709e-10
 82.56440     11.6 1.248e+04 4.352e-10
 82.60368     14.0 1.251e+04 3.903e-10
 82.64297     16.3 1.247e+04 3.666e-10
 82.68226     18.7 1.245e+04 3.684e-10
 82.72155     21.0 1.245e+04 3.893e-10
 82.76084     23.3 1.244e+04 4.479e-10
 82.78574     25.6 1.235e+04 5.330e-10
 82.80538     25.9 1.227e+04 5.278e-10
 82.83941     28.3 1.219e+04 5.944e-10
 82.87870     30.7 1.214e+04 6.281e-10
 82.91799     33.0 1.211e+04 6.420e-10
 82.95728     35.3 1.210e+04 6.604e-10
 82.99656     37.6 1.207e+04 7.037e-10
 83.03585     40.0 1.203e+04 7.730e-10
 83.07514     42.3 1.202e+04 8.441e-10
 83.11443     44.6 1.210e+04 8.648e-10
 83.14548     46.7 1.213e+04 8.556e-10
 83.16512     47.1 1.202e+04 7.828e-10
 83.19300     49.0 1.209e+04 7.350e-10
 83.23229     50.9 1.215e+04 7.053e-10
 83.27158     52.7 1.216e+04 7.151e-10
 83.31087     54.4 1.224e+04 7.587e-10
 83.35016     56.0 1.228e+04 8.752e-10
 83.38944     57.6 1.232e+04 1.046e-09
 83.42873     59.2 1.238e+04 1.216e-09
 83.46802     60.9 1.248e+04 1.336e-09
 83.50522     62.4 1.258e+04 1.416e-09
 83.52486     62.8 1.255e+04 1.425e-09
 83.54660     64.2 1.262e+04 1.574e-09
 83.58588     65.5 1.266e+04 1.905e-09
 83.62517     66.7 1.274e+04 2.396e-09
 83.66446     67.8 1.288e+04 2.832e-09
 83.70375     68.6 1.308e+04 2.896e-09
 83.74304     69.3 1.306e+04 2.807e-09
 83.78232     70.0 1.298e+04 2.420e-09
 83.82161     70.8 1.287e+04 1.889e-09
 83.86090     71.5 1.274e+04 1.523e-09
 83.88460     72.4 1.259e+04 1.458e-09
 83.90425     72.4 1.260e+04 1.634e-09
 83.93948     73.2 1.255e+04 1.664e-09
 83.97876     74.0 1.245e+04 1.746e-09
 84.01805     74.6 1.234e+04 1.935e-09
 84.05734     75.0 1.226e+04 2.344e-09
 84.09663     75.2 1.219e+04 3.020e-09
 84.13592     75.1 1.212e+04 3.417e-09
 84.17520     74.7 1.208e+04 3.374e-09
 84.21449     74.4 1.191e+04 3.025e-09
 84.24434     74.4 1.173e+04 2.478e-09
 84.26399     74.4 1.167e+04 2.315e-09
 84.29307     74.4 1.155e+04 2.026e-09
 84.33236     74.5 1.147e+04 1.873e-09
 84.37164     74.7 1.141e+04 1.764e-09
 84.41093     75.1 1.132e+04 1.646e-09
 84.45022     75.8 1.125e+04 1.479e-09
 84.48951     76.6 1.120e+04 1.299e-09
 84.52880     77.5 1.116e+04 1.136e-09
 84.56808     78.5 1.110e+04 1.045e-09
 84.60408     79.8 1.105e+04 1.032e-09
 84.62373     79.7 1.099e+04 1.009e-09
 84.64666     81.1 1.102e+04 1.027e-09
 84.68595     82.3 1.109e+04 1.101e-09
 84.72524     83.4 1.117e+04 1.258e-09
 84.76453     84.2 1.127e+04 1.496e-09
 84.80381     85.0 1.140e+04 1.799e-09
 84.84310     85.6 1.152e+04 2.135e-09
 84.88239     86.1 1.160e+04 2.414e-09
 84.92168     86.5 1.159e+04 2.545e-09
 84.96097     87.0 1.152e+04 2.535e-09
 84.98347     87.7 1.140e+04 2.482e-09
 85.00311     87.1 1.136e+04 2.616e-09
 85.03954     87.9 1.124e+04 2.545e-09
 85.07883     88.8 1.109e+04 2.564e-09
 85.11812     89.8 1.102e+04 2.619e-09
 85.15741     90.9 1.093e+04 2.767e-09
 85.19669     92.0 1.089e+04 2.859e-09
 85.23598     93.0 1.090e+04 2.831e-09
 85.27527     94.1 1.076e+04 2.686e-09
 85.31456     95.4 1.046e+04 2.208e-09
 85.34321     96.9 1.026e+04 1.558e-09
 85.36285     96.8 1.008e+04 9.660e-10
 85.39313     98.4 1.008e+04 6.374e-10
 85.43242    100.0 1.010e+04 5.313e-10
 85.47171    101.9 1.009e+04 5.383e-10
 85.51100    103.8 1.009e+04 5.747e-10
 85.55029    105.6 1.010e+04 6.881e-10
 85.58957    107.4 1.019e+04 9.246e-10
 85.62886    109.0 1.042e+04 1.347e-09
 85.66815    110.3 1.072e+04 2.154e-09
 85.70295    110.7 1.102e+04 3.484e-09
 85.72259    110.6 1.095e+04 3.364e-09
 85.74673    110.6 1.124e+04 4.573e-09
 85.78601    110.3 1.155e+04 5.389e-09
 85.81538    109.8 1.181e+04 5.902e-09
 85.83493    109.3 1.200e+04 5.911e-09
 85.85457    108.5 1.206e+04 5.801e-09
 85.87422    107.7 1.212e+04 5.483e-09
 85.89244    107.1 1.210e+04 5.041e-09
 85.90227    107.5 1.194e+04 4.841e-09
 85.91350    107.2 1.192e+04 4.359e-09
 85.93315    107.1 1.191e+04 3.687e-09
 85.95279    106.9 1.191e+04 3.039e-09
 85.98236    106.2 1.194e+04 2.566e-09
 86.02174    106.5 1.197e+04 2.115e-09
 86.06103    106.8 1.204e+04 2.010e-09
 86.08233    107.3 1.211e+04 2.035e-09
 86.10197    107.8 1.187e+04 1.943e-09
 86.13961    108.3 1.222e+04 2.131e-09
 86.17889    108.7 1.246e+04 2.321e-09
 86.20826    108.7 1.252e+04 2.547e-09
 86.22781    108.7 1.250e+04 2.793e-09
 86.24745    108.4 1.256e+04 3.149e-09
 86.26201    107.0 1.303e+04 4.251e-09
 86.27183    106.1 1.337e+04 5.138e-09
 86.28674    103.6 1.391e+04 1.091e-08
 86.30639    101.0 1.447e+04 2.042e-08
 86.32603     98.4 1.494e+04 2.594e-08
 86.34567     95.3 1.499e+04 2.524e-08
 86.36532     92.2 1.488e+04 2.099e-08
 86.38496     89.2 1.458e+04 1.522e-08
 86.40461     86.3 1.418e+04 1.179e-08
 86.42425     84.1 1.402e+04 1.146e-08
 86.44188     82.0 1.408e+04 1.178e-08
 86.45170     80.6 1.412e+04 1.181e-08
 86.46354     78.1 1.437e+04 1.353e-08
 86.48318     75.2 1.468e+04 1.848e-08
 86.50283     72.4 1.493e+04 2.388e-08
 86.52247     69.6 1.494e+04 2.401e-08
 86.54211     67.2 1.473e+04 2.086e-08
 86.56176     64.5 1.439e+04 1.272e-08
 86.58140     62.4 1.390e+04 8.583e-09
 86.61096     59.6 1.351e+04 6.712e-09
 86.65035     56.4 1.338e+04 6.680e-09
 86.68964     53.8 1.322e+04 7.496e-09
 86.72893     51.7 1.311e+04 8.055e-09
 86.76821     50.1 1.304e+04 7.633e-09
 86.80181     48.9 1.261e+04 6.190e-09
 86.82145     48.9 1.233e+04 5.108e-09
 86.84679     48.2 1.208e+04 3.581e-09
 86.88608     47.6 1.190e+04 2.945e-09
 86.92537     47.2 1.178e+04 2.723e-09
 86.96465     47.2 1.167e+04 2.569e-09
 87.00394     47.3 1.157e+04 2.374e-09
 87.04323     47.6 1.148e+04 2.131e-09
 87.06624     48.0 1.137e+04 1.866e-09
 87.08588     47.7 1.133e+04 1.997e-09
 87.12181     48.4 1.122e+04 1.631e-09
 87.16110     49.4 1.119e+04 1.487e-09
 87.18119     50.7 1.121e+04 1.487e-09
 87.20084     51.2 1.110e+04 1.187e-09
 87.23967     52.6 1.113e+04 1.286e-09
 87.27896     54.0 1.119e+04 1.438e-09
 87.31825     55.4 1.131e+04 1.547e-09
 87.35754     56.7 1.138e+04 1.553e-09
 87.39682     58.0 1.141e+04 1.528e-09
 87.43611     59.5 1.141e+04 1.508e-09
 87.47540     61.3 1.147e+04 1.557e-09
 87.51469     62.9 1.175e+04 1.869e-09
 87.54093     63.4 1.195e+04 2.509e-09
 87.56058     63.7 1.180e+04 2.316e-09
 87.58334     64.0 1.203e+04 3.568e-09
 87.60289     64.3 1.218e+04 4.774e-09
 87.63245     64.7 1.263e+04 7.504e-09
 87.66192     64.1 1.319e+04 1.178e-08
 87.68147     63.3 1.366e+04 1.727e-08
 87.70111     62.4 1.404e+04 2.230e-08
 87.72061     61.4 1.428e+04 2.425e-08
 87.73043     61.0 1.425e+04 2.333e-08
 87.74040     59.9 1.423e+04 2.135e-08
 87.76004     58.8 1.415e+04 1.757e-08
 87.77969     57.7 1.403e+04 1.382e-08
 87.79933     56.9 1.390e+04 1.080e-08
 87.81897     56.0 1.379e+04 8.693e-09
 87.83862     55.4 1.368e+04 8.143e-09
 87.85826     55.0 1.369e+04 8.300e-09
 87.87791     54.6 1.376e+04 9.020e-09
 87.89755     54.1 1.395e+04 1.045e-08
 87.91030     53.0 1.431e+04 1.314e-08
 87.92012     53.4 1.414e+04 9.945e-09
 87.93684     51.1 1.482e+04 1.962e-08
 87.95648     48.2 1.568e+04 4.347e-08
 87.97613     45.2 1.646e+04 6.809e-08
 87.99577     41.8 1.660e+04 6.754e-08
 88.01541     38.7 1.655e+04 5.226e-08
 88.03506     35.8 1.630e+04 3.535e-08
 88.05470     33.5 1.604e+04 3.227e-08
 88.07435     32.1 1.605e+04 3.352e-08
 88.09017     31.4 1.612e+04 3.722e-08
 88.09999     31.5 1.575e+04 3.581e-08
 88.11363     30.8 1.576e+04 3.823e-08
 88.13328     29.7 1.594e+04 4.282e-08
 88.15292     27.6 1.640e+04 5.824e-08
 88.17257     24.5 1.708e+04 1.045e-07
 88.19221     21.7 1.697e+04 1.109e-07
 88.21185     20.1 1.622e+04 7.607e-08
 88.23150     19.0 1.527e+04 2.776e-08
 88.25114     17.5 1.461e+04 9.235e-09
 88.27004     15.9 1.429e+04 3.633e-09
 88.27986     17.3 1.438e+04 6.096e-09
 88.30035     15.0 1.421e+04 3.921e-09
 88.33974     14.2 1.291e+04 3.373e-09
 88.37902     15.2 1.262e+04 3.584e-09
 88.41831     16.8 1.240e+04 3.717e-09
 88.44768     17.4 1.236e+04 3.849e-09
 88.45973     18.0 1.226e+04 3.757e-09
 88.46956     18.1 1.222e+04 3.535e-09
 88.49679     18.8 1.205e+04 3.165e-09
 88.53618     19.8 1.192e+04 2.888e-09
 88.57546     21.0 1.179e+04 2.730e-09
 88.61475     21.9 1.168e+04 2.737e-09
 88.63970     22.5 1.165e+04 2.965e-09
 88.64943     22.3 1.174e+04 3.078e-09
 88.66367     22.5 1.174e+04 3.940e-09
 88.68331     22.8 1.175e+04 5.110e-09
 88.70296     23.3 1.174e+04 6.317e-09
 88.72260     23.4 1.179e+04 7.050e-09
 88.74224     23.2 1.179e+04 7.043e-09
 88.77181     22.6 1.175e+04 6.917e-09
 88.81119     22.0 1.156e+04 6.602e-09
 88.85048     21.6 1.132e+04 6.133e-09
 88.88977     21.6 1.100e+04 5.138e-09
 88.92906     21.8 1.078e+04 3.920e-09
 88.96834     22.1 1.057e+04 3.634e-09
 88.99954     22.6 1.056e+04 3.761e-09
 89.01918     21.4 1.079e+04 4.668e-09
 89.04692     21.8 1.074e+04 4.634e-09
 89.08621     22.2 1.058e+04 4.140e-09
 89.12550     22.5 1.032e+04 3.188e-09
 89.16478     22.7 1.003e+04 2.710e-09
 89.20407     22.9 1.003e+04 2.824e-09
 89.24336     22.9 1.016e+04 3.481e-09
 89.27273     22.3 1.036e+04 4.670e-09
 89.29228     22.4 1.042e+04 5.528e-09
 89.31192     22.5 1.044e+04 6.053e-09
 89.33156     22.6 1.043e+04 6.183e-09
 89.35121     22.7 1.044e+04 6.269e-09
 89.36891     22.6 1.048e+04 6.438e-09
 89.37873     21.8 1.035e+04 5.454e-09
 89.39050     21.6 1.039e+04 5.532e-09
 89.41014     21.5 1.048e+04 5.703e-09
 89.42978     21.3 1.057e+04 5.927e-09
 89.44943     21.2 1.064e+04 6.243e-09
 89.46907     21.1 1.067e+04 6.580e-09
 89.48872     21.2 1.065e+04 6.788e-09
 89.50836     21.3 1.063e+04 6.736e-09
 89.52800     21.4 1.057e+04 6.567e-09
 89.54765     21.4 1.050e+04 6.407e-09
 89.55860     21.5 1.048e+04 6.450e-09
 89.56842     21.4 1.038e+04 5.597e-09
 89.58694     21.6 1.040e+04 6.040e-09
 89.60658     21.8 1.049e+04 6.762e-09
 89.62622     22.2 1.063e+04 7.562e-09
 89.64587     22.4 1.079e+04 7.957e-09
 89.67543     22.5 1.065e+04 6.873e-09
 89.71482     22.2 1.048e+04 6.045e-09
 89.73866     21.4 1.038e+04 6.011e-09
 89.75831     21.3 1.063e+04 6.822e-09
 89.79339     19.8 1.071e+04 7.398e-09
 89.83268     18.3 1.060e+04 6.949e-09
 89.87197     17.4 1.013e+04 4.875e-09
 89.91126     16.6 9.648e+03 2.538e-09
 89.95055     15.6 9.334e+03 1.578e-09
 89.98983     15.2 9.401e+03 1.661e-09
 90.02912     14.9 9.674e+03 2.245e-09
 90.05849     14.9 9.864e+03 2.742e-09
 90.07804     15.0 1.000e+04 3.549e-09
 90.09768     15.4 1.017e+04 4.419e-09
 90.10803     15.8 1.035e+04 4.817e-09
 90.11785     15.7 1.060e+04 5.398e-09
 90.13697     15.5 1.092e+04 5.971e-09
 90.15661     15.0 1.129e+04 6.463e-09
 90.17626     14.0 1.170e+04 7.148e-09
 90.19590     12.7 1.206e+04 8.056e-09
 90.21554     11.2 1.236e+04 9.634e-09
 90.23519      9.0 1.294e+04 1.337e-08
 90.25483      5.7 1.419e+04 2.413e-08
 90.27448      3.2 1.541e+04 5.151e-08
 90.28790      1.7 1.559e+04 6.724e-08
 90.29772      0.6 1.559e+04 6.847e-08
 90.31376      0.7 1.494e+04 5.577e-08
 90.33341     -0.6 1.434e+04 3.519e-08
 90.35305     -3.4 1.336e+04 2.181e-08
 90.37270     -5.3 1.223e+04 1.638e-08
 90.39234     -6.1 1.172e+04 1.485e-08
 90.42190     -5.5 1.131e+04 1.246e-08
 90.45814     -4.6 1.050e+04 8.015e-09
 90.47779     -4.8 1.051e+04 7.872e-09
 90.50058     -3.7 9.906e+03 4.438e-09
 90.53987     -3.1 9.496e+03 2.950e-09
 90.57915     -2.0 9.133e+03 2.649e-09
 90.61844     -0.3 9.018e+03 2.594e-09
 90.65773      1.6 8.979e+03 2.663e-09
 90.69702      3.5 8.986e+03 2.886e-09
 90.73631      5.5 8.981e+03 3.050e-09
 90.77559      7.5 8.936e+03 2.942e-09
 90.81488      9.5 8.816e+03 2.562e-09
 90.83753     11.3 8.681e+03 2.139e-09
 90.85717     10.6 8.836e+03 2.430e-09
 90.89346     12.3 8.819e+03 2.400e-09
 90.93275     14.0 8.859e+03 2.573e-09
 90.97203     15.7 8.993e+03 3.163e-09
 91.01132     17.4 9.236e+03 4.114e-09
 91.05061     19.2 9.526e+03 5.217e-09
 91.08990     21.1 9.861e+03 6.456e-09
 91.11927     22.1 9.886e+03 6.966e-09
 91.13881     23.1 9.855e+03 6.942e-09
 91.15846     24.0 9.823e+03 6.705e-09
 91.17810     24.9 9.757e+03 6.318e-09
 91.19707     25.8 9.703e+03 5.990e-09
 91.20689     25.7 9.454e+03 4.907e-09
 91.21739     26.6 9.478e+03 4.866e-09
 91.23703     27.3 9.520e+03 4.931e-09
 91.25668     28.1 9.577e+03 5.096e-09
 91.27632     29.0 9.698e+03 5.498e-09
 91.29597     29.7 9.873e+03 6.129e-09
 91.31561     30.4 1.008e+04 6.929e-09
 91.33525     31.2 1.029e+04 7.803e-09
 91.35490     31.8 1.049e+04 8.648e-09
 91.37454     32.4 1.066e+04 9.405e-09
 91.38676     32.9 1.080e+04 1.009e-08
 91.39658     33.1 1.074e+04 9.771e-09
 91.41383     33.5 1.084e+04 1.047e-08
 91.43347     33.9 1.098e+04 1.126e-08
 91.45312     34.2 1.112e+04 1.212e-08
 91.47276     34.6 1.126e+04 1.312e-08
 91.49241     35.1 1.141e+04 1.432e-08
 91.51205     35.6 1.159e+04 1.561e-08
 91.53169     36.1 1.179e+04 1.681e-08
 91.55134     36.5 1.202e+04 1.792e-08
 91.56663     36.7 1.225e+04 1.906e-08
 91.57645     36.7 1.228e+04 1.992e-08
 91.59063     37.0 1.250e+04 2.090e-08
 91.61027     37.0 1.277e+04 2.221e-08
 91.62991     36.9 1.318e+04 2.508e-08
 91.64956     36.4 1.397e+04 3.243e-08
 91.66920     35.1 1.516e+04 5.043e-08
 91.68885     34.3 1.622e+04 7.463e-08
 91.70353     32.9 1.668e+04 9.707e-08
 91.71330     31.8 1.697e+04 1.095e-07
 91.72313     30.4 1.734e+04 1.189e-07
 91.73295     28.4 1.781e+04 1.257e-07
 91.74277     25.5 1.816e+04 1.270e-07
 91.75132     22.4 1.813e+04 1.247e-07
 91.75623     22.3 1.682e+04 7.554e-08
 91.76241     19.2 1.654e+04 7.646e-08
 91.77224     17.1 1.609e+04 7.501e-08
 91.78702     15.3 1.611e+04 7.513e-08
 91.80671     15.1 1.512e+04 5.201e-08
 91.82635     14.4 1.398e+04 2.797e-08
 91.84600     12.9 1.303e+04 1.558e-08
 91.86564     12.2 1.235e+04 1.013e-08
 91.88529     12.3 1.206e+04 7.896e-09
 91.90493     13.0 1.182e+04 6.213e-09
 91.92457     13.4 1.182e+04 5.322e-09
 91.93619     14.1 1.167e+04 4.356e-09
 91.94602     15.1 1.167e+04 4.267e-09
 91.96386     15.2 1.167e+04 4.157e-09
 91.98351     16.0 1.161e+04 3.678e-09
 92.00315     16.2 1.164e+04 3.648e-09
 92.02279     16.7 1.158e+04 3.633e-09
 92.04244     17.3 1.162e+04 3.708e-09
 92.06208     17.9 1.170e+04 3.843e-09
 92.08173     18.4 1.178e+04 4.016e-09
 92.10137     18.8 1.185e+04 4.210e-09
 92.11606     19.2 1.196e+04 4.393e-09
 92.12589     19.7 1.194e+04 3.304e-09
 92.14066     19.8 1.205e+04 3.493e-09
 92.16030     20.0 1.213e+04 3.780e-09
 92.17995     20.1 1.218e+04 4.168e-09
 92.19959     20.3 1.221e+04 4.699e-09
 92.21923     20.4 1.226e+04 5.387e-09
 92.23888     20.6 1.235e+04 6.250e-09
 92.25852     20.8 1.252e+04 7.422e-09
 92.27817     20.8 1.279e+04 9.261e-09
 92.29593     20.5 1.324e+04 1.268e-08
 92.30576     21.0 1.292e+04 1.068e-08
 92.31745     20.8 1.349e+04 1.564e-08
 92.33710     20.4 1.422e+04 2.425e-08
 92.35674     20.2 1.492e+04 3.639e-08
 92.37639     20.1 1.554e+04 5.056e-08
 92.39603     19.9 1.606e+04 6.523e-08
 92.41567     19.5 1.654e+04 7.941e-08
 92.43532     19.0 1.696e+04 9.160e-08
 92.45496     18.3 1.738e+04 1.105e-07
 92.47461     17.4 1.771e+04 1.221e-07
 92.48563     15.2 1.842e+04 1.528e-07
 92.49545     19.0 1.851e+04 1.608e-07
 92.50893     15.3 1.936e+04 2.471e-07
 92.51871     13.5 1.914e+04 3.075e-07
 92.52853     12.6 1.943e+04 2.350e-07
 92.53835     11.3 1.970e+04 1.128e-07
 92.54817     10.1 1.967e+04 5.999e-08
 92.55800      8.3 1.935e+04 3.711e-08
 92.57278     -0.4 1.761e+04 1.336e-08
 92.58275     -9.2 1.184e+04 5.383e-09
 92.59257     -7.2 1.524e+04 5.853e-09
 92.61211    -10.8 1.133e+04 5.032e-09
 92.63176    -12.2 1.129e+04 4.735e-09
 92.65140    -13.0 1.186e+04 5.795e-09
 92.66550    -13.5 1.194e+04 6.359e-09
 92.67532    -14.1 1.195e+04 6.790e-09
 92.69069    -14.4 1.212e+04 7.557e-09
 92.71033    -14.8 1.238e+04 8.464e-09
 92.72998    -15.8 1.240e+04 9.008e-09
 92.74962    -17.9 1.289e+04 1.108e-08
 92.76927    -19.6 1.383e+04 1.517e-08
 92.78891    -21.0 1.469e+04 2.425e-08
 92.80855    -22.2 1.513e+04 3.304e-08
 92.82820    -23.7 1.524e+04 3.595e-08
 92.84537    -25.3 1.509e+04 3.498e-08
 92.85519    -27.6 1.484e+04 3.321e-08
 92.86749    -28.5 1.420e+04 2.729e-08
 92.88713    -29.1 1.356e+04 2.236e-08
 92.90677    -29.3 1.304e+04 1.782e-08
 92.92642    -29.3 1.257e+04 1.391e-08
 92.94606    -29.1 1.210e+04 1.072e-08
 92.96571    -28.7 1.177e+04 8.268e-09
 92.98535    -28.3 1.154e+04 6.324e-09
 93.00499    -28.0 1.138e+04 4.955e-09
 93.02464    -27.9 1.135e+04 4.168e-09
 93.03506    -27.7 1.109e+04 3.976e-09
 93.04488    -27.7 1.133e+04 4.173e-09
 93.06393    -27.2 1.113e+04 4.211e-09
 93.08357    -26.3 1.106e+04 4.464e-09
 93.10321    -25.4 1.097e+04 4.491e-09
 93.12286    -24.2 1.096e+04 4.541e-09
 93.14250    -23.6 1.095e+04 4.507e-09
 93.16215    -22.1 1.093e+04 4.314e-09
 93.18179    -21.5 1.089e+04 4.174e-09
 93.20143    -20.1 1.071e+04 3.834e-09
 93.21493    -19.4 1.076e+04 3.588e-09
 93.22475    -19.2 1.087e+04 4.009e-09
 93.24072    -18.0 1.068e+04 4.372e-09
 93.26037    -17.8 1.062e+04 4.323e-09
 93.28001    -16.2 1.046e+04 4.601e-09
 93.29966    -15.8 1.045e+04 4.596e-09
 93.32922    -13.7 1.020e+04 4.015e-09
 93.36860    -11.4 9.895e+03 3.108e-09
 93.39499     -9.3 9.736e+03 2.503e-09
 93.41464     -9.2 1.004e+04 3.147e-09
 93.44718     -7.0 9.873e+03 2.837e-09
 93.48647     -4.4 9.846e+03 2.889e-09
 93.52576     -1.8 9.924e+03 3.207e-09
 93.56504      0.9 1.005e+04 3.691e-09
 93.60433      3.6 1.024e+04 4.227e-09
 93.64362      6.1 1.046e+04 4.774e-09
 93.68291      8.7 1.068e+04 5.352e-09
 93.72220     11.2 1.092e+04 6.186e-09
 93.75473     13.5 1.125e+04 7.340e-09
 93.77438     13.4 1.150e+04 7.409e-09
 93.80077     15.7 1.182e+04 8.539e-09
 93.83014     17.5 1.198e+04 9.552e-09
 93.84969     18.0 1.220e+04 1.012e-08
 93.86933     18.6 1.248e+04 1.132e-08
 93.88898     19.1 1.281e+04 1.313e-08
 93.90862     19.5 1.310e+04 1.556e-08
 93.92826     19.9 1.335e+04 1.854e-08
 93.94423     20.5 1.360e+04 2.151e-08
 93.95405     20.5 1.340e+04 2.041e-08
 93.96755     21.1 1.344e+04 2.026e-08
 93.98720     21.7 1.346e+04 1.941e-08
 94.00684     22.0 1.345e+04 1.755e-08
 94.02648     22.4 1.334e+04 1.488e-08
 94.04613     23.0 1.313e+04 1.156e-08
 94.07569     23.5 1.270e+04 6.449e-09
 94.11447     24.2 1.250e+04 4.044e-09
 94.13412     25.0 1.265e+04 5.000e-09
 94.14445     25.2 1.271e+04 5.216e-09
 94.16399     25.6 1.278e+04 6.120e-09
 94.18364     26.2 1.278e+04 7.524e-09
 94.20328     26.8 1.275e+04 8.640e-09
 94.22292     27.4 1.271e+04 8.638e-09
 94.24257     27.8 1.263e+04 8.221e-09
 94.26221     27.9 1.250e+04 7.430e-09
 94.28186     27.9 1.236e+04 6.589e-09
 94.30150     27.8 1.224e+04 5.840e-09
 94.31379     27.6 1.214e+04 5.296e-09
 94.32361     28.4 1.242e+04 6.249e-09
 94.34079     28.0 1.236e+04 6.164e-09
 94.36043     27.6 1.235e+04 6.312e-09
 94.38008     26.9 1.243e+04 6.733e-09
 94.39972     25.6 1.269e+04 7.859e-09
 94.41936     23.6 1.320e+04 1.163e-08
 94.43901     22.1 1.372e+04 1.974e-08
 94.45865     21.4 1.405e+04 2.845e-08
 94.47830     21.0 1.415e+04 3.143e-08
 94.49366     20.8 1.402e+04 2.988e-08
 94.50348     20.6 1.413e+04 2.887e-08
 94.51758     20.4 1.381e+04 2.407e-08
 94.53723     20.4 1.354e+04 2.111e-08
 94.55687     20.6 1.336e+04 1.990e-08
 94.57652     21.2 1.325e+04 1.894e-08
 94.59616     21.6 1.309e+04 1.729e-08
 94.61580     22.3 1.287e+04 1.399e-08
 94.63545     22.5 1.269e+04 1.233e-08
 94.65509     23.4 1.240e+04 9.875e-09
 94.67353     23.4 1.219e+04 8.801e-09
 94.68335     23.4 1.239e+04 9.617e-09
 94.70430     24.8 1.216e+04 8.273e-09
 94.74369     25.7 1.180e+04 6.630e-09
 94.78297     26.8 1.150e+04 5.740e-09
 94.82226     28.3 1.134e+04 5.566e-09
 94.85360     30.0 1.131e+04 5.667e-09
 94.87324     29.2 1.122e+04 5.173e-09
 94.90084     31.0 1.113e+04 5.060e-09
 94.94013     33.0 1.117e+04 5.191e-09
 94.96949     34.1 1.104e+04 5.292e-09
 94.98904     35.1 1.086e+04 4.975e-09
 95.00868     36.1 1.064e+04 4.393e-09
 95.02833     37.1 1.044e+04 3.807e-09
 95.04309     38.1 1.030e+04 3.360e-09
 95.05292     37.6 1.017e+04 2.793e-09
 95.06762     38.4 1.013e+04 2.742e-09
 95.08726     39.4 1.012e+04 2.836e-09
 95.10690     40.4 1.011e+04 3.047e-09
 95.12655     41.4 1.019e+04 3.435e-09
 95.14619     42.4 1.033e+04 4.009e-09
 95.16584     43.3 1.051e+04 4.766e-09
 95.18548     44.0 1.076e+04 5.925e-09
 95.20512     44.7 1.113e+04 8.139e-09
 95.22296     45.2 1.163e+04 1.173e-08
 95.23279     44.8 1.169e+04 1.236e-08
 95.24441     45.5 1.219e+04 1.642e-08
 95.26406     46.2 1.270e+04 2.112e-08
 95.28370     46.6 1.308e+04 2.341e-08
 95.30334     46.7 1.309e+04 2.273e-08
 95.32299     46.9 1.294e+04 1.983e-08
 95.33619     47.0 1.258e+04 1.576e-08
 95.34601     46.4 1.214e+04 1.167e-08
 95.36228     46.4 1.178e+04 9.966e-09
 95.38192     46.7 1.148e+04 8.881e-09
 95.40156     47.2 1.127e+04 8.277e-09
 95.41266     47.9 1.111e+04 7.851e-09
 95.42248     47.7 1.118e+04 8.022e-09
 95.44085     48.4 1.110e+04 7.768e-09
 95.46050     49.2 1.100e+04 7.416e-09
 95.48014     50.1 1.086e+04 6.874e-09
 95.49978     51.0 1.067e+04 6.204e-09
 95.51943     51.8 1.050e+04 5.675e-09
 95.53907     52.4 1.035e+04 5.331e-09
 95.55872     52.5 1.031e+04 5.406e-09
 95.57836     52.4 1.070e+04 5.831e-09
 95.59253     52.1 1.142e+04 7.517e-09
 95.60235     50.1 1.247e+04 1.321e-08
 95.61765     50.0 1.280e+04 1.777e-08
 95.63729     49.9 1.302e+04 2.208e-08
 95.65694     49.9 1.315e+04 2.530e-08
 95.67658     49.8 1.325e+04 2.747e-08
 95.69623     49.7 1.337e+04 2.951e-08
 95.71587     49.7 1.329e+04 2.918e-08
 95.73551     49.8 1.302e+04 2.682e-08
 95.75516     49.8 1.262e+04 2.288e-08
 95.77240     50.0 1.214e+04 1.917e-08
 95.78222     48.4 1.140e+04 1.474e-08
 95.79445     49.0 1.111e+04 1.325e-08
 95.81409     49.8 1.091e+04 1.238e-08
 95.83373     50.6 1.077e+04 1.186e-08
 95.85338     51.5 1.068e+04 1.159e-08
 95.87302     52.6 1.061e+04 1.141e-08
 95.89267     53.8 1.058e+04 1.143e-08
 95.91231     55.2 1.061e+04 1.157e-08
 95.93195     56.5 1.068e+04 1.183e-08
 95.95160     58.3 1.080e+04 1.213e-08
 95.96209     60.0 1.097e+04 1.261e-08
 95.97191     59.2 1.089e+04 1.203e-08
 95.99089     60.8 1.101e+04 1.237e-08
 96.01053     62.7 1.107e+04 1.256e-08
 96.03017     64.8 1.114e+04 1.286e-08
 96.04982     67.0 1.134e+04 1.365e-08
 96.06946     69.0 1.168e+04 1.514e-08
 96.08911     71.1 1.211e+04 1.733e-08
 96.10875     73.3 1.258e+04 2.074e-08
 96.12839     76.0 1.347e+04 2.782e-08
 96.14196     80.6 1.585e+04 4.582e-08
 96.15178     77.6 1.559e+04 3.763e-08
 96.16272     80.4 1.663e+04 5.108e-08
 96.17249     82.4 1.733e+04 6.430e-08
 96.18232     84.3 1.784e+04 7.677e-08
 96.19214     85.2 1.897e+04 9.450e-08
 96.20196     82.9 2.242e+04 1.526e-07
 96.21178     76.6 2.546e+04 4.387e-07
 96.21913     69.8 2.489e+04 9.030e-07
 96.22401     62.6 2.067e+04 3.775e-06
 96.22892     54.9 1.612e+04 3.037e-05
 96.23383     48.2 1.311e+04 3.599e-04
 96.23666     42.6 1.331e+04 3.136e-04
 96.23911     39.3 1.503e+04 6.887e-05
 96.24366     36.4 1.706e+04 1.211e-05
 96.24857     31.5 2.187e+04 1.526e-06
 96.25348     23.0 2.792e+04 2.674e-07
 96.26087     10.3 3.452e+04 4.316e-08
 96.27071     -9.8 2.013e+04 1.166e-08
 96.28054    -19.0 1.178e+04 8.438e-09
 96.29036    -19.4 1.184e+04 8.800e-09
 96.30514    -23.1 1.187e+04 9.219e-09
 96.32183    -25.8 1.205e+04 1.178e-08
 96.33165    -23.0 1.122e+04 9.413e-09
 96.34448    -26.8 1.195e+04 1.319e-08
 96.36412    -30.6 1.283e+04 1.874e-08
 96.38377    -33.9 1.337e+04 2.332e-08
 96.40341    -37.9 1.380e+04 2.463e-08
 96.42305    -43.7 1.529e+04 2.512e-08
 96.43774    -50.4 1.599e+04 2.845e-08
 96.44751    -52.0 1.675e+04 3.304e-08
 96.45733    -57.0 1.649e+04 5.039e-08
 96.46716    -57.9 1.637e+04 6.777e-08
 96.47698    -58.0 1.616e+04 8.132e-08
 96.48680    -57.7 1.621e+04 8.428e-08
 96.49662    -57.4 1.616e+04 7.433e-08
 96.50644    -58.6 1.577e+04 4.777e-08
 96.51147    -62.1 1.428e+04 2.819e-08
 96.52134    -59.7 1.429e+04 3.027e-08
 96.54092    -63.8 1.218e+04 1.399e-08
 96.56056    -66.4 1.075e+04 8.229e-09
 96.58021    -66.8 1.034e+04 6.684e-09
 96.59985    -67.3 1.027e+04 5.589e-09
 96.61949    -68.4 1.028e+04 5.202e-09
 96.63914    -70.1 1.031e+04 5.620e-09
 96.65878    -71.9 1.070e+04 7.919e-09
 96.67843    -72.7 1.119e+04 1.124e-08
 96.69139    -73.2 1.172e+04 1.348e-08
 96.70121    -72.3 1.192e+04 1.576e-08
 96.71771    -73.1 1.220e+04 1.671e-08
 96.73736    -75.5 1.236e+04 1.363e-08
 96.75700    -79.9 1.148e+04 7.981e-09
 96.77665    -84.8 1.053e+04 6.169e-09
 96.79629    -87.7 1.030e+04 5.746e-09
 96.81593    -89.8 1.032e+04 5.711e-09
 96.83558    -92.3 1.049e+04 5.708e-09
 96.85522    -95.2 1.089e+04 5.913e-09
 96.87126    -98.7 1.142e+04 7.065e-09
 96.88108    -95.5 1.089e+04 5.485e-09
 96.89451    -99.0 1.154e+04 7.290e-09
 96.91415   -101.9 1.191e+04 1.110e-08
 96.93380   -103.5 1.206e+04 1.543e-08
 96.95344   -104.5 1.212e+04 1.707e-08
 96.97309   -105.3 1.197e+04 1.624e-08
 96.99273   -106.7 1.195e+04 1.312e-08
 97.01237   -109.0 1.222e+04 1.208e-08
 97.03202   -112.4 1.299e+04 1.272e-08
 97.05113   -116.1 1.436e+04 2.207e-08
 97.06095   -112.1 1.329e+04 1.435e-08
 97.07131   -115.4 1.494e+04 3.360e-08
 97.09095   -116.5 1.639e+04 8.136e-08
 97.10563   -116.2 1.759e+04 1.527e-07
 97.11541   -116.8 1.820e+04 2.289e-07
 97.12523   -117.2 1.849e+04 3.203e-07
 97.13505   -117.5 1.844e+04 3.458e-07
 97.14487   -117.3 1.802e+04 3.307e-07
 97.15079   -116.9 1.769e+04 2.121e-07
 97.15570   -115.8 1.746e+04 2.048e-07
 97.16452   -115.6 1.707e+04 1.319e-07
 97.17434   -116.6 1.637e+04 8.053e-08
 97.18416   -117.8 1.517e+04 5.049e-08
 97.19398   -118.4 1.411e+04 3.712e-08
 97.20877   -118.8 1.316e+04 2.657e-08
 97.22846   -118.3 1.171e+04 1.565e-08
 97.24082   -117.9 1.047e+04 9.807e-09
 97.25064   -116.7 1.077e+04 1.220e-08
 97.26775   -116.0 1.027e+04 9.105e-09
 97.28739   -115.1 9.927e+03 7.254e-09
 97.30703   -114.3 9.603e+03 6.003e-09
 97.32668   -113.6 9.414e+03 5.348e-09
 97.34632   -113.0 9.355e+03 5.209e-09
 97.36597   -112.4 9.343e+03 5.179e-09
 97.38561   -111.9 9.415e+03 5.313e-09
 97.40525   -111.3 9.552e+03 5.564e-09
 97.42069   -110.6 9.661e+03 5.739e-09
 97.43051   -109.8 9.525e+03 5.437e-09
 97.45446   -108.4 9.592e+03 5.490e-09
 97.49385   -106.8 9.718e+03 5.656e-09
 97.52322   -106.4 9.812e+03 5.692e-09
 97.54276   -106.0 9.859e+03 5.374e-09
 97.56241   -105.5 9.881e+03 4.868e-09
 97.58205   -105.1 9.879e+03 4.262e-09
 97.60056   -104.6 9.876e+03 3.721e-09
 97.61038   -103.7 9.860e+03 4.126e-09
 97.62134   -103.2 9.854e+03 3.551e-09
 97.64098   -102.7 9.854e+03 3.128e-09
 97.66063   -102.0 9.864e+03 2.954e-09
 97.68027   -101.3 9.891e+03 2.913e-09
 97.69991   -100.9 9.960e+03 2.930e-09
 97.71956    -99.8 1.010e+04 2.971e-09
 97.73920    -99.7 1.023e+04 3.132e-09
 97.75885    -99.1 1.051e+04 3.569e-09
 97.77849    -98.7 1.076e+04 4.153e-09
 97.79025    -98.0 1.096e+04 4.728e-09
 97.80008    -97.0 1.083e+04 4.236e-09
 97.81778    -96.4 1.106e+04 4.965e-09
 97.83742    -95.8 1.121e+04 5.380e-09
 97.85707    -95.4 1.131e+04 5.673e-09
 97.87671    -95.1 1.134e+04 5.808e-09
 97.89636    -94.9 1.132e+04 5.790e-09
 97.91600    -94.9 1.132e+04 5.792e-09
 97.93564    -95.8 1.142e+04 6.130e-09
 97.95529   -100.6 1.292e+04 1.207e-08
 97.97012   -108.0 1.735e+04 3.500e-08
 97.97995   -103.8 1.560e+04 3.473e-08
 97.99458   -110.8 1.848e+04 6.800e-08
 98.01422   -119.7 1.979e+04 1.061e-07
 98.02890   -127.8 1.929e+04 1.311e-07
 98.03868   -131.2 1.906e+04 1.404e-07
 98.05346   -134.0 1.823e+04 1.431e-07
 98.07315   -136.4 1.672e+04 9.672e-08
 98.08963   -137.2 1.547e+04 5.850e-08
 98.09945   -136.0 1.465e+04 4.466e-08
 98.11244   -136.0 1.392e+04 2.694e-08
 98.13208   -136.2 1.298e+04 1.360e-08
 98.14999   -136.7 1.199e+04 7.468e-09
 98.15982   -134.4 1.256e+04 1.234e-08
 98.17137   -134.6 1.179e+04 7.483e-09
 98.19102   -134.4 1.122e+04 5.274e-09
 98.21066   -133.8 1.082e+04 4.320e-09
 98.23030   -132.8 1.062e+04 3.908e-09
 98.24995   -131.7 1.057e+04 3.767e-09
 98.26959   -130.4 1.053e+04 3.735e-09
 98.28924   -128.7 1.051e+04 3.752e-09
 98.31880   -126.9 1.050e+04 3.894e-09
 98.33978   -129.1 9.932e+03 3.898e-09
 98.34951   -126.4 1.017e+04 3.761e-09
 98.36781   -129.7 1.287e+04 4.748e-09
 98.38746   -133.1 1.761e+04 4.611e-09
 98.40710   -145.3 2.005e+04 7.804e-08
 98.42178   -149.4 1.905e+04 4.564e-07
 98.42952   -151.3 1.900e+04 7.616e-07
 98.43443   -150.1 1.887e+04 8.250e-07
 98.44138   -152.4 1.892e+04 9.652e-07
 98.45120   -155.7 1.904e+04 9.122e-07
 98.46102   -159.6 1.925e+04 4.155e-07
 98.47084   -165.1 1.814e+04 9.975e-08
 98.48067   -170.8 1.474e+04 2.923e-08
 98.49049   -173.1 1.279e+04 1.860e-08
 98.50527   -173.7 1.219e+04 1.551e-08
 98.51956   -174.0 1.170e+04 1.120e-08
 98.52938   -173.9 1.208e+04 1.509e-08
 98.54461   -173.9 1.146e+04 1.028e-08
 98.56425   -173.9 1.083e+04 7.237e-09
 98.58390   -173.6 1.044e+04 5.683e-09
 98.60354   -172.7 1.019e+04 4.733e-09
 98.62318   -171.7 1.003e+04 4.011e-09
 98.64283   -170.6 9.921e+03 3.427e-09
 98.66247   -169.6 9.851e+03 3.003e-09
 98.68212   -168.7 9.791e+03 2.842e-09
 98.71168   -167.8 9.737e+03 2.804e-09
 98.75107   -165.7 9.590e+03 2.296e-09
 98.79035   -163.5 9.460e+03 1.949e-09
 98.82964   -161.4 9.404e+03 1.716e-09
 98.86893   -159.3 9.430e+03 1.596e-09
 98.88931   -157.2 9.481e+03 1.545e-09
 98.90896   -157.3 9.525e+03 1.799e-09
 98.94751   -155.2 9.552e+03 1.773e-09
 98.98679   -153.2 9.675e+03 1.813e-09
 99.02608   -151.1 9.806e+03 1.905e-09
 99.06537   -148.9 9.891e+03 2.078e-09
 99.10466   -146.7 1.002e+04 2.333e-09
 99.14395   -144.5 1.020e+04 2.682e-09
 99.18323   -142.3 1.038e+04 3.073e-09
 99.22252   -140.1 1.053e+04 3.523e-09
 99.24896   -138.3 1.057e+04 3.612e-09
 99.26860   -138.8 1.039e+04 3.137e-09
 99.30110   -136.9 1.037e+04 3.039e-09
 99.34039   -135.0 1.032e+04 2.817e-09
 99.37967   -133.1 1.021e+04 2.517e-09
 99.41896   -131.0 1.004e+04 2.124e-09
 99.45825   -128.6 9.861e+03 1.714e-09
 99.49754   -126.2 9.736e+03 1.368e-09
 99.53683   -123.6 9.697e+03 1.121e-09
 99.57611   -120.8 9.721e+03 9.713e-10
 99.60879   -118.0 9.760e+03 9.056e-10
 99.62844   -117.9 9.648e+03 8.247e-10
 99.65469   -115.0 9.713e+03 7.812e-10
 99.69398   -112.0 9.751e+03 7.671e-10
 99.73327   -109.1 9.854e+03 7.726e-10
 99.77255   -106.1 9.949e+03 8.155e-10
 99.81184   -103.1 1.002e+04 8.825e-10
 99.85113   -100.1 1.008e+04 9.674e-10
 99.89042    -97.0 1.014e+04 1.063e-09
 99.92971    -93.9 1.021e+04 1.174e-09
 99.96853    -90.8 1.031e+04 1.309e-09
 99.98818    -90.8 1.026e+04 1.261e-09
100.00828    -87.8 1.040e+04 1.497e-09
