# Columns:
#   distance along LOS (in CHIMPs)
#   peculiar velocity  (in km/s)
#   temperature (K)
#   HI number density
# pos=(58.7211,103.692,127.794), angles=(1.50568,1.49185)
  0.00475    -23.8 1.106e+04 1.666e-09
  0.02914    -22.9 1.122e+04 1.495e-09
  0.05331    -22.5 1.151e+04 1.520e-09
  0.07295    -22.0 1.145e+04 2.373e-09
  0.10767    -22.0 1.165e+04 3.140e-09
  0.14694    -22.9 1.176e+04 3.987e-09
  0.18621    -24.0 1.180e+04 4.713e-09
  0.22548    -24.9 1.178e+04 4.909e-09
  0.26474    -25.3 1.174e+04 4.018e-09
  0.30401    -25.5 1.181e+04 3.110e-09
  0.34328    -25.6 1.188e+04 2.798e-09
  0.38255    -25.4 1.197e+04 2.721e-09
  0.42182    -25.0 1.207e+04 2.557e-09
  0.46108    -24.3 1.209e+04 2.097e-09
  0.48735    -23.6 1.215e+04 1.597e-09
  0.50698    -24.3 1.221e+04 1.730e-09
  0.53709    -23.8 1.219e+04 1.422e-09
  0.55672    -25.2 1.204e+04 1.312e-09
  0.57889    -24.6 1.187e+04 1.243e-09
  0.61815    -24.2 1.179e+04 1.208e-09
  0.65742    -24.0 1.164e+04 1.224e-09
  0.69669    -23.5 1.144e+04 1.241e-09
  0.73596    -22.5 1.121e+04 1.251e-09
  0.77523    -21.0 1.103e+04 1.230e-09
  0.81449    -19.1 1.089e+04 1.170e-09
  0.85376    -17.1 1.079e+04 1.076e-09
  0.89303    -15.2 1.075e+04 1.026e-09
  0.93230    -13.5 1.081e+04 1.069e-09
  0.97156    -12.3 1.069e+04 1.507e-09
  1.01083    -10.6 1.064e+04 2.450e-09
  1.04050     -8.7 1.066e+04 3.557e-09
  1.06013    -10.0 1.071e+04 4.848e-09
  1.08201     -8.6 1.057e+04 4.165e-09
  1.10165     -8.8 1.050e+04 4.006e-09
  1.12864     -7.6 1.035e+04 3.849e-09
  1.16790     -6.2 1.019e+04 4.278e-09
  1.20717     -4.5 1.020e+04 4.633e-09
  1.24644     -3.0 1.018e+04 4.439e-09
  1.28571     -1.4 1.013e+04 3.489e-09
  1.32497     -0.4 9.952e+03 3.013e-09
  1.36424      1.1 9.899e+03 3.197e-09
  1.40351      2.8 1.006e+04 4.302e-09
  1.43286      3.6 1.034e+04 5.766e-09
  1.45240      3.8 1.054e+04 6.266e-09
  1.47203      4.3 1.066e+04 7.955e-09
  1.49167      4.7 1.104e+04 9.210e-09
  1.51130      5.3 1.096e+04 1.151e-08
  1.53094      6.5 1.117e+04 1.256e-08
  1.54372      7.0 1.142e+04 1.145e-08
  1.55353      5.2 1.141e+04 1.206e-08
  1.57020      5.2 1.132e+04 1.177e-08
  1.59975      5.2 1.088e+04 9.630e-09
  1.63912      5.1 1.052e+04 7.438e-09
  1.67667      4.5 1.036e+04 5.871e-09
  1.69631      2.5 1.007e+04 4.647e-09
  1.71765      1.9 9.915e+03 5.182e-09
  1.75692      2.1 9.888e+03 5.536e-09
  1.79619      2.5 9.649e+03 4.512e-09
  1.83546      2.5 9.328e+03 2.672e-09
  1.87472      1.8 8.930e+03 2.109e-09
  1.91399      2.1 8.731e+03 2.257e-09
  1.95326      2.9 8.752e+03 2.352e-09
  1.99253      4.0 8.699e+03 2.276e-09
  2.02769      5.2 8.706e+03 2.251e-09
  2.04732      4.8 8.521e+03 1.547e-09
  2.07106      6.0 8.486e+03 1.548e-09
  2.11033      7.6 8.385e+03 1.693e-09
  2.14960      9.4 8.428e+03 1.562e-09
  2.18887     10.9 8.566e+03 1.258e-09
  2.22813     11.6 8.640e+03 1.151e-09
  2.26740     12.5 8.636e+03 1.302e-09
  2.29097     13.7 8.725e+03 1.459e-09
  2.31060     12.7 8.888e+03 1.907e-09
  2.34594     13.9 9.063e+03 2.088e-09
  2.38520     14.7 9.239e+03 2.273e-09
  2.42447     15.4 9.450e+03 2.511e-09
  2.46374     15.7 9.641e+03 2.794e-09
  2.50301     16.0 9.840e+03 3.058e-09
  2.53110     15.9 1.015e+04 3.381e-09
  2.55073     15.6 1.009e+04 3.266e-09
  2.57163     15.6 1.026e+04 3.191e-09
  2.58810     15.6 1.029e+04 3.200e-09
  2.59792     15.3 1.044e+04 3.304e-09
  2.62071     13.9 1.082e+04 4.124e-09
  2.66008     12.2 1.152e+04 8.187e-09
  2.68943     10.7 1.191e+04 1.312e-08
  2.70897     10.4 1.193e+04 1.572e-08
  2.72860      9.8 1.199e+04 1.561e-08
  2.74824      8.5 1.221e+04 1.456e-08
  2.76787      6.5 1.233e+04 1.566e-08
  2.78261      5.5 1.214e+04 1.901e-08
  2.79243      6.5 1.157e+04 1.333e-08
  2.80714      6.2 1.169e+04 1.301e-08
  2.82677      5.1 1.224e+04 1.277e-08
  2.84641      2.6 1.281e+04 1.451e-08
  2.86604      0.6 1.260e+04 2.029e-08
  2.88543      0.9 1.256e+04 2.563e-08
  2.89525      0.3 1.250e+04 2.340e-08
  2.90531      0.8 1.234e+04 1.936e-08
  2.92494      0.4 1.220e+04 1.145e-08
  2.94458     -1.2 1.162e+04 8.095e-09
  2.97412     -2.6 1.121e+04 5.869e-09
  3.01349     -2.9 1.097e+04 5.075e-09
  3.03451     -3.5 1.130e+04 5.812e-09
  3.05414     -0.8 1.110e+04 4.882e-09
  3.09202     -1.6 1.147e+04 6.641e-09
  3.13129     -1.6 1.172e+04 9.692e-09
  3.17056     -1.5 1.177e+04 1.043e-08
  3.20983     -0.9 1.159e+04 7.246e-09
  3.24910     -0.5 1.129e+04 4.409e-09
  3.28836      0.1 1.100e+04 3.113e-09
  3.32763      1.2 1.084e+04 2.838e-09
  3.36690      2.5 1.089e+04 3.168e-09
  3.40617      3.4 1.089e+04 4.248e-09
  3.44543      4.7 1.099e+04 5.975e-09
  3.48029      6.0 1.119e+04 7.125e-09
  3.49992      5.1 1.087e+04 5.386e-09
  3.51829      5.4 1.101e+04 6.586e-09
  3.53792      7.3 1.073e+04 3.713e-09
  3.56324      6.7 1.094e+04 5.672e-09
  3.60251      7.0 1.097e+04 1.037e-08
  3.64177      7.4 1.079e+04 1.124e-08
  3.68104      8.6 1.024e+04 6.174e-09
  3.72031      8.7 9.589e+03 2.708e-09
  3.75958      9.0 9.039e+03 1.833e-09
  3.79884     10.2 8.834e+03 1.522e-09
  3.83811     11.5 8.959e+03 1.558e-09
  3.87738     13.1 9.011e+03 1.993e-09
  3.91665     14.9 9.054e+03 2.509e-09
  3.95592     16.4 9.256e+03 3.189e-09
  3.99518     17.8 9.687e+03 4.945e-09
  4.02170     19.1 1.060e+04 8.817e-09
  4.04133     18.8 1.055e+04 9.873e-09
  4.06380     19.1 1.100e+04 1.267e-08
  4.08334     18.7 1.168e+04 1.603e-08
  4.09439     17.9 1.239e+04 2.043e-08
  4.10421     18.3 1.215e+04 2.003e-08
  4.12261     17.4 1.264e+04 2.419e-08
  4.14224     16.5 1.276e+04 2.697e-08
  4.16188     15.5 1.265e+04 2.616e-08
  4.18151     14.2 1.255e+04 2.364e-08
  4.20114     12.0 1.249e+04 2.134e-08
  4.22078     10.1 1.216e+04 2.037e-08
  4.24041      9.5 1.160e+04 1.812e-08
  4.26996      9.1 1.107e+04 1.281e-08
  4.29941      7.8 1.062e+04 8.247e-09
  4.31895      7.7 1.050e+04 7.982e-09
  4.33858      7.3 9.836e+03 5.438e-09
  4.35822      7.2 9.670e+03 5.260e-09
  4.37785      7.4 9.488e+03 3.680e-09
  4.39172      7.4 9.436e+03 3.610e-09
  4.40154      7.9 9.404e+03 3.637e-09
  4.41712      8.4 9.318e+03 3.405e-09
  4.43675      8.5 9.306e+03 3.401e-09
  4.45638      9.3 9.316e+03 3.474e-09
  4.47602      9.5 9.458e+03 3.623e-09
  4.49565     10.0 9.458e+03 4.372e-09
  4.51510     10.5 9.704e+03 4.833e-09
  4.52491     10.8 9.769e+03 5.005e-09
  4.53492     11.2 9.933e+03 6.416e-09
  4.55455     11.6 1.027e+04 7.990e-09
  4.57419     11.5 1.062e+04 1.047e-08
  4.59382     11.2 1.114e+04 1.407e-08
  4.61346     10.9 1.163e+04 1.875e-08
  4.63309     10.7 1.205e+04 2.354e-08
  4.65272     10.3 1.245e+04 2.799e-08
  4.67236      9.4 1.293e+04 3.212e-08
  4.68905      6.5 1.396e+04 3.723e-08
  4.69887      6.4 1.408e+04 3.829e-08
  4.71163      4.0 1.375e+04 4.602e-08
  4.73126      3.9 1.342e+04 4.873e-08
  4.75089      5.1 1.306e+04 2.838e-08
  4.76680      3.1 1.268e+04 1.130e-08
  4.77662      0.2 1.164e+04 8.156e-09
  4.79016     -4.0 1.006e+04 5.483e-09
  4.80979     -5.5 9.762e+03 4.921e-09
  4.82943     -6.4 9.855e+03 5.422e-09
  4.84906     -7.0 9.921e+03 6.163e-09
  4.86870     -7.1 1.013e+04 6.974e-09
  4.88833     -7.1 1.030e+04 7.360e-09
  4.90796     -7.4 1.043e+04 7.354e-09
  4.92760     -7.7 1.052e+04 7.302e-09
  4.94723     -7.8 1.057e+04 6.950e-09
  4.96687     -8.0 1.042e+04 6.162e-09
  4.98638     -8.0 1.023e+04 5.324e-09
  4.99620     -7.1 1.028e+04 5.193e-09
  5.00613     -6.9 1.010e+04 4.407e-09
  5.01851     -6.2 1.002e+04 3.707e-09
  5.02842     -7.9 9.644e+03 1.917e-09
  5.05541     -6.9 9.717e+03 1.573e-09
  5.08477     -5.8 1.018e+04 1.878e-09
  5.10430     -5.7 1.014e+04 1.880e-09
  5.12394     -5.3 1.045e+04 2.451e-09
  5.14357     -5.7 1.083e+04 3.391e-09
  5.16320     -6.2 1.107e+04 5.344e-09
  5.18284     -6.3 1.128e+04 8.312e-09
  5.20247     -5.7 1.163e+04 1.096e-08
  5.22211     -5.3 1.180e+04 1.143e-08
  5.24174     -5.4 1.186e+04 9.039e-09
  5.26040     -6.8 1.237e+04 6.738e-09
  5.27021     -6.2 1.181e+04 4.978e-09
  5.28101     -7.3 1.228e+04 4.556e-09
  5.29353     -8.2 1.286e+04 6.470e-09
  5.30335     -6.7 1.240e+04 3.979e-09
  5.32028     -7.8 1.308e+04 6.818e-09
  5.33991     -8.1 1.339e+04 1.473e-08
  5.35954     -7.3 1.392e+04 2.935e-08
  5.37918     -6.0 1.458e+04 4.592e-08
  5.39881     -5.1 1.502e+04 5.557e-08
  5.41845     -4.6 1.513e+04 5.801e-08
  5.43808     -3.9 1.490e+04 5.206e-08
  5.45771     -3.2 1.453e+04 4.342e-08
  5.47735     -2.4 1.423e+04 3.656e-08
  5.49698     -1.6 1.378e+04 2.997e-08
  5.51210     -0.5 1.348e+04 2.615e-08
  5.52192     -0.3 1.358e+04 2.506e-08
  5.53625      0.6 1.357e+04 2.349e-08
  5.55588      1.0 1.360e+04 2.162e-08
  5.57552      1.4 1.369e+04 2.223e-08
  5.59086      1.9 1.377e+04 3.058e-08
  5.60068      1.8 1.413e+04 3.780e-08
  5.61478      3.1 1.436e+04 4.304e-08
  5.63442      3.8 1.432e+04 4.247e-08
  5.65405      4.4 1.403e+04 3.787e-08
  5.67369      4.8 1.365e+04 3.295e-08
  5.69332      5.3 1.335e+04 2.925e-08
  5.71295      5.9 1.306e+04 2.521e-08
  5.73259      6.6 1.282e+04 2.329e-08
  5.75222      7.4 1.267e+04 2.053e-08
  5.76381      8.3 1.253e+04 1.839e-08
  5.77362      8.1 1.268e+04 2.138e-08
  5.79149      8.9 1.242e+04 2.062e-08
  5.81112     10.0 1.226e+04 1.792e-08
  5.83076     11.0 1.209e+04 1.575e-08
  5.85039     11.8 1.179e+04 1.306e-08
  5.87003     12.3 1.163e+04 1.117e-08
  5.88819     12.9 1.135e+04 1.082e-08
  5.89801     12.2 1.117e+04 1.081e-08
  5.90929     13.0 1.120e+04 1.011e-08
  5.92893     13.8 1.109e+04 1.042e-08
  5.94856     14.8 1.103e+04 9.773e-09
  5.96819     15.8 1.086e+04 9.136e-09
  5.98783     17.1 1.062e+04 7.496e-09
  6.00570     17.1 1.059e+04 7.379e-09
  6.01561     16.8 1.133e+04 1.353e-08
  6.03711     19.2 1.060e+04 9.402e-09
  6.07638     20.9 1.014e+04 6.399e-09
  6.11564     23.0 9.992e+03 6.346e-09
  6.15491     25.4 1.034e+04 7.975e-09
  6.18426     26.1 1.073e+04 1.003e-08
  6.19534     27.4 1.094e+04 1.237e-08
  6.20516     27.2 1.117e+04 1.442e-08
  6.22344     28.5 1.154e+04 1.839e-08
  6.24307     29.8 1.205e+04 2.307e-08
  6.25740     30.1 1.284e+04 3.035e-08
  6.26722     30.4 1.223e+04 1.719e-08
  6.28234     29.9 1.340e+04 2.363e-08
  6.30197     28.8 1.465e+04 3.630e-08
  6.32160     26.1 1.639e+04 6.621e-08
  6.34124     23.7 1.681e+04 1.178e-07
  6.36087     23.0 1.663e+04 1.458e-07
  6.37555     23.0 1.670e+04 1.842e-07
  6.38316     23.2 1.657e+04 1.673e-07
  6.38806     23.2 1.615e+04 1.160e-07
  6.39513     23.0 1.607e+04 1.009e-07
  6.40495     22.7 1.604e+04 9.049e-08
  6.41477     22.4 1.577e+04 7.175e-08
  6.42458     21.2 1.547e+04 5.981e-08
  6.43936     20.4 1.475e+04 4.679e-08
  6.45904     18.9 1.387e+04 3.804e-08
  6.47868     17.4 1.393e+04 3.612e-08
  6.49267     16.0 1.440e+04 3.763e-08
  6.50249     18.3 1.494e+04 4.548e-08
  6.50911     16.7 1.521e+04 4.442e-08
  6.51892     13.6 1.383e+04 3.749e-08
  6.53758     11.5 1.336e+04 3.205e-08
  6.55721      5.9 1.346e+04 2.611e-08
  6.57685     -2.7 1.358e+04 2.386e-08
  6.59648     -9.5 1.226e+04 2.428e-08
  6.61611    -12.7 1.253e+04 2.800e-08
  6.63000    -16.7 1.376e+04 3.174e-08
  6.63486    -17.6 1.393e+04 3.141e-08
  6.64056    -20.6 1.570e+04 3.461e-08
  6.65533    -32.4 1.731e+04 5.525e-08
  6.67501    -40.5 1.737e+04 1.294e-07
  6.68969    -43.6 1.793e+04 1.994e-07
  6.69946    -45.4 1.805e+04 2.134e-07
  6.70928    -47.1 1.784e+04 1.964e-07
  6.71909    -48.9 1.768e+04 1.281e-07
  6.72891    -52.3 1.713e+04 7.133e-08
  6.73873    -56.5 1.543e+04 3.808e-08
  6.74854    -59.6 1.375e+04 2.621e-08
  6.75581    -60.7 1.322e+04 2.392e-08
  6.76076    -60.4 1.269e+04 1.708e-08
  6.77318    -63.4 1.073e+04 9.758e-09
  6.79000    -64.4 1.023e+04 7.337e-09
  6.79982    -65.6 1.005e+04 6.477e-09
  6.81245    -65.9 9.847e+03 5.627e-09
  6.83209    -66.0 9.729e+03 5.287e-09
  6.85172    -66.3 9.982e+03 5.401e-09
  6.87135    -67.4 1.141e+04 7.029e-09
  6.89099    -68.6 1.326e+04 1.231e-08
  6.91062    -69.5 1.418e+04 2.489e-08
  6.93026    -69.7 1.463e+04 4.335e-08
  6.94989    -69.5 1.518e+04 5.729e-08
  6.96952    -69.5 1.599e+04 6.226e-08
  6.98916    -70.9 1.597e+04 6.745e-08
  7.00270    -73.1 1.598e+04 5.975e-08
  7.01252    -70.0 1.747e+04 8.267e-08
  7.02842    -72.2 1.639e+04 6.907e-08
  7.04806    -74.5 1.528e+04 4.227e-08
  7.06769    -76.7 1.405e+04 2.833e-08
  7.08733    -78.7 1.281e+04 2.306e-08
  7.10696    -79.8 1.176e+04 2.011e-08
  7.12659    -80.0 1.164e+04 1.911e-08
  7.14623    -79.9 1.150e+04 1.724e-08
  7.16586    -79.8 1.122e+04 1.460e-08
  7.18550    -79.8 1.082e+04 1.196e-08
  7.20513    -79.6 1.044e+04 9.830e-09
  7.22476    -79.4 1.013e+04 8.307e-09
  7.24440    -79.0 9.922e+03 7.316e-09
  7.25441    -78.5 9.811e+03 6.791e-09
  7.26422    -78.4 9.836e+03 6.291e-09
  7.28367    -77.8 9.795e+03 5.928e-09
  7.30330    -77.3 9.800e+03 5.810e-09
  7.32293    -76.7 9.826e+03 5.785e-09
  7.34257    -76.2 1.006e+04 6.014e-09
  7.36220    -75.9 1.033e+04 6.702e-09
  7.38183    -75.7 1.060e+04 7.642e-09
  7.39448    -75.5 1.084e+04 8.686e-09
  7.40430    -75.8 1.100e+04 1.024e-08
  7.42110    -75.7 1.120e+04 1.150e-08
  7.44074    -75.7 1.139e+04 1.232e-08
  7.46037    -75.7 1.159e+04 1.278e-08
  7.48000    -75.8 1.185e+04 1.338e-08
  7.49629    -75.9 1.216e+04 1.454e-08
  7.50611    -75.6 1.210e+04 1.626e-08
  7.51927    -75.7 1.261e+04 2.028e-08
  7.53891    -75.9 1.338e+04 2.569e-08
  7.55854    -76.9 1.443e+04 3.344e-08
  7.57817    -78.6 1.556e+04 4.395e-08
  7.59781    -80.9 1.640e+04 5.391e-08
  7.61744    -83.6 1.662e+04 5.712e-08
  7.63708    -86.1 1.618e+04 5.257e-08
  7.65671    -87.5 1.494e+04 3.578e-08
  7.67634    -88.1 1.351e+04 2.187e-08
  7.69181    -88.3 1.248e+04 1.371e-08
  7.70163    -88.2 1.240e+04 1.317e-08
  7.71561    -88.4 1.168e+04 8.790e-09
  7.73524    -88.6 1.115e+04 6.776e-09
  7.74800    -88.4 1.070e+04 6.201e-09
  7.75782    -88.9 1.079e+04 9.132e-09
  7.77451    -88.0 1.051e+04 8.502e-09
  7.79415    -87.0 1.039e+04 7.943e-09
  7.81378    -86.0 1.027e+04 7.362e-09
  7.83341    -85.1 1.017e+04 6.717e-09
  7.85305    -84.3 1.008e+04 5.945e-09
  7.87268    -83.5 9.960e+03 5.103e-09
  7.89232    -82.8 9.780e+03 4.283e-09
  7.91195    -82.2 9.549e+03 3.547e-09
  7.93158    -81.5 9.355e+03 3.019e-09
  7.96113    -80.7 9.205e+03 2.611e-09
  7.99008    -78.9 8.885e+03 1.919e-09
  8.00972    -79.3 8.959e+03 1.977e-09
  8.03977    -77.3 8.896e+03 1.916e-09
  8.07903    -75.6 8.961e+03 2.033e-09
  8.11830    -73.9 9.112e+03 2.459e-09
  8.15757    -72.1 9.377e+03 3.084e-09
  8.19684    -70.4 9.761e+03 3.904e-09
  8.23610    -69.0 1.030e+04 5.233e-09
  8.27537    -67.9 1.084e+04 7.371e-09
  8.29648    -67.4 1.133e+04 1.087e-08
  8.31612    -66.7 1.086e+04 7.785e-09
  8.35391    -65.8 1.110e+04 1.073e-08
  8.39318    -64.7 1.125e+04 1.307e-08
  8.43244    -63.6 1.140e+04 1.387e-08
  8.46180    -63.8 1.168e+04 1.498e-08
  8.48133    -63.4 1.177e+04 1.527e-08
  8.49330    -63.1 1.190e+04 1.584e-08
  8.51303    -62.6 1.150e+04 1.339e-08
  8.54033    -62.4 1.214e+04 1.780e-08
  8.55987    -61.8 1.230e+04 1.911e-08
  8.57950    -61.3 1.244e+04 2.116e-08
  8.59362    -60.4 1.244e+04 2.184e-08
  8.60344    -59.1 1.208e+04 1.814e-08
  8.61877    -58.4 1.210e+04 1.858e-08
  8.63840    -57.3 1.211e+04 1.887e-08
  8.65804    -56.3 1.210e+04 1.889e-08
  8.67767    -55.1 1.219e+04 1.925e-08
  8.69731    -54.1 1.228e+04 1.959e-08
  8.71694    -53.2 1.247e+04 1.975e-08
  8.73519    -52.5 1.270e+04 1.978e-08
  8.74500    -52.6 1.328e+04 3.162e-08
  8.75621    -52.0 1.353e+04 3.532e-08
  8.77584    -51.3 1.367e+04 3.751e-08
  8.79547    -50.6 1.365e+04 3.663e-08
  8.81511    -50.0 1.348e+04 3.318e-08
  8.83474    -49.2 1.314e+04 2.815e-08
  8.85438    -48.3 1.270e+04 2.275e-08
  8.87401    -47.2 1.227e+04 1.795e-08
  8.89095    -45.9 1.195e+04 1.437e-08
  8.90077    -45.4 1.253e+04 2.160e-08
  8.91328    -44.3 1.225e+04 1.703e-08
  8.93291    -43.2 1.201e+04 1.365e-08
  8.95255    -42.0 1.177e+04 1.112e-08
  8.97218    -40.6 1.161e+04 9.471e-09
  8.98689    -39.2 1.157e+04 8.569e-09
  8.99671    -39.0 1.159e+04 9.160e-09
  9.02136    -37.2 1.155e+04 8.334e-09
  9.06073    -34.4 1.106e+04 6.276e-09
  9.10000    -30.9 1.061e+04 4.234e-09
  9.13926    -28.0 1.058e+04 3.458e-09
  9.17853    -25.1 1.057e+04 3.312e-09
  9.21780    -22.5 1.059e+04 3.355e-09
  9.25707    -20.0 1.060e+04 3.681e-09
  9.29633    -17.4 1.064e+04 4.170e-09
  9.33560    -14.9 1.070e+04 4.634e-09
  9.37487    -12.5 1.077e+04 4.904e-09
  9.41414    -10.2 1.082e+04 4.982e-09
  9.45341     -8.1 1.084e+04 4.805e-09
  9.48068     -5.9 1.077e+04 4.440e-09
  9.49345     -4.6 1.088e+04 6.731e-09
  9.50544     -3.3 1.099e+04 6.786e-09
  9.53194     -1.0 1.115e+04 7.264e-09
  9.57121      1.3 1.131e+04 7.431e-09
  9.61048      3.4 1.123e+04 6.665e-09
  9.64974      5.1 1.074e+04 5.839e-09
  9.68901      7.0 1.029e+04 5.195e-09
  9.72828      8.5 1.013e+04 4.059e-09
  9.76755      9.5 1.028e+04 3.844e-09
  9.79286     10.2 1.002e+04 5.010e-09
  9.80258     10.8 1.000e+04 4.959e-09
  9.81644     11.4 9.998e+03 4.556e-09
  9.83607     11.9 9.762e+03 4.278e-09
  9.85570     12.1 9.731e+03 3.524e-09
  9.87534     12.0 9.637e+03 3.059e-09
  9.89497     11.5 9.447e+03 2.607e-09
  9.92452     11.5 9.066e+03 2.463e-09
  9.96389     12.3 8.885e+03 1.988e-09
  9.98409     11.8 8.809e+03 1.569e-09
  9.99381     13.7 9.036e+03 1.818e-09
 10.01278     13.0 8.849e+03 1.616e-09
 10.03241     12.1 8.640e+03 1.750e-09
 10.05204     11.4 8.739e+03 1.793e-09
 10.07168      9.8 8.772e+03 2.473e-09
 10.09009      9.1 8.849e+03 2.817e-09
 10.09991      9.0 8.868e+03 3.074e-09
 10.11095      8.5 8.828e+03 3.834e-09
 10.13058      7.8 8.906e+03 3.774e-09
 10.15021      6.2 9.092e+03 3.239e-09
 10.16985      3.6 9.032e+03 3.017e-09
 10.18948      1.2 9.060e+03 3.254e-09
 10.20911     -0.5 9.026e+03 4.125e-09
 10.22579     -1.1 9.144e+03 5.208e-09
 10.23560     -2.1 9.292e+03 5.850e-09
 10.24838     -2.4 9.420e+03 6.384e-09
 10.26802     -2.9 9.397e+03 6.400e-09
 10.28765     -3.1 9.269e+03 5.861e-09
 10.30728     -3.0 9.151e+03 5.114e-09
 10.32692     -2.8 8.957e+03 4.195e-09
 10.34655     -2.6 8.755e+03 3.355e-09
 10.36619     -2.5 8.620e+03 2.773e-09
 10.38582     -2.3 8.501e+03 2.484e-09
 10.39724     -1.9 8.446e+03 2.387e-09
 10.40705     -2.3 8.448e+03 2.394e-09
 10.42509     -1.5 8.515e+03 2.436e-09
 10.44472     -1.2 8.620e+03 2.665e-09
 10.46436     -0.7 8.857e+03 3.144e-09
 10.47749     -0.6 9.096e+03 3.862e-09
 10.48731     -2.0 9.195e+03 3.841e-09
 10.50362     -2.2 9.807e+03 5.399e-09
 10.52326     -2.9 1.037e+04 8.028e-09
 10.54289     -3.0 1.085e+04 1.206e-08
 10.56252     -2.6 1.116e+04 1.578e-08
 10.58216     -2.0 1.138e+04 1.778e-08
 10.60179     -2.0 1.145e+04 1.731e-08
 10.62143     -2.5 1.130e+04 1.529e-08
 10.64106     -3.0 1.130e+04 1.441e-08
 10.66069     -3.5 1.119e+04 1.323e-08
 10.68033     -3.9 1.114e+04 1.279e-08
 10.69466     -4.6 1.113e+04 1.297e-08
 10.71440     -5.0 1.099e+04 1.222e-08
 10.74924     -4.8 1.072e+04 9.443e-09
 10.78851     -4.4 1.036e+04 5.539e-09
 10.82778     -3.8 9.995e+03 4.362e-09
 10.86705     -1.8 9.942e+03 4.279e-09
 10.90631      0.6 1.003e+04 4.359e-09
 10.94558      3.2 1.022e+04 4.173e-09
 10.97128      5.5 1.043e+04 4.017e-09
 10.99092      4.7 1.035e+04 3.859e-09
 11.02412      6.3 1.056e+04 4.259e-09
 11.06338      7.2 1.112e+04 8.193e-09
 11.10265      8.9 1.175e+04 1.508e-08
 11.14192     10.1 1.197e+04 1.651e-08
 11.18119     12.0 1.169e+04 9.797e-09
 11.22046     12.7 1.145e+04 5.021e-09
 11.25972     13.5 1.119e+04 3.579e-09
 11.28942     15.0 1.113e+04 2.942e-09
 11.30906     15.5 1.119e+04 2.791e-09
 11.33826     17.4 1.132e+04 2.784e-09
 11.37753     19.5 1.142e+04 2.766e-09
 11.41679     22.0 1.147e+04 2.433e-09
 11.45506     24.4 1.162e+04 1.897e-09
 11.47469     24.5 1.170e+04 2.186e-09
 11.49533     26.6 1.181e+04 1.450e-09
 11.53460     29.0 1.182e+04 1.326e-09
 11.57387     31.4 1.189e+04 1.459e-09
 11.61313     33.8 1.196e+04 1.998e-09
 11.65240     36.2 1.210e+04 3.063e-09
 11.69167     38.4 1.234e+04 4.629e-09
 11.73094     40.5 1.259e+04 6.621e-09
 11.77020     42.2 1.290e+04 8.062e-09
 11.80947     43.6 1.297e+04 7.986e-09
 11.84874     45.1 1.296e+04 7.100e-09
 11.88408     46.7 1.286e+04 6.247e-09
 11.90372     47.4 1.286e+04 6.236e-09
 11.92728     49.1 1.280e+04 6.233e-09
 11.95847     50.9 1.276e+04 6.561e-09
 11.97810     51.1 1.244e+04 5.246e-09
 12.00581     52.7 1.248e+04 5.039e-09
 12.04508     54.3 1.266e+04 4.305e-09
 12.07443     55.0 1.275e+04 3.829e-09
 12.09397     55.4 1.286e+04 3.553e-09
 12.11360     55.8 1.305e+04 3.050e-09
 12.13324     56.0 1.318e+04 2.720e-09
 12.15287     56.2 1.329e+04 2.277e-09
 12.17250     56.3 1.332e+04 2.121e-09
 12.19104     56.5 1.327e+04 1.977e-09
 12.20085     57.1 1.337e+04 2.143e-09
 12.20998     57.1 1.328e+04 1.985e-09
 12.21980     56.5 1.312e+04 1.878e-09
 12.23141     56.6 1.308e+04 1.918e-09
 12.25104     56.7 1.303e+04 2.028e-09
 12.27067     57.0 1.299e+04 2.375e-09
 12.29031     57.1 1.300e+04 2.618e-09
 12.31986     57.4 1.288e+04 3.627e-09
 12.35922     57.9 1.293e+04 5.492e-09
 12.39849     58.1 1.288e+04 6.254e-09
 12.43776     58.3 1.277e+04 5.942e-09
 12.46188     58.6 1.252e+04 4.660e-09
 12.47160     58.0 1.282e+04 6.456e-09
 12.48665     57.9 1.276e+04 5.863e-09
 12.49828     58.4 1.253e+04 5.685e-09
 12.50810     58.2 1.256e+04 5.472e-09
 12.52591     58.2 1.253e+04 5.427e-09
 12.55546     59.2 1.227e+04 4.389e-09
 12.59483     60.8 1.211e+04 3.363e-09
 12.63410     62.3 1.211e+04 2.800e-09
 12.67336     64.1 1.208e+04 2.494e-09
 12.71263     66.1 1.202e+04 2.283e-09
 12.75190     68.3 1.199e+04 2.152e-09
 12.79117     70.5 1.200e+04 2.149e-09
 12.83043     72.5 1.204e+04 2.266e-09
 12.86970     73.9 1.220e+04 2.991e-09
 12.90897     74.9 1.247e+04 4.681e-09
 12.94566     75.5 1.282e+04 6.162e-09
 12.96529     75.2 1.271e+04 5.988e-09
 12.97759     75.1 1.290e+04 6.132e-09
 12.99713     74.8 1.304e+04 6.335e-09
 13.01676     74.3 1.319e+04 6.293e-09
 13.03639     74.0 1.329e+04 6.279e-09
 13.05603     73.5 1.349e+04 6.523e-09
 13.07566     72.9 1.359e+04 7.133e-09
 13.09294     72.1 1.367e+04 1.138e-08
 13.10276     73.4 1.355e+04 8.388e-09
 13.11493     73.4 1.350e+04 8.954e-09
 13.14448     74.4 1.346e+04 1.054e-08
 13.17393     74.1 1.357e+04 1.252e-08
 13.19347     74.0 1.371e+04 1.389e-08
 13.20699     73.9 1.385e+04 1.487e-08
 13.21680     73.5 1.388e+04 1.567e-08
 13.23273     73.4 1.389e+04 1.546e-08
 13.25237     73.5 1.383e+04 1.447e-08
 13.27200     73.8 1.368e+04 1.281e-08
 13.29164     74.3 1.351e+04 1.095e-08
 13.31127     74.7 1.336e+04 9.091e-09
 13.33090     75.0 1.320e+04 7.671e-09
 13.35054     75.4 1.308e+04 7.271e-09
 13.37017     75.8 1.307e+04 7.389e-09
 13.38980     76.3 1.310e+04 8.041e-09
 13.39999     76.6 1.327e+04 9.550e-09
 13.40981     77.1 1.300e+04 7.730e-09
 13.42907     77.0 1.320e+04 9.786e-09
 13.44871     77.0 1.343e+04 1.269e-08
 13.45869     76.7 1.364e+04 1.577e-08
 13.46851     76.5 1.374e+04 1.681e-08
 13.48797     76.1 1.378e+04 1.714e-08
 13.50761     75.2 1.370e+04 1.650e-08
 13.53716     75.1 1.323e+04 1.263e-08
 13.57652     75.2 1.272e+04 8.150e-09
 13.61579     75.3 1.236e+04 4.943e-09
 13.65506     76.1 1.219e+04 4.839e-09
 13.68770     77.4 1.215e+04 5.393e-09
 13.70734     78.3 1.197e+04 4.288e-09
 13.73359     79.4 1.205e+04 5.469e-09
 13.77286     80.2 1.220e+04 6.434e-09
 13.81213     80.7 1.218e+04 6.257e-09
 13.85140     81.6 1.203e+04 5.180e-09
 13.89066     82.9 1.174e+04 3.520e-09
 13.92993     84.3 1.144e+04 2.258e-09
 13.95248     85.8 1.118e+04 1.595e-09
 13.97211     86.3 1.125e+04 1.948e-09
 14.00847     87.9 1.100e+04 1.612e-09
 14.04774     89.6 1.082e+04 1.447e-09
 14.08700     91.5 1.068e+04 1.282e-09
 14.12627     93.6 1.057e+04 1.067e-09
 14.16554     95.8 1.048e+04 8.294e-10
 14.20481     98.1 1.044e+04 6.397e-10
 14.24407    100.3 1.042e+04 5.208e-10
 14.28236    102.6 1.028e+04 4.682e-10
 14.30200    103.6 1.027e+04 4.675e-10
 14.32261    106.1 9.991e+03 4.688e-10
 14.36188    108.7 9.974e+03 4.706e-10
 14.40115    111.4 9.951e+03 4.803e-10
 14.43626    113.9 9.895e+03 5.149e-10
 14.45589    114.4 9.897e+03 5.024e-10
 14.47968    116.8 9.816e+03 5.878e-10
 14.51895    119.2 9.695e+03 7.828e-10
 14.55822    121.6 9.647e+03 1.067e-09
 14.59748    123.8 9.635e+03 1.423e-09
 14.63675    126.0 9.653e+03 1.803e-09
 14.67602    127.9 9.684e+03 2.112e-09
 14.71529    129.6 9.688e+03 2.300e-09
 14.75456    131.2 9.691e+03 2.401e-09
 14.79382    132.7 9.652e+03 2.487e-09
 14.83309    134.2 9.611e+03 2.553e-09
 14.87236    135.9 9.595e+03 2.660e-09
 14.89666    137.9 9.697e+03 2.880e-09
 14.91629    139.4 9.524e+03 2.521e-09
 14.93967    141.4 9.643e+03 2.703e-09
 14.95930    141.7 9.625e+03 3.025e-09
 14.98025    141.6 9.842e+03 3.865e-09
 14.99978    141.7 9.974e+03 4.926e-09
 15.01942    142.1 1.009e+04 6.148e-09
 15.03905    142.6 1.024e+04 7.330e-09
 15.05869    143.1 1.038e+04 8.183e-09
 15.07832    143.4 1.043e+04 8.438e-09
 15.09795    143.8 1.042e+04 8.114e-09
 15.11759    144.0 1.032e+04 7.204e-09
 15.13722    144.1 1.018e+04 6.154e-09
 15.15686    144.0 1.002e+04 5.630e-09
 15.17649    143.9 9.993e+03 5.637e-09
 15.19118    143.7 9.984e+03 5.864e-09
 15.19867    144.6 9.489e+03 4.192e-09
 15.20361    145.7 9.532e+03 4.264e-09
 15.21576    145.4 9.686e+03 4.943e-09
 15.23539    145.1 9.981e+03 6.562e-09
 15.25502    144.9 1.039e+04 9.374e-09
 15.27466    144.8 1.091e+04 1.299e-08
 15.29429    144.8 1.151e+04 1.588e-08
 15.31393    144.5 1.192e+04 1.610e-08
 15.33356    143.4 1.196e+04 1.532e-08
 15.35319    142.0 1.189e+04 1.221e-08
 15.37283    140.3 1.144e+04 8.215e-09
 15.39246    138.5 1.069e+04 5.147e-09
 15.41210    136.7 9.700e+03 3.621e-09
 15.43173    135.4 9.253e+03 3.395e-09
 15.44288    134.8 9.241e+03 3.399e-09
 15.45270    136.0 9.502e+03 3.697e-09
 15.47100    135.3 9.506e+03 3.752e-09
 15.49063    134.6 9.586e+03 4.074e-09
 15.50094    133.4 9.872e+03 4.861e-09
 15.51076    133.7 9.638e+03 4.187e-09
 15.52990    132.2 1.002e+04 5.242e-09
 15.54953    130.7 1.032e+04 6.571e-09
 15.56917    129.5 1.045e+04 7.771e-09
 15.58880    128.5 1.051e+04 8.734e-09
 15.60843    127.5 1.073e+04 9.794e-09
 15.62807    126.0 1.112e+04 1.116e-08
 15.64770    124.1 1.139e+04 1.184e-08
 15.66734    122.1 1.137e+04 1.164e-08
 15.68477    120.5 1.115e+04 1.044e-08
 15.69459    120.5 1.093e+04 9.154e-09
 15.70660    119.3 1.049e+04 6.948e-09
 15.72624    118.3 1.009e+04 5.057e-09
 15.74587    117.0 9.891e+03 3.900e-09
 15.76551    115.5 9.821e+03 3.382e-09
 15.78514    114.1 9.723e+03 3.245e-09
 15.81469    114.3 9.451e+03 3.107e-09
 15.85405    114.3 9.158e+03 2.998e-09
 15.89332    114.5 8.880e+03 2.818e-09
 15.92686    115.0 8.605e+03 2.518e-09
 15.94649    115.1 8.391e+03 1.996e-09
 15.97186    115.9 8.181e+03 1.712e-09
 16.01112    116.9 7.996e+03 1.438e-09
 16.05039    118.3 7.833e+03 1.197e-09
 16.08598    119.8 7.600e+03 1.044e-09
 16.10562    119.6 7.532e+03 1.042e-09
 16.12893    121.4 7.394e+03 1.033e-09
 16.16820    123.4 7.387e+03 1.040e-09
 16.20746    125.5 7.367e+03 1.088e-09
 16.24673    127.6 7.368e+03 1.271e-09
 16.28600    129.7 7.544e+03 1.650e-09
 16.32527    131.6 7.839e+03 2.147e-09
 16.36453    132.9 8.140e+03 2.682e-09
 16.39303    133.5 8.461e+03 3.581e-09
 16.40275    133.5 8.270e+03 3.161e-09
 16.41342    134.4 8.380e+03 3.690e-09
 16.43007    135.5 8.484e+03 4.141e-09
 16.43989    135.4 8.963e+03 5.211e-09
 16.45269    136.6 9.075e+03 5.555e-09
 16.47233    138.0 9.178e+03 5.909e-09
 16.49196    139.5 9.348e+03 6.437e-09
 16.51159    141.1 9.732e+03 7.427e-09
 16.53123    141.9 1.037e+04 9.496e-09
 16.55086    142.0 1.214e+04 1.556e-08
 16.57050    142.7 1.557e+04 3.781e-08
 16.59013    144.1 1.780e+04 8.245e-08
 16.60481    143.3 1.831e+04 1.117e-07
 16.61457    142.9 1.857e+04 1.425e-07
 16.62439    142.1 1.877e+04 1.802e-07
 16.63421    139.4 2.089e+04 2.514e-07
 16.64402    125.7 2.225e+04 1.131e-06
 16.65384    105.2 1.904e+04 5.983e-06
 16.66366     86.9 1.847e+04 6.935e-06
 16.67100     81.4 1.907e+04 4.783e-06
 16.67588     74.3 2.083e+04 1.837e-06
 16.68166     67.7 2.363e+04 3.522e-07
 16.68659     63.3 2.216e+04 2.653e-07
 16.69311     51.0 1.857e+04 3.970e-08
 16.69998     46.8 1.339e+04 2.626e-08
 16.70489     48.9 1.532e+04 3.061e-08
 16.71274     47.2 1.364e+04 2.717e-08
 16.72256     47.7 1.331e+04 2.354e-08
 16.73238     47.7 1.333e+04 2.323e-08
 16.74715     48.1 1.280e+04 2.038e-08
 16.76683     48.3 1.188e+04 1.657e-08
 16.78647     48.7 1.135e+04 1.543e-08
 16.80610     49.8 1.123e+04 1.566e-08
 16.82574     51.1 1.123e+04 1.637e-08
 16.84537     52.4 1.124e+04 1.639e-08
 16.86500     53.7 1.116e+04 1.558e-08
 16.88464     54.7 1.098e+04 1.372e-08
 16.90427     55.6 1.074e+04 1.162e-08
 16.92367     56.2 1.050e+04 9.834e-09
 16.93348     55.8 1.031e+04 1.066e-08
 16.94354     56.5 1.008e+04 9.775e-09
 16.96317     57.4 9.940e+03 9.263e-09
 16.98281     58.4 9.956e+03 9.194e-09
 16.99741     59.3 9.994e+03 9.257e-09
 17.00723     59.2 1.021e+04 1.065e-08
 17.02207     60.1 1.032e+04 1.085e-08
 17.04171     60.8 1.056e+04 1.166e-08
 17.06134     61.1 1.108e+04 1.373e-08
 17.08098     61.0 1.220e+04 1.858e-08
 17.10061     60.7 1.377e+04 2.730e-08
 17.12024     60.8 1.502e+04 4.113e-08
 17.13988     61.0 1.591e+04 6.466e-08
 17.15951     61.9 1.636e+04 9.186e-08
 17.17537     62.4 1.762e+04 1.317e-07
 17.18519     62.3 1.599e+04 6.276e-08
 17.19878     61.9 1.716e+04 1.071e-07
 17.21346     60.5 1.767e+04 1.506e-07
 17.22322     59.7 1.800e+04 1.927e-07
 17.23304     57.6 1.921e+04 2.959e-07
 17.24286     50.0 2.048e+04 1.056e-06
 17.25268     37.5 1.780e+04 6.506e-06
 17.26249     29.1 1.796e+04 4.876e-06
 17.27231     25.1 2.026e+04 1.166e-06
 17.28213     19.7 2.393e+04 1.844e-07
 17.29194     11.0 2.089e+04 3.876e-08
 17.29955      5.3 1.513e+04 1.707e-08
 17.30383      8.2 1.617e+04 2.364e-08
 17.30603     12.4 2.093e+04 3.280e-08
 17.31653      7.1 1.524e+04 1.441e-08
 17.33622      2.8 1.218e+04 8.596e-09
 17.35585      3.3 1.193e+04 8.526e-09
 17.37548      3.4 1.209e+04 9.201e-09
 17.39512      3.2 1.208e+04 9.827e-09
 17.41475      3.2 1.204e+04 1.017e-08
 17.42708      3.2 1.209e+04 9.941e-09
 17.43689      2.3 1.254e+04 1.133e-08
 17.45402      0.7 1.295e+04 1.100e-08
 17.47365     -1.4 1.301e+04 1.247e-08
 17.49329     -2.2 1.278e+04 1.608e-08
 17.51292     -1.8 1.272e+04 1.864e-08
 17.53256     -0.9 1.252e+04 1.877e-08
 17.55219     -0.1 1.217e+04 1.405e-08
 17.57182      0.1 1.194e+04 8.969e-09
 17.59146     -0.9 1.152e+04 5.728e-09
 17.60189     -1.8 1.078e+04 4.461e-09
 17.61171     -1.9 1.061e+04 3.873e-09
 17.63073     -1.8 1.036e+04 3.681e-09
 17.65036     -1.2 1.024e+04 3.640e-09
 17.66897     -0.6 1.019e+04 3.639e-09
 17.67878     -0.6 1.039e+04 3.791e-09
 17.68963     -0.2 1.042e+04 3.627e-09
 17.70926      0.2 1.040e+04 3.518e-09
 17.72889      0.5 1.044e+04 3.503e-09
 17.74853      0.6 1.057e+04 3.660e-09
 17.76816      0.4 1.057e+04 4.295e-09
 17.78780      0.8 1.061e+04 5.399e-09
 17.80743      1.8 1.080e+04 6.642e-09
 17.82706      1.4 1.052e+04 6.935e-09
 17.85661      3.0 1.073e+04 7.682e-09
 17.88960      3.9 1.064e+04 7.482e-09
 17.90923      4.2 1.083e+04 7.886e-09
 17.92087      5.3 1.052e+04 5.669e-09
 17.94050      5.1 1.062e+04 6.389e-09
 17.97451      6.2 1.006e+04 3.964e-09
 18.01378      7.9 9.679e+03 2.601e-09
 18.05305      9.8 9.521e+03 1.809e-09
 18.09232     11.5 9.479e+03 1.432e-09
 18.13158     13.6 9.514e+03 1.373e-09
 18.17085     15.4 9.590e+03 1.509e-09
 18.21012     17.3 9.725e+03 2.509e-09
 18.24939     19.3 1.010e+04 3.443e-09
 18.27874     20.0 1.020e+04 3.929e-09
 18.29828     20.8 1.002e+04 3.987e-09
 18.31791     21.7 1.039e+04 3.279e-09
 18.33755     21.6 1.027e+04 3.119e-09
 18.36709     23.4 1.011e+04 2.355e-09
 18.40464     24.3 1.011e+04 1.763e-09
 18.42428     23.7 9.960e+03 1.704e-09
 18.44573     24.4 9.912e+03 1.787e-09
 18.48426     25.7 9.741e+03 2.202e-09
 18.50390     25.2 9.886e+03 2.540e-09
 18.52426     26.8 9.787e+03 2.477e-09
 18.56353     29.1 9.728e+03 1.785e-09
 18.60280     30.6 9.893e+03 1.101e-09
 18.64207     31.6 9.833e+03 8.916e-10
 18.68133     33.1 9.813e+03 9.033e-10
 18.72060     34.0 9.948e+03 1.113e-09
 18.75987     34.9 1.013e+04 2.174e-09
 18.78922     35.7 1.029e+04 3.115e-09
 18.80103     35.5 1.057e+04 4.359e-09
 18.81085     35.0 1.054e+04 4.367e-09
 18.82839     35.4 1.060e+04 5.208e-09
 18.84803     34.7 1.088e+04 5.592e-09
 18.87757     36.1 1.050e+04 4.598e-09
 18.90805     36.0 1.020e+04 3.054e-09
 18.92769     34.8 1.017e+04 2.986e-09
 18.95621     34.7 9.897e+03 2.414e-09
 18.99548     35.0 9.654e+03 2.242e-09
 19.03474     35.7 9.537e+03 2.274e-09
 19.07401     36.7 9.469e+03 2.229e-09
 19.09856     38.1 9.338e+03 1.941e-09
 19.11819     37.9 9.216e+03 1.827e-09
 19.15255     39.1 9.172e+03 1.422e-09
 19.19181     40.1 9.100e+03 1.317e-09
 19.23108     41.2 9.092e+03 1.428e-09
 19.27035     42.5 9.146e+03 1.703e-09
 19.30962     44.1 9.253e+03 1.948e-09
 19.34889     45.5 9.378e+03 2.059e-09
 19.38815     46.7 9.447e+03 2.305e-09
 19.41146     47.9 9.531e+03 3.031e-09
 19.43110     46.2 9.935e+03 5.615e-09
 19.46669     47.3 1.013e+04 6.290e-09
 19.50596     47.2 1.059e+04 7.563e-09
 19.53531     47.5 1.058e+04 7.934e-09
 19.55485     47.2 1.073e+04 8.437e-09
 19.57448     46.5 1.103e+04 9.580e-09
 19.59411     45.7 1.156e+04 1.185e-08
 19.61375     44.8 1.208e+04 1.546e-08
 19.63338     44.2 1.250e+04 1.994e-08
 19.65302     44.0 1.283e+04 2.403e-08
 19.66298     43.8 1.307e+04 2.666e-08
 19.67279     42.5 1.322e+04 2.889e-08
 19.69228     42.3 1.324e+04 2.799e-08
 19.70284     42.0 1.311e+04 2.623e-08
 19.71266     42.0 1.310e+04 2.602e-08
 19.73155     41.6 1.287e+04 2.428e-08
 19.75119     41.7 1.252e+04 2.207e-08
 19.77082     41.8 1.221e+04 1.871e-08
 19.79045     41.9 1.192e+04 1.549e-08
 19.81009     42.0 1.167e+04 1.302e-08
 19.82972     42.0 1.147e+04 1.169e-08
 19.84935     42.1 1.134e+04 1.113e-08
 19.86899     42.4 1.125e+04 1.089e-08
 19.88862     42.9 1.114e+04 1.052e-08
 19.90486     43.5 1.099e+04 9.738e-09
 19.91468     43.5 1.085e+04 8.897e-09
 19.92789     44.2 1.074e+04 8.189e-09
 19.94752     44.1 1.071e+04 7.584e-09
 19.97707     45.1 1.037e+04 6.553e-09
 20.01644     46.7 1.009e+04 5.675e-09
 20.05571     48.5 9.960e+03 5.066e-09
 20.09497     50.4 9.850e+03 4.433e-09
 20.13424     52.3 9.736e+03 3.870e-09
 20.17351     54.3 9.700e+03 3.645e-09
 20.21278     56.5 9.744e+03 3.673e-09
 20.25204     58.6 9.821e+03 3.778e-09
 20.28788     61.1 9.898e+03 3.839e-09
 20.30751     61.2 9.605e+03 3.060e-09
 20.33058     63.6 9.667e+03 3.178e-09
 20.36985     65.9 9.765e+03 3.285e-09
 20.39865     68.0 1.001e+04 3.751e-09
 20.40837     67.6 1.018e+04 4.458e-09
 20.41874     68.6 1.031e+04 4.739e-09
 20.43837     69.5 1.042e+04 5.084e-09
 20.45801     70.5 1.059e+04 5.617e-09
 20.47764     71.2 1.080e+04 6.318e-09
 20.49727     72.0 1.100e+04 7.061e-09
 20.51691     72.6 1.117e+04 7.696e-09
 20.53654     73.2 1.130e+04 8.120e-09
 20.55617     73.7 1.138e+04 8.352e-09
 20.57581     74.1 1.143e+04 8.520e-09
 20.59483     74.4 1.150e+04 8.808e-09
 20.60465     74.7 1.131e+04 7.904e-09
 20.61508     74.9 1.145e+04 8.535e-09
 20.63471     74.9 1.165e+04 9.680e-09
 20.65016     74.9 1.190e+04 1.145e-08
 20.65998     75.3 1.215e+04 1.356e-08
 20.67398     75.0 1.245e+04 1.642e-08
 20.69361     74.7 1.279e+04 1.999e-08
 20.71325     74.3 1.314e+04 2.343e-08
 20.73288     73.6 1.332e+04 2.389e-08
 20.75251     72.7 1.332e+04 2.307e-08
 20.77215     71.9 1.317e+04 2.028e-08
 20.79178     71.1 1.287e+04 1.689e-08
 20.81142     70.3 1.259e+04 1.431e-08
 20.83105     69.9 1.240e+04 1.329e-08
 20.85068     69.8 1.235e+04 1.334e-08
 20.87032     69.8 1.238e+04 1.403e-08
 20.88995     69.9 1.250e+04 1.607e-08
 20.90187     70.0 1.273e+04 1.919e-08
 20.90408     69.5 1.277e+04 1.684e-08
 20.91180     69.7 1.330e+04 2.296e-08
 20.92922     69.8 1.335e+04 2.460e-08
 20.94885     69.8 1.335e+04 2.582e-08
 20.96849     69.7 1.329e+04 2.620e-08
 20.98812     69.9 1.322e+04 2.640e-08
 21.00775     70.2 1.317e+04 2.623e-08
 21.02739     70.6 1.311e+04 2.532e-08
 21.04702     71.2 1.302e+04 2.362e-08
 21.06666     71.7 1.292e+04 2.172e-08
 21.08629     72.2 1.286e+04 2.037e-08
 21.10592     72.8 1.288e+04 2.040e-08
 21.12556     73.2 1.295e+04 2.097e-08
 21.14376     73.8 1.302e+04 2.186e-08
 21.15357     73.9 1.341e+04 2.631e-08
 21.16483     74.6 1.353e+04 2.868e-08
 21.18446     75.3 1.360e+04 2.997e-08
 21.19931     75.9 1.360e+04 2.973e-08
 21.20913     75.2 1.398e+04 3.442e-08
 21.22373     75.8 1.386e+04 3.127e-08
 21.24336     76.2 1.375e+04 2.876e-08
 21.26299     76.6 1.363e+04 2.657e-08
 21.28263     77.1 1.351e+04 2.420e-08
 21.30226     77.5 1.346e+04 2.166e-08
 21.32190     77.7 1.337e+04 1.909e-08
 21.34153     77.7 1.320e+04 1.640e-08
 21.36116     77.6 1.296e+04 1.357e-08
 21.38080     77.2 1.255e+04 1.099e-08
 21.39546     76.7 1.201e+04 9.179e-09
 21.40528     77.8 1.271e+04 1.079e-08
 21.42007     76.6 1.213e+04 7.921e-09
 21.43970     75.5 1.178e+04 7.604e-09
 21.45933     74.8 1.177e+04 7.703e-09
 21.47897     74.3 1.179e+04 8.158e-09
 21.49664     74.2 1.190e+04 8.668e-09
 21.50646     73.1 1.184e+04 8.620e-09
 21.51824     73.1 1.187e+04 8.449e-09
 21.53787     73.1 1.184e+04 7.731e-09
 21.55750     73.0 1.176e+04 6.694e-09
 21.57714     72.9 1.160e+04 5.866e-09
 21.59677     72.8 1.135e+04 5.688e-09
 21.61640     72.7 1.131e+04 5.818e-09
 21.63604     72.5 1.123e+04 6.596e-09
 21.64717     72.1 1.135e+04 8.280e-09
 21.65699     71.3 1.153e+04 9.479e-09
 21.67531     70.5 1.186e+04 1.284e-08
 21.69494     69.5 1.226e+04 1.709e-08
 21.71457     68.4 1.272e+04 2.155e-08
 21.73421     67.1 1.319e+04 2.662e-08
 21.75384     65.7 1.354e+04 3.095e-08
 21.77348     64.2 1.376e+04 3.447e-08
 21.79311     62.9 1.366e+04 3.332e-08
 21.80379     62.0 1.328e+04 2.938e-08
 21.81360     61.6 1.309e+04 2.702e-08
 21.83238     60.8 1.244e+04 2.087e-08
 21.85201     60.3 1.174e+04 1.564e-08
 21.87165     59.9 1.118e+04 1.254e-08
 21.88915     60.9 1.096e+04 1.140e-08
 21.90889     59.5 1.053e+04 9.243e-09
 21.94056     60.1 1.020e+04 7.932e-09
 21.97983     60.7 9.897e+03 6.654e-09
 22.01909     61.1 9.466e+03 5.141e-09
 22.05836     61.0 8.858e+03 3.862e-09
 22.09150     60.6 8.710e+03 3.737e-09
 22.11113     60.5 8.362e+03 2.828e-09
 22.13690     60.2 8.693e+03 3.403e-09
 22.17617     59.7 9.215e+03 4.505e-09
 22.21543     58.9 9.658e+03 5.844e-09
 22.24479     57.2 1.018e+04 8.219e-09
 22.26432     56.1 1.045e+04 1.037e-08
 22.28396     55.6 1.067e+04 1.251e-08
 22.30359     55.2 1.085e+04 1.424e-08
 22.32322     55.1 1.074e+04 1.370e-08
 22.34286     55.0 1.061e+04 1.320e-08
 22.36249     55.3 1.004e+04 1.038e-08
 22.38213     55.3 9.690e+03 8.997e-09
 22.39257     56.4 9.089e+03 6.365e-09
 22.41230     55.5 8.803e+03 5.198e-09
 22.45104     56.4 7.903e+03 2.992e-09
 22.49031     57.4 7.334e+03 2.049e-09
 22.52958     59.0 7.187e+03 1.929e-09
 22.56884     60.8 7.184e+03 1.972e-09
 22.60811     62.6 7.187e+03 2.047e-09
 22.64738     64.3 7.154e+03 2.043e-09
 22.68616     65.8 7.088e+03 1.979e-09
 22.70579     64.6 7.114e+03 1.942e-09
 22.72592     65.8 7.076e+03 1.863e-09
 22.76518     66.6 7.139e+03 1.900e-09
 22.80445     66.2 7.308e+03 2.116e-09
 22.84372     65.1 7.664e+03 2.628e-09
 22.87644     63.5 8.006e+03 3.255e-09
 22.89607     60.9 8.136e+03 3.326e-09
 22.91234     59.8 8.590e+03 4.259e-09
 22.93188     57.3 8.956e+03 5.419e-09
 22.95151     54.3 9.355e+03 6.995e-09
 22.97114     51.7 9.623e+03 8.511e-09
 22.99078     49.6 9.852e+03 9.921e-09
 23.00293     47.6 1.007e+04 1.090e-08
 23.01274     47.3 1.007e+04 1.089e-08
 23.03004     45.3 1.020e+04 1.120e-08
 23.04968     43.1 1.015e+04 1.083e-08
 23.06931     40.9 1.008e+04 1.019e-08
 23.08895     38.9 1.000e+04 9.435e-09
 23.10858     36.8 1.001e+04 8.840e-09
 23.12795     34.7 9.977e+03 8.238e-09
 23.13777     35.4 9.486e+03 6.405e-09
 23.14785     34.0 9.343e+03 5.811e-09
 23.16748     32.8 9.320e+03 5.471e-09
 23.18712     32.1 9.306e+03 5.097e-09
 23.20675     31.8 9.305e+03 4.759e-09
 23.22638     31.8 9.296e+03 4.364e-09
 23.24602     31.7 9.337e+03 4.025e-09
 23.26565     31.0 9.537e+03 3.741e-09
 23.28529     30.9 9.519e+03 3.576e-09
 23.30036     30.8 9.541e+03 3.649e-09
 23.32009     31.5 9.570e+03 3.653e-09
 23.35420     32.1 9.604e+03 3.874e-09
 23.37985     33.3 9.700e+03 4.025e-09
 23.38957     34.5 9.687e+03 3.985e-09
 23.40309     35.0 9.715e+03 3.950e-09
 23.42272     35.6 9.736e+03 3.864e-09
 23.44236     36.1 9.719e+03 3.747e-09
 23.46199     36.6 9.738e+03 3.669e-09
 23.48162     37.1 9.740e+03 3.701e-09
 23.50126     37.6 9.783e+03 3.892e-09
 23.52089     38.2 9.873e+03 4.274e-09
 23.54053     38.9 9.948e+03 4.674e-09
 23.56016     39.6 1.009e+04 4.962e-09
 23.57979     40.2 1.022e+04 4.977e-09
 23.59759     40.7 1.020e+04 4.896e-09
 23.60741     40.7 1.027e+04 4.974e-09
 23.61906     41.3 1.019e+04 4.545e-09
 23.63136     41.8 1.014e+04 3.937e-09
 23.64118     42.7 1.030e+04 4.322e-09
 23.66824     43.3 1.012e+04 3.220e-09
 23.70761     44.7 9.905e+03 2.392e-09
 23.74688     45.8 9.868e+03 1.994e-09
 23.78615     47.0 9.920e+03 2.017e-09
 23.82541     48.1 1.014e+04 2.207e-09
 23.86363     49.1 1.042e+04 2.289e-09
 23.88326     50.4 1.082e+04 2.837e-09
 23.89511     51.2 1.104e+04 2.848e-09
 23.91465     51.1 1.111e+04 2.803e-09
 23.93320     51.7 1.122e+04 2.518e-09
 23.95284     51.8 1.126e+04 2.475e-09
 23.98239     52.2 1.146e+04 2.381e-09
 24.02175     52.7 1.153e+04 2.448e-09
 24.05110     53.3 1.152e+04 2.362e-09
 24.07064     53.6 1.152e+04 2.524e-09
 24.09028     53.9 1.159e+04 3.019e-09
 24.10991     54.4 1.168e+04 3.827e-09
 24.12496     55.0 1.186e+04 4.958e-09
 24.13477     54.6 1.200e+04 5.505e-09
 24.14918     55.2 1.223e+04 6.772e-09
 24.16881     56.1 1.241e+04 7.897e-09
 24.18844     56.6 1.256e+04 8.421e-09
 24.21799     56.8 1.265e+04 9.264e-09
 24.24744     57.1 1.283e+04 1.013e-08
 24.26698     57.3 1.293e+04 1.038e-08
 24.28661     57.6 1.298e+04 9.799e-09
 24.30625     57.9 1.300e+04 9.180e-09
 24.32588     58.4 1.299e+04 8.643e-09
 24.34552     59.0 1.300e+04 8.300e-09
 24.36515     59.6 1.299e+04 8.237e-09
 24.37666     60.3 1.300e+04 8.584e-09
 24.38648     60.2 1.297e+04 6.980e-09
 24.40442     60.7 1.306e+04 8.218e-09
 24.42405     61.3 1.323e+04 1.052e-08
 24.44369     61.8 1.346e+04 1.389e-08
 24.46332     62.5 1.373e+04 1.769e-08
 24.48295     63.0 1.399e+04 2.070e-08
 24.49940     63.3 1.424e+04 2.172e-08
 24.50921     63.2 1.450e+04 2.561e-08
 24.52222     63.3 1.455e+04 2.521e-08
 24.54185     63.4 1.453e+04 2.356e-08
 24.56149     63.5 1.436e+04 2.087e-08
 24.58112     63.7 1.420e+04 1.811e-08
 24.60076     63.6 1.406e+04 1.569e-08
 24.61855     63.5 1.388e+04 1.386e-08
 24.62837     62.5 1.348e+04 1.272e-08
 24.64002     62.5 1.317e+04 1.233e-08
 24.65966     62.7 1.316e+04 1.247e-08
 24.67929     63.1 1.321e+04 1.353e-08
 24.69893     63.4 1.326e+04 1.608e-08
 24.71856     63.9 1.335e+04 1.893e-08
 24.73819     64.4 1.347e+04 2.058e-08
 24.75783     64.9 1.352e+04 2.054e-08
 24.77746     65.3 1.354e+04 2.012e-08
 24.79673     65.6 1.356e+04 1.924e-08
 24.80655     65.3 1.406e+04 2.698e-08
 24.81673     65.6 1.404e+04 2.497e-08
 24.83636     65.9 1.402e+04 2.267e-08
 24.85600     66.3 1.396e+04 1.995e-08
 24.87025     66.7 1.382e+04 1.693e-08
 24.88007     66.8 1.393e+04 2.059e-08
 24.89526     67.3 1.382e+04 1.911e-08
 24.91490     67.7 1.369e+04 1.755e-08
 24.93453     68.2 1.354e+04 1.601e-08
 24.95417     68.8 1.342e+04 1.482e-08
 24.97380     69.4 1.333e+04 1.403e-08
 24.99343     70.2 1.327e+04 1.351e-08
 25.01307     71.0 1.326e+04 1.326e-08
 25.03270     71.7 1.327e+04 1.330e-08
 25.05234     72.4 1.329e+04 1.368e-08
 25.07197     73.2 1.336e+04 1.467e-08
 25.09160     73.8 1.353e+04 1.675e-08
 25.10388     74.4 1.377e+04 1.977e-08
 25.11369     73.8 1.405e+04 2.359e-08
 25.12196     74.1 1.451e+04 2.944e-08
 25.13178     74.4 1.424e+04 2.709e-08
 25.15051     74.4 1.472e+04 3.402e-08
 25.17014     74.2 1.538e+04 4.669e-08
 25.18977     73.9 1.605e+04 6.608e-08
 25.20941     73.5 1.656e+04 8.036e-08
 25.22904     72.9 1.660e+04 8.040e-08
 25.24867     72.3 1.646e+04 7.583e-08
 25.26831     71.8 1.613e+04 6.491e-08
 25.28794     71.3 1.566e+04 5.274e-08
 25.30758     70.9 1.512e+04 4.232e-08
 25.32721     70.5 1.458e+04 3.479e-08
 25.34684     70.3 1.413e+04 2.977e-08
 25.36385     70.2 1.379e+04 2.693e-08
 25.37367     70.4 1.373e+04 2.498e-08
 25.38611     70.4 1.340e+04 2.216e-08
 25.40121     70.6 1.330e+04 2.145e-08
 25.41102     70.1 1.294e+04 1.767e-08
 25.42538     70.4 1.296e+04 1.774e-08
 25.44501     70.7 1.302e+04 1.827e-08
 25.46465     70.9 1.305e+04 1.896e-08
 25.48428     71.0 1.308e+04 1.983e-08
 25.50392     71.0 1.319e+04 2.172e-08
 25.52355     71.0 1.343e+04 2.509e-08
 25.54318     71.0 1.375e+04 2.903e-08
 25.56282     71.1 1.401e+04 3.122e-08
 25.58245     71.0 1.405e+04 3.042e-08
 25.60208     71.0 1.390e+04 2.764e-08
 25.61555     70.9 1.354e+04 2.384e-08
 25.62537     72.1 1.366e+04 2.523e-08
 25.64135     71.9 1.342e+04 2.312e-08
 25.66099     71.8 1.327e+04 2.251e-08
 25.68062     71.7 1.307e+04 2.235e-08
 25.69854     71.6 1.289e+04 2.103e-08
 25.70835     71.7 1.323e+04 2.534e-08
 25.71989     71.2 1.311e+04 2.446e-08
 25.73952     70.6 1.291e+04 2.291e-08
 25.75916     69.9 1.270e+04 2.172e-08
 25.77879     69.2 1.255e+04 2.145e-08
 25.79842     68.7 1.247e+04 2.150e-08
 25.81806     68.3 1.242e+04 2.122e-08
 25.83769     68.0 1.228e+04 1.984e-08
 25.85733     67.6 1.201e+04 1.719e-08
 25.86726     67.2 1.164e+04 1.381e-08
 25.87708     68.0 1.268e+04 2.324e-08
 25.89659     67.7 1.256e+04 2.068e-08
 25.91623     67.2 1.244e+04 1.724e-08
 25.93586     66.7 1.219e+04 1.332e-08
 25.95549     65.9 1.166e+04 9.951e-09
 25.97513     65.0 1.087e+04 8.202e-09
 25.99476     64.0 1.050e+04 8.089e-09
 26.00568     62.8 1.055e+04 9.158e-09
 26.01550     62.5 1.058e+04 9.331e-09
 26.03403     60.7 1.098e+04 1.163e-08
 26.05366     57.4 1.299e+04 2.103e-08
 26.07330     53.6 1.562e+04 4.366e-08
 26.08797     49.0 1.743e+04 9.137e-08
 26.09774     48.8 1.742e+04 9.670e-08
 26.10756     47.2 1.791e+04 1.163e-07
 26.11396     45.5 1.787e+04 1.244e-07
 26.11887     47.0 1.784e+04 1.327e-07
 26.12719     45.3 1.809e+04 1.411e-07
 26.13701     43.4 1.867e+04 1.361e-07
 26.14683     39.0 2.044e+04 1.297e-07
 26.15425     29.4 2.284e+04 1.433e-07
 26.15916     29.6 2.354e+04 1.640e-07
 26.16646     19.7 2.134e+04 2.319e-07
 26.17628     14.7 1.828e+04 3.494e-07
 26.18610     13.6 1.791e+04 5.445e-07
 26.19591     13.7 1.821e+04 7.119e-07
 26.20573     12.3 1.885e+04 6.286e-07
 26.21555     10.2 2.089e+04 2.529e-07
 26.22536      6.0 2.034e+04 9.650e-08
 26.23490     -0.2 1.846e+04 3.739e-08
 26.23981      3.1 1.972e+04 5.291e-08
 26.24995     -8.1 1.302e+04 1.420e-08
 26.26964    -12.8 9.396e+03 4.358e-09
 26.28927    -13.2 8.606e+03 3.034e-09
 26.30302    -12.9 8.443e+03 2.339e-09
 26.31283    -13.2 8.448e+03 2.429e-09
 26.33845    -13.5 8.301e+03 2.028e-09
 26.36105    -12.9 8.194e+03 1.824e-09
 26.38068    -10.5 8.263e+03 1.754e-09
 26.41709     -9.2 8.194e+03 1.664e-09
 26.45635     -8.0 8.382e+03 1.978e-09
 26.49562     -6.3 8.584e+03 2.451e-09
 26.53489     -4.4 8.691e+03 2.731e-09
 26.57416     -2.4 8.803e+03 2.306e-09
 26.61343     -0.7 8.731e+03 1.789e-09
 26.65269      0.7 8.861e+03 1.449e-09
 26.69196      2.1 8.962e+03 1.339e-09
 26.73123      2.9 9.400e+03 1.690e-09
 26.76058      3.6 9.863e+03 2.383e-09
 26.78012      3.3 1.023e+04 3.733e-09
 26.79975      4.5 1.092e+04 6.539e-09
 26.81939      4.3 1.108e+04 7.166e-09
 26.84473      5.4 1.214e+04 1.261e-08
 26.86446      7.4 1.200e+04 1.213e-08
 26.88806      8.3 1.267e+04 1.565e-08
 26.90769      6.2 1.255e+04 1.351e-08
 26.91765      6.0 1.259e+04 1.169e-08
 26.93719      6.1 1.255e+04 1.149e-08
 26.95682      6.0 1.235e+04 1.036e-08
 26.97646      6.2 1.235e+04 1.020e-08
 26.99609      6.3 1.223e+04 1.003e-08
 27.01572      6.9 1.261e+04 1.119e-08
 27.03536      7.0 1.301e+04 1.396e-08
 27.05499      6.8 1.355e+04 1.880e-08
 27.07463      6.3 1.418e+04 2.701e-08
 27.09426      6.2 1.485e+04 4.218e-08
 27.10615      6.9 1.536e+04 5.793e-08
 27.11597      8.2 1.610e+04 7.785e-08
 27.12857      9.0 1.648e+04 9.047e-08
 27.13834      9.2 1.647e+04 8.950e-08
 27.14816      9.7 1.652e+04 7.377e-08
 27.15797      9.7 1.647e+04 7.156e-08
 27.17275     10.2 1.696e+04 6.096e-08
 27.19243      7.3 1.648e+04 4.417e-08
 27.20482      5.6 1.631e+04 4.605e-08
 27.21464      3.5 1.649e+04 5.555e-08
 27.23170      2.6 1.696e+04 7.249e-08
 27.25133      2.2 1.745e+04 8.885e-08
 27.27097      1.6 1.790e+04 1.014e-07
 27.28564      1.5 1.835e+04 1.115e-07
 27.29541      1.2 1.859e+04 1.180e-07
 27.30523      0.7 1.877e+04 1.269e-07
 27.31504      0.4 1.895e+04 1.349e-07
 27.32486      0.1 1.928e+04 1.505e-07
 27.33468     -1.0 1.995e+04 1.775e-07
 27.34449     -3.2 2.077e+04 2.458e-07
 27.35285     -6.0 2.075e+04 4.366e-07
 27.35684     -6.1 1.998e+04 7.871e-07
 27.35830     -3.4 2.030e+04 8.041e-07
 27.36413     -5.4 1.896e+04 2.345e-06
 27.37147     -8.9 1.837e+04 4.174e-06
 27.37635     -9.9 1.853e+04 4.581e-06
 27.38126    -16.2 1.805e+04 7.195e-06
 27.38617    -22.7 1.705e+04 1.424e-05
 27.39108    -29.5 1.624e+04 2.476e-05
 27.39598    -35.6 1.606e+04 2.908e-05
 27.40089    -41.3 1.645e+04 2.006e-05
 27.40580    -45.6 1.706e+04 1.191e-05
 27.41319    -49.0 1.783e+04 6.334e-06
 27.42303    -54.9 1.912e+04 1.720e-06
 27.43285    -57.8 1.989e+04 3.629e-07
 27.44266    -59.4 1.903e+04 1.765e-07
 27.45248    -60.2 1.828e+04 1.296e-07
 27.46230    -60.6 1.782e+04 1.031e-07
 27.47211    -61.1 1.734e+04 8.248e-08
 27.47871    -61.8 1.684e+04 6.875e-08
 27.48361    -61.9 1.741e+04 8.710e-08
 27.49175    -62.8 1.695e+04 7.568e-08
 27.50157    -63.6 1.655e+04 6.805e-08
 27.50697    -64.2 1.625e+04 6.239e-08
 27.51187    -63.4 1.659e+04 6.856e-08
 27.52120    -64.0 1.627e+04 6.203e-08
 27.53102    -64.5 1.602e+04 5.648e-08
 27.54083    -65.0 1.582e+04 5.131e-08
 27.55065    -65.6 1.560e+04 4.655e-08
 27.56047    -66.2 1.535e+04 4.157e-08
 27.57028    -66.7 1.511e+04 3.669e-08
 27.58506    -67.1 1.462e+04 2.914e-08
 27.59975    -67.5 1.396e+04 2.173e-08
 27.60956    -69.3 1.466e+04 3.195e-08
 27.62438    -69.5 1.397e+04 2.416e-08
 27.64401    -69.6 1.351e+04 2.011e-08
 27.66364    -69.4 1.341e+04 1.902e-08
 27.68328    -69.0 1.342e+04 1.910e-08
 27.70291    -69.0 1.377e+04 2.039e-08
 27.72254    -69.6 1.433e+04 2.430e-08
 27.74218    -70.5 1.504e+04 3.359e-08
 27.76181    -71.2 1.562e+04 4.955e-08
 27.78145    -71.7 1.597e+04 6.178e-08
 27.79949    -72.1 1.597e+04 6.432e-08
 27.80930    -73.1 1.600e+04 6.310e-08
 27.82071    -73.2 1.546e+04 4.840e-08
 27.84035    -73.2 1.478e+04 3.040e-08
 27.85145    -73.7 1.423e+04 1.780e-08
 27.86127    -75.7 1.382e+04 1.063e-08
 27.87962    -76.6 1.320e+04 7.810e-09
 27.90916    -76.8 1.285e+04 7.228e-09
 27.94853    -76.6 1.270e+04 7.352e-09
 27.98780    -76.7 1.279e+04 7.638e-09
 28.02707    -77.0 1.290e+04 8.272e-09
 28.06633    -77.3 1.301e+04 9.331e-09
 28.09701    -77.9 1.302e+04 9.831e-09
 28.11665    -78.3 1.257e+04 7.255e-09
 28.14487    -78.5 1.217e+04 6.576e-09
 28.18414    -78.7 1.169e+04 4.489e-09
 28.22340    -78.8 1.123e+04 2.651e-09
 28.26267    -79.0 1.095e+04 1.758e-09
 28.30194    -78.7 1.087e+04 1.586e-09
 28.33543    -78.4 1.088e+04 1.575e-09
 28.35506    -80.0 1.079e+04 1.654e-09
 28.38048    -79.9 1.082e+04 1.744e-09
 28.41974    -79.8 1.081e+04 1.827e-09
 28.45901    -79.9 1.084e+04 1.891e-09
 28.49828    -80.3 1.091e+04 2.130e-09
 28.53755    -80.9 1.081e+04 2.751e-09
 28.57681    -81.7 1.061e+04 3.329e-09
 28.61608    -82.3 1.048e+04 3.465e-09
 28.65535    -82.5 9.934e+03 3.184e-09
 28.69167    -82.5 9.522e+03 2.235e-09
 28.71131    -81.6 9.635e+03 2.485e-09
 28.73389    -81.4 9.323e+03 1.717e-09
 28.77315    -80.7 9.030e+03 1.214e-09
 28.81242    -79.7 8.791e+03 9.272e-10
 28.83884    -78.5 8.666e+03 7.692e-10
 28.85847    -78.8 8.726e+03 7.837e-10
 28.89096    -77.5 8.605e+03 7.018e-10
 28.93022    -76.1 8.547e+03 6.827e-10
 28.96949    -74.7 8.533e+03 6.831e-10
 29.00876    -73.4 8.498e+03 7.301e-10
 29.04803    -72.0 8.496e+03 8.139e-10
 29.08730    -70.6 8.526e+03 9.091e-10
 29.12656    -69.2 8.578e+03 1.022e-09
 29.16583    -67.8 8.651e+03 1.170e-09
 29.20510    -66.4 8.747e+03 1.368e-09
 29.24437    -65.1 8.873e+03 1.619e-09
 29.28363    -63.9 9.004e+03 1.919e-09
 29.30597    -63.0 9.118e+03 2.290e-09
 29.32531    -62.7 8.997e+03 2.111e-09
 29.34225    -62.3 9.262e+03 2.649e-09
 29.36217    -61.3 9.386e+03 3.009e-09
 29.40144    -60.3 9.538e+03 3.588e-09
 29.44071    -59.3 9.709e+03 4.335e-09
 29.47997    -58.3 9.852e+03 5.038e-09
 29.51924    -57.4 9.922e+03 5.462e-09
 29.55851    -56.7 9.933e+03 5.562e-09
 29.59778    -55.9 9.849e+03 5.427e-09
 29.63704    -55.2 9.766e+03 4.701e-09
 29.67631    -54.6 9.659e+03 3.853e-09
 29.71558    -54.0 9.538e+03 3.100e-09
 29.75485    -53.4 9.557e+03 2.495e-09
 29.79412    -53.1 9.683e+03 2.172e-09
 29.82602    -53.2 9.762e+03 2.130e-09
 29.84566    -52.3 9.900e+03 1.804e-09
 29.87265    -52.2 1.001e+04 1.770e-09
 29.90063    -52.5 1.056e+04 2.327e-09
 29.92026    -52.0 1.043e+04 2.102e-09
 29.95119    -52.0 1.086e+04 3.135e-09
 29.99045    -51.9 1.134e+04 4.389e-09
 30.02972    -51.9 1.184e+04 5.130e-09
 30.06899    -51.9 1.214e+04 5.197e-09
 30.09834    -52.0 1.236e+04 5.096e-09
 30.11788    -51.9 1.252e+04 4.479e-09
 30.13751    -52.0 1.258e+04 4.095e-09
 30.15715    -51.9 1.259e+04 4.034e-09
 30.17678    -51.4 1.268e+04 3.812e-09
 30.19641    -50.7 1.272e+04 3.760e-09
 30.20758    -50.1 1.286e+04 3.826e-09
 30.21740    -49.4 1.291e+04 4.371e-09
 30.23568    -48.7 1.305e+04 4.985e-09
 30.25532    -48.0 1.315e+04 5.747e-09
 30.27495    -47.5 1.324e+04 6.346e-09
 30.30450    -47.6 1.317e+04 5.981e-09
 30.32934    -46.4 1.336e+04 7.947e-09
 30.34897    -45.8 1.350e+04 1.053e-08
 30.37322    -45.4 1.355e+04 1.152e-08
 30.39275    -44.9 1.359e+04 1.236e-08
 30.41239    -44.6 1.364e+04 1.294e-08
 30.43202    -44.3 1.366e+04 1.311e-08
 30.45166    -44.2 1.364e+04 1.300e-08
 30.47129    -44.0 1.357e+04 1.251e-08
 30.49092    -44.0 1.351e+04 1.209e-08
 30.50491    -44.0 1.348e+04 1.200e-08
 30.51473    -43.9 1.369e+04 1.332e-08
 30.53019    -44.0 1.367e+04 1.324e-08
 30.54982    -44.2 1.370e+04 1.326e-08
 30.56946    -44.4 1.376e+04 1.293e-08
 30.58095    -44.7 1.381e+04 1.207e-08
 30.59076    -44.7 1.403e+04 1.515e-08
 30.60873    -45.3 1.409e+04 1.437e-08
 30.62836    -46.1 1.414e+04 1.388e-08
 30.64799    -46.8 1.414e+04 1.380e-08
 30.66763    -47.1 1.407e+04 1.418e-08
 30.68726    -47.3 1.404e+04 1.458e-08
 30.70690    -47.1 1.391e+04 1.452e-08
 30.72653    -46.7 1.381e+04 1.359e-08
 30.74616    -46.2 1.370e+04 1.240e-08
 30.76580    -45.6 1.362e+04 1.100e-08
 30.78543    -44.8 1.351e+04 9.764e-09
 30.80224    -43.7 1.346e+04 8.783e-09
 30.81206    -43.8 1.344e+04 8.774e-09
 30.82283    -42.7 1.349e+04 8.192e-09
 30.83265    -43.0 1.342e+04 9.216e-09
 30.84433    -42.0 1.353e+04 9.139e-09
 30.86397    -41.0 1.358e+04 9.347e-09
 30.88360    -39.9 1.369e+04 9.831e-09
 30.90323    -39.0 1.384e+04 1.058e-08
 30.92287    -38.1 1.400e+04 1.135e-08
 30.94250    -37.5 1.410e+04 1.201e-08
 30.96214    -36.9 1.417e+04 1.281e-08
 30.98177    -36.2 1.418e+04 1.413e-08
 31.00140    -35.4 1.415e+04 1.570e-08
 31.02104    -34.8 1.410e+04 1.673e-08
 31.04067    -34.3 1.402e+04 1.703e-08
 31.06031    -33.8 1.376e+04 1.657e-08
 31.07454    -33.2 1.361e+04 1.524e-08
 31.08436    -33.8 1.371e+04 1.603e-08
 31.09957    -33.4 1.356e+04 1.443e-08
 31.11921    -33.5 1.295e+04 9.847e-09
 31.13884    -33.1 1.265e+04 8.068e-09
 31.16839    -32.7 1.227e+04 6.370e-09
 31.20776    -31.6 1.184e+04 4.443e-09
 31.24702    -30.5 1.166e+04 3.738e-09
 31.28629    -29.2 1.139e+04 3.362e-09
 31.31662    -27.3 1.103e+04 2.956e-09
 31.33626    -28.0 1.098e+04 3.231e-09
 31.36483    -25.7 1.060e+04 2.732e-09
 31.40409    -23.4 1.042e+04 2.549e-09
 31.44336    -21.0 1.032e+04 3.036e-09
 31.48263    -18.5 1.029e+04 4.207e-09
 31.52190    -16.0 1.049e+04 5.595e-09
 31.56117    -13.6 1.077e+04 6.824e-09
 31.60043    -11.4 1.101e+04 7.704e-09
 31.62979     -9.1 1.072e+04 7.180e-09
 31.64932     -7.2 1.082e+04 7.579e-09
 31.66896     -5.7 1.079e+04 7.555e-09
 31.68859     -3.7 1.127e+04 8.676e-09
 31.70405     -3.2 1.280e+04 1.148e-08
 31.71387     -1.2 1.150e+04 9.023e-09
 31.72786     -0.7 1.440e+04 1.515e-08
 31.74749     -1.2 1.716e+04 3.600e-08
 31.76713     -1.4 1.847e+04 1.058e-07
 31.78180     -1.0 1.861e+04 1.946e-07
 31.79157     -0.5 1.850e+04 2.915e-07
 31.80139      0.6 1.841e+04 4.167e-07
 31.81120      2.0 1.825e+04 4.977e-07
 31.81974      4.3 1.811e+04 5.678e-07
 31.82465      4.4 1.828e+04 5.643e-07
 31.83084      6.2 1.822e+04 6.457e-07
 31.84066      8.2 1.815e+04 6.430e-07
 31.85047     10.2 1.847e+04 4.781e-07
 31.85753     11.3 1.909e+04 3.008e-07
 31.86244     11.9 1.887e+04 4.725e-07
 31.87011     12.7 1.959e+04 2.793e-07
 31.87992     12.4 2.012e+04 1.502e-07
 31.88974     11.3 1.953e+04 7.926e-08
 31.89956      9.8 1.751e+04 4.770e-08
 31.90937      8.4 1.542e+04 3.580e-08
 31.91919      8.8 1.532e+04 3.611e-08
 31.92901      8.5 1.567e+04 3.743e-08
 31.93882      7.2 1.725e+04 4.357e-08
 31.94559     -4.5 2.826e+04 6.084e-08
 31.95050      1.3 2.795e+04 5.941e-08
 31.95846    -18.2 2.263e+04 7.666e-07
 31.96828    -26.8 1.755e+04 6.846e-06
 31.97809    -34.8 1.679e+04 1.341e-05
 31.98543    -41.8 1.722e+04 1.041e-05
 31.99032    -48.6 1.978e+04 3.364e-06
 31.99770    -61.8 2.301e+04 6.058e-07
 32.00619    -84.7 1.937e+04 8.360e-08
 32.01110    -86.4 2.004e+04 8.589e-08
 32.01736    -93.7 1.601e+04 4.899e-08
 32.02718    -94.7 1.555e+04 4.371e-08
 32.03699    -95.1 1.536e+04 4.024e-08
 32.04681    -94.9 1.509e+04 3.681e-08
 32.06159    -94.4 1.460e+04 3.374e-08
 32.08127    -96.8 1.305e+04 2.394e-08
 32.10090    -94.2 1.215e+04 2.013e-08
 32.12054    -91.2 1.180e+04 1.793e-08
 32.14017    -88.3 1.142e+04 1.594e-08
 32.15980    -85.5 1.103e+04 1.382e-08
 32.17944    -82.9 1.067e+04 1.184e-08
 32.19907    -80.7 1.036e+04 1.015e-08
 32.21871    -78.7 1.010e+04 8.785e-09
 32.23834    -76.9 9.874e+03 7.783e-09
 32.25797    -75.1 9.704e+03 7.113e-09
 32.27761    -73.5 9.576e+03 6.686e-09
 32.29724    -72.1 9.485e+03 6.407e-09
 32.30853    -70.5 9.423e+03 6.168e-09
 32.31491    -70.4 9.602e+03 6.862e-09
 32.32335    -71.8 9.256e+03 5.410e-09
 32.34652    -68.5 9.064e+03 4.729e-09
 32.38579    -65.9 8.920e+03 4.082e-09
 32.42506    -63.6 8.765e+03 3.573e-09
 32.46432    -61.4 8.671e+03 3.266e-09
 32.50359    -59.2 8.629e+03 3.116e-09
 32.54286    -57.2 8.659e+03 3.106e-09
 32.58213    -55.4 8.718e+03 3.114e-09
 32.62140    -53.8 8.736e+03 3.110e-09
 32.66066    -52.3 8.788e+03 3.109e-09
 32.69993    -51.1 8.934e+03 3.322e-09
 32.72928    -49.8 9.053e+03 3.533e-09
 32.74882    -49.6 9.064e+03 3.736e-09
 32.76845    -49.1 9.160e+03 4.209e-09
 32.78809    -48.8 9.296e+03 4.527e-09
 32.80703    -48.5 9.396e+03 4.697e-09
 32.81684    -47.9 9.464e+03 5.134e-09
 32.82736    -47.7 9.592e+03 5.333e-09
 32.84699    -47.6 9.679e+03 5.473e-09
 32.86662    -47.5 9.772e+03 5.592e-09
 32.88626    -47.5 9.883e+03 5.666e-09
 32.90319    -47.5 1.001e+04 5.743e-09
 32.91301    -46.9 9.975e+03 5.495e-09
 32.92553    -46.9 1.012e+04 5.602e-09
 32.94516    -46.8 1.024e+04 5.789e-09
 32.96479    -46.7 1.037e+04 6.146e-09
 32.98443    -46.6 1.049e+04 6.724e-09
 33.00406    -46.4 1.064e+04 7.416e-09
 33.02370    -46.0 1.080e+04 7.995e-09
 33.04333    -45.7 1.090e+04 8.257e-09
 33.05873    -45.5 1.091e+04 8.268e-09
 33.06855    -45.2 1.116e+04 9.375e-09
 33.08260    -44.9 1.116e+04 9.086e-09
 33.10223    -44.6 1.111e+04 8.235e-09
 33.12186    -44.2 1.103e+04 7.364e-09
 33.14150    -43.8 1.091e+04 6.569e-09
 33.16113    -43.2 1.078e+04 5.812e-09
 33.18077    -42.6 1.069e+04 5.057e-09
 33.21031    -41.9 1.061e+04 4.138e-09
 33.24968    -40.1 1.056e+04 3.792e-09
 33.28895    -38.2 1.055e+04 3.510e-09
 33.31063    -36.3 1.054e+04 3.219e-09
 33.33027    -36.9 1.102e+04 6.035e-09
 33.36748    -35.0 1.099e+04 5.647e-09
 33.40675    -33.2 1.098e+04 5.489e-09
 33.43610    -31.1 1.087e+04 4.119e-09
 33.45564    -30.5 1.088e+04 4.199e-09
 33.47527    -29.1 1.097e+04 4.447e-09
 33.49491    -28.5 1.100e+04 4.696e-09
 33.50767    -27.2 1.106e+04 5.327e-09
 33.51749    -27.0 1.106e+04 4.614e-09
 33.53418    -26.1 1.105e+04 5.041e-09
 33.55233    -24.8 1.105e+04 5.810e-09
 33.56214    -25.5 1.114e+04 7.627e-09
 33.57344    -24.3 1.120e+04 8.031e-09
 33.59308    -23.2 1.115e+04 8.066e-09
 33.61271    -22.0 1.124e+04 8.198e-09
 33.64226    -20.5 1.158e+04 9.432e-09
 33.67171    -19.3 1.157e+04 1.063e-08
 33.69125    -18.2 1.150e+04 1.128e-08
 33.71088    -16.7 1.156e+04 1.168e-08
 33.73052    -15.7 1.155e+04 1.137e-08
 33.75015    -14.5 1.162e+04 1.146e-08
 33.76978    -13.6 1.176e+04 1.175e-08
 33.78942    -12.7 1.185e+04 1.220e-08
 33.80403    -11.9 1.196e+04 1.287e-08
 33.80980    -12.6 1.120e+04 4.462e-09
 33.81482    -12.6 1.155e+04 5.841e-09
 33.82868    -12.0 1.165e+04 6.114e-09
 33.84832    -11.3 1.166e+04 6.803e-09
 33.86795    -10.3 1.177e+04 7.555e-09
 33.88759     -9.7 1.175e+04 7.651e-09
 33.90722     -9.0 1.175e+04 7.590e-09
 33.92685     -8.5 1.174e+04 7.465e-09
 33.94649     -8.2 1.179e+04 7.885e-09
 33.96612     -8.0 1.179e+04 8.821e-09
 33.98576     -7.9 1.188e+04 1.045e-08
 34.00539     -7.7 1.210e+04 1.248e-08
 34.02502     -7.5 1.239e+04 1.508e-08
 34.04466     -7.1 1.271e+04 1.782e-08
 34.05574     -6.6 1.298e+04 1.977e-08
 34.06555     -6.9 1.260e+04 1.655e-08
 34.08393     -6.6 1.272e+04 1.529e-08
 34.10233     -6.4 1.270e+04 1.371e-08
 34.11215     -7.1 1.282e+04 1.291e-08
 34.12319     -6.9 1.281e+04 1.119e-08
 34.14283     -6.7 1.274e+04 1.023e-08
 34.16246     -6.1 1.274e+04 9.866e-09
 34.18209     -5.6 1.279e+04 1.017e-08
 34.20173     -5.1 1.291e+04 1.119e-08
 34.22136     -4.8 1.308e+04 1.292e-08
 34.24100     -4.3 1.322e+04 1.520e-08
 34.26063     -3.7 1.328e+04 1.693e-08
 34.28026     -3.1 1.320e+04 1.708e-08
 34.29763     -2.5 1.304e+04 1.439e-08
 34.30744     -2.5 1.322e+04 1.700e-08
 34.31953     -2.4 1.313e+04 1.404e-08
 34.33917     -3.1 1.308e+04 1.259e-08
 34.35880     -3.8 1.304e+04 1.286e-08
 34.37843     -4.1 1.307e+04 1.450e-08
 34.39807     -4.1 1.313e+04 1.539e-08
 34.40948     -4.1 1.307e+04 1.391e-08
 34.41930     -4.8 1.296e+04 1.246e-08
 34.43734     -5.0 1.271e+04 8.938e-09
 34.45697     -5.2 1.234e+04 6.190e-09
 34.47660     -4.8 1.204e+04 4.344e-09
 34.49624     -4.0 1.198e+04 2.997e-09
 34.51587     -3.7 1.190e+04 2.131e-09
 34.54542     -3.5 1.157e+04 1.621e-09
 34.58478     -1.3 1.114e+04 1.266e-09
 34.62405      0.8 1.103e+04 1.073e-09
 34.66332      3.0 1.106e+04 1.039e-09
 34.69719      4.5 1.124e+04 1.448e-09
 34.71682      4.6 1.121e+04 1.459e-09
 34.73194      5.8 1.134e+04 2.081e-09
 34.75148      6.4 1.146e+04 2.824e-09
 34.77111      7.5 1.166e+04 3.998e-09
 34.79075      8.0 1.188e+04 5.074e-09
 34.80104      8.8 1.203e+04 6.695e-09
 34.81085      9.1 1.210e+04 7.233e-09
 34.83001      9.3 1.244e+04 8.546e-09
 34.84965      8.7 1.282e+04 1.113e-08
 34.86928      7.0 1.353e+04 1.530e-08
 34.88891      5.6 1.375e+04 2.406e-08
 34.90855      5.7 1.418e+04 3.423e-08
 34.92818      5.5 1.432e+04 3.595e-08
 34.94782      5.3 1.403e+04 2.588e-08
 34.96745      4.6 1.346e+04 1.732e-08
 34.98708      4.4 1.295e+04 1.273e-08
 35.00414      4.8 1.258e+04 9.516e-09
 35.01396      4.7 1.253e+04 9.606e-09
 35.02635      5.1 1.223e+04 7.329e-09
 35.04293      5.6 1.194e+04 6.171e-09
 35.05274      5.8 1.162e+04 4.158e-09
 35.06562      6.6 1.145e+04 4.169e-09
 35.08525      7.5 1.126e+04 4.569e-09
 35.10489      8.3 1.114e+04 5.112e-09
 35.12452      9.1 1.099e+04 6.116e-09
 35.14416     10.2 1.078e+04 7.213e-09
 35.16379     11.3 1.067e+04 7.918e-09
 35.18342     12.0 1.051e+04 8.362e-09
 35.20306     12.9 1.039e+04 8.727e-09
 35.22269     13.5 1.028e+04 8.533e-09
 35.24232     14.0 1.017e+04 8.680e-09
 35.26196     14.3 1.003e+04 8.234e-09
 35.28159     14.5 9.875e+03 8.394e-09
 35.29463     14.6 9.728e+03 7.916e-09
 35.30445     15.6 1.014e+04 9.195e-09
 35.31129     15.1 1.013e+04 9.469e-09
 35.32110     14.2 1.014e+04 9.158e-09
 35.34049     13.5 1.036e+04 9.453e-09
 35.36013     12.8 1.061e+04 1.061e-08
 35.37976     12.5 1.094e+04 1.235e-08
 35.39940     12.4 1.139e+04 1.526e-08
 35.41903     12.1 1.230e+04 1.930e-08
 35.43866     10.5 1.406e+04 2.806e-08
 35.45334      7.9 1.597e+04 5.197e-08
 35.45986      7.6 1.615e+04 5.422e-08
 35.46476      6.9 1.646e+04 6.786e-08
 35.47293      5.0 1.732e+04 1.475e-07
 35.48274      3.2 1.786e+04 2.176e-07
 35.49256      2.0 1.758e+04 3.507e-07
 35.50238      2.4 1.737e+04 4.640e-07
 35.51219      3.6 1.733e+04 4.980e-07
 35.52201      4.7 1.749e+04 4.005e-07
 35.53647      3.8 1.733e+04 2.138e-07
 35.54634      3.3 1.767e+04 1.367e-07
 35.55647     -0.9 1.643e+04 3.313e-08
 35.57610     -5.7 1.470e+04 8.296e-09
 35.59573    -10.0 1.136e+04 3.816e-09
 35.60862    -12.8 8.031e+03 3.329e-09
 35.61844    -13.3 7.871e+03 3.332e-09
 35.63500    -13.3 7.832e+03 3.442e-09
 35.65464    -13.0 8.119e+03 3.975e-09
 35.67427    -12.7 8.468e+03 4.760e-09
 35.69390    -12.4 8.894e+03 5.863e-09
 35.71354    -12.1 9.332e+03 7.304e-09
 35.73317    -12.0 9.757e+03 9.004e-09
 35.75281    -11.3 1.027e+04 1.126e-08
 35.77244    -11.1 1.056e+04 1.268e-08
 35.78823    -10.1 1.083e+04 1.392e-08
 35.79804    -10.3 1.041e+04 1.141e-08
 35.81171     -9.9 1.034e+04 1.080e-08
 35.83134     -9.2 1.029e+04 1.032e-08
 35.85098     -8.5 1.019e+04 9.340e-09
 35.87061     -7.5 1.018e+04 8.352e-09
 35.89024     -6.6 1.013e+04 7.082e-09
 35.90595     -5.5 1.007e+04 5.907e-09
 35.91577     -5.5 9.984e+03 5.347e-09
 35.92951     -4.3 9.769e+03 4.259e-09
 35.95906     -2.8 9.564e+03 3.022e-09
 35.99842     -0.7 9.293e+03 2.139e-09
 36.03769      1.7 8.998e+03 1.624e-09
 36.07696      4.1 8.838e+03 1.483e-09
 36.11623      6.6 8.657e+03 1.509e-09
 36.15550      9.5 8.557e+03 1.609e-09
 36.19476     12.4 8.477e+03 1.485e-09
 36.23403     15.5 8.345e+03 1.304e-09
 36.27220     18.7 8.325e+03 1.205e-09
 36.29183     18.2 8.205e+03 1.149e-09
 36.31257     21.5 8.455e+03 1.321e-09
 36.34192     24.5 8.347e+03 1.463e-09
 36.36146     25.5 8.571e+03 1.690e-09
 36.38109     27.2 8.635e+03 1.955e-09
 36.40072     28.6 8.865e+03 2.493e-09
 36.42036     30.0 9.455e+03 3.494e-09
 36.43999     30.8 1.091e+04 5.789e-09
 36.45963     30.9 1.247e+04 1.066e-08
 36.47926     30.8 1.325e+04 2.119e-08
 36.49889     31.5 1.369e+04 4.038e-08
 36.51043     33.4 1.457e+04 6.954e-08
 36.52024     33.9 1.414e+04 6.231e-08
 36.53352     35.8 1.554e+04 9.303e-08
 36.54334     31.6 1.635e+04 5.063e-08
 36.55780     30.4 1.661e+04 4.228e-08
 36.57743     28.4 1.538e+04 3.087e-08
 36.59706     26.2 1.331e+04 2.326e-08
 36.61670     24.6 1.203e+04 1.918e-08
 36.63633     23.4 1.162e+04 1.784e-08
 36.65596     21.4 1.221e+04 1.888e-08
 36.67560     17.5 1.342e+04 2.566e-08
 36.69523     12.6 1.485e+04 4.229e-08
 36.71487      8.6 1.589e+04 6.486e-08
 36.72954      5.6 1.557e+04 7.127e-08
 36.73931      5.2 1.544e+04 6.947e-08
 36.74913      3.4 1.539e+04 5.425e-08
 36.75895      1.7 1.505e+04 4.523e-08
 36.77372     -2.4 1.441e+04 3.217e-08
 36.78523     -8.5 1.263e+04 1.944e-08
 36.79505     -9.5 1.221e+04 1.679e-08
 36.80776    -12.2 1.174e+04 1.530e-08
 36.81758    -11.9 1.138e+04 1.274e-08
 36.83267    -13.4 1.115e+04 1.164e-08
 36.85230    -14.9 1.102e+04 1.040e-08
 36.87194    -16.3 1.083e+04 9.167e-09
 36.89157    -17.6 1.072e+04 8.574e-09
 36.91121    -18.6 1.072e+04 8.244e-09
 36.93084    -19.5 1.075e+04 8.051e-09
 36.95047    -20.5 1.094e+04 8.108e-09
 36.97011    -21.6 1.116e+04 9.069e-09
 36.98974    -22.6 1.128e+04 1.113e-08
 37.00937    -23.0 1.148e+04 1.365e-08
 37.02712    -23.2 1.178e+04 1.580e-08
 37.03694    -22.3 1.210e+04 1.985e-08
 37.04864    -22.4 1.242e+04 2.255e-08
 37.06828    -22.6 1.269e+04 2.391e-08
 37.08791    -23.3 1.283e+04 2.457e-08
 37.10509    -23.9 1.282e+04 2.483e-08
 37.11491    -25.2 1.378e+04 3.384e-08
 37.12718    -26.0 1.398e+04 3.856e-08
 37.14681    -26.2 1.434e+04 4.404e-08
 37.16645    -26.1 1.448e+04 4.051e-08
 37.18608    -26.1 1.420e+04 3.196e-08
 37.20571    -26.0 1.379e+04 2.798e-08
 37.22535    -25.6 1.371e+04 2.511e-08
 37.24498    -25.0 1.362e+04 2.154e-08
 37.26462    -24.4 1.340e+04 1.768e-08
 37.27882    -23.8 1.310e+04 1.474e-08
 37.28864    -23.0 1.329e+04 1.731e-08
 37.30388    -22.5 1.294e+04 1.500e-08
 37.32352    -21.7 1.268e+04 1.390e-08
 37.34315    -20.7 1.260e+04 1.362e-08
 37.36278    -19.7 1.260e+04 1.367e-08
 37.38242    -19.0 1.265e+04 1.379e-08
 37.40205    -18.5 1.267e+04 1.417e-08
 37.41224    -18.1 1.272e+04 1.527e-08
 37.42205    -19.1 1.192e+04 1.128e-08
 37.44132    -18.5 1.193e+04 1.232e-08
 37.46095    -17.8 1.194e+04 1.298e-08
 37.48059    -17.0 1.198e+04 1.291e-08
 37.50022    -16.2 1.196e+04 1.247e-08
 37.51986    -15.6 1.184e+04 1.155e-08
 37.53053    -15.0 1.172e+04 9.976e-09
 37.54035    -14.3 1.203e+04 1.315e-08
 37.55912    -13.9 1.190e+04 1.137e-08
 37.57876    -13.6 1.179e+04 9.771e-09
 37.59839    -13.5 1.162e+04 8.171e-09
 37.61803    -13.9 1.154e+04 7.726e-09
 37.63766    -14.6 1.143e+04 7.980e-09
 37.65729    -15.3 1.158e+04 9.304e-09
 37.67693    -15.8 1.190e+04 1.169e-08
 37.69656    -16.2 1.208e+04 1.294e-08
 37.70957    -16.6 1.222e+04 1.330e-08
 37.72930    -16.1 1.239e+04 1.393e-08
 37.76280    -17.1 1.255e+04 1.430e-08
 37.78243    -17.0 1.251e+04 1.392e-08
 37.80474    -18.1 1.248e+04 1.100e-08
 37.84401    -19.1 1.235e+04 7.983e-09
 37.88328    -19.7 1.226e+04 5.758e-09
 37.91263    -20.0 1.243e+04 5.021e-09
 37.93217    -19.8 1.249e+04 4.515e-09
 37.95180    -19.8 1.256e+04 3.923e-09
 37.97144    -19.9 1.257e+04 3.780e-09
 37.99107    -20.1 1.263e+04 3.794e-09
 38.00690    -20.5 1.270e+04 4.259e-09
 38.01671    -20.3 1.271e+04 4.317e-09
 38.02412    -20.6 1.264e+04 5.118e-09
 38.03394    -20.5 1.273e+04 4.157e-09
 38.04997    -20.6 1.279e+04 4.697e-09
 38.06960    -20.7 1.284e+04 5.144e-09
 38.08924    -20.8 1.286e+04 5.362e-09
 38.10887    -20.9 1.286e+04 5.437e-09
 38.12851    -21.0 1.283e+04 5.463e-09
 38.14814    -21.1 1.274e+04 5.472e-09
 38.16777    -21.1 1.265e+04 5.521e-09
 38.19732    -20.7 1.256e+04 5.446e-09
 38.23669    -19.3 1.236e+04 4.364e-09
 38.26621    -17.9 1.223e+04 3.511e-09
 38.28584    -17.8 1.224e+04 3.729e-09
 38.30442    -15.8 1.210e+04 3.153e-09
 38.32406    -15.8 1.209e+04 3.141e-09
 38.35449    -13.7 1.208e+04 2.977e-09
 38.39376    -11.8 1.224e+04 3.252e-09
 38.43303    -10.1 1.237e+04 4.628e-09
 38.47229     -8.3 1.258e+04 6.694e-09
 38.51156     -6.5 1.273e+04 8.232e-09
 38.55083     -5.2 1.270e+04 8.275e-09
 38.59010     -3.7 1.257e+04 6.005e-09
 38.62937     -2.6 1.243e+04 4.459e-09
 38.66863     -1.0 1.232e+04 4.450e-09
 38.70790      0.3 1.251e+04 5.856e-09
 38.74717      1.6 1.275e+04 8.207e-09
 38.76962      2.3 1.317e+04 1.132e-08
 38.78925      1.9 1.316e+04 1.066e-08
 38.81579      2.2 1.348e+04 1.142e-08
 38.83533      2.4 1.369e+04 1.119e-08
 38.85496      1.6 1.404e+04 1.206e-08
 38.87459      0.0 1.437e+04 1.583e-08
 38.89423     -0.8 1.428e+04 2.558e-08
 38.90871     -0.2 1.414e+04 3.530e-08
 38.91852     -0.4 1.440e+04 4.228e-08
 38.93350      0.3 1.436e+04 4.548e-08
 38.95313      0.5 1.442e+04 3.393e-08
 38.97276     -2.1 1.498e+04 3.140e-08
 38.99240     -8.9 1.749e+04 5.248e-08
 39.00707    -14.0 1.761e+04 1.371e-07
 39.01612    -15.0 1.716e+04 3.226e-07
 39.02103    -15.2 1.646e+04 1.850e-07
 39.02666    -13.4 1.720e+04 2.958e-07
 39.03648    -12.9 1.757e+04 3.163e-07
 39.04629    -13.8 1.765e+04 1.915e-07
 39.05611    -16.6 1.653e+04 8.141e-08
 39.07088    -20.6 1.489e+04 3.779e-08
 39.09057    -25.6 1.291e+04 1.272e-08
 39.11020    -27.1 1.221e+04 1.013e-08
 39.12983    -27.8 1.207e+04 1.012e-08
 39.14947    -28.3 1.198e+04 1.178e-08
 39.16910    -28.4 1.211e+04 1.314e-08
 39.18874    -28.6 1.220e+04 1.294e-08
 39.20604    -29.3 1.216e+04 1.107e-08
 39.21585    -30.7 1.195e+04 9.106e-09
 39.22800    -32.2 1.169e+04 7.243e-09
 39.24764    -33.9 1.159e+04 6.733e-09
 39.26302    -36.1 1.195e+04 7.648e-09
 39.27283    -36.0 1.154e+04 6.263e-09
 39.28691    -38.0 1.186e+04 8.831e-09
 39.30654    -39.6 1.218e+04 1.183e-08
 39.32617    -41.1 1.233e+04 1.340e-08
 39.34581    -42.5 1.232e+04 1.355e-08
 39.36544    -43.6 1.220e+04 1.248e-08
 39.38508    -44.5 1.207e+04 1.120e-08
 39.40471    -44.7 1.211e+04 1.125e-08
 39.42434    -45.2 1.243e+04 1.154e-08
 39.44398    -45.4 1.267e+04 1.271e-08
 39.46361    -45.5 1.296e+04 1.494e-08
 39.48324    -45.5 1.327e+04 1.828e-08
 39.50288    -45.8 1.366e+04 2.332e-08
 39.51318    -46.1 1.414e+04 3.001e-08
 39.51521    -46.8 1.394e+04 2.562e-08
 39.52454    -45.0 1.333e+04 1.908e-08
 39.54215    -45.3 1.382e+04 2.433e-08
 39.56178    -45.8 1.437e+04 3.094e-08
 39.58141    -46.8 1.487e+04 3.610e-08
 39.60105    -48.1 1.518e+04 3.836e-08
 39.62068    -49.7 1.534e+04 3.683e-08
 39.64032    -51.4 1.514e+04 2.628e-08
 39.65995    -53.1 1.459e+04 1.642e-08
 39.67958    -54.6 1.403e+04 9.726e-09
 39.69922    -55.5 1.405e+04 6.809e-09
 39.72877    -56.3 1.385e+04 5.214e-09
 39.75681    -56.8 1.356e+04 4.695e-09
 39.76653    -57.1 1.421e+04 5.578e-09
 39.77775    -57.4 1.389e+04 5.367e-09
 39.79739    -57.6 1.373e+04 5.333e-09
 39.81052    -57.7 1.362e+04 5.649e-09
 39.82033    -56.6 1.365e+04 5.688e-09
 39.83665    -56.6 1.349e+04 6.021e-09
 39.85629    -56.6 1.343e+04 6.147e-09
 39.87592    -56.5 1.336e+04 6.105e-09
 39.89556    -56.4 1.338e+04 5.990e-09
 39.91519    -56.2 1.338e+04 5.762e-09
 39.93482    -55.9 1.340e+04 5.601e-09
 39.95446    -55.4 1.326e+04 5.405e-09
 39.97409    -54.8 1.320e+04 5.291e-09
 39.99373    -54.2 1.316e+04 5.131e-09
 40.00832    -53.5 1.319e+04 4.849e-09
 40.01813    -54.3 1.369e+04 4.240e-09
 40.03299    -53.8 1.375e+04 3.580e-09
 40.05263    -53.3 1.371e+04 3.047e-09
 40.07226    -52.7 1.359e+04 2.731e-09
 40.09190    -52.1 1.347e+04 2.662e-09
 40.10785    -51.3 1.337e+04 2.720e-09
 40.11766    -51.0 1.330e+04 3.184e-09
 40.13116    -50.0 1.318e+04 3.245e-09
 40.15080    -49.0 1.310e+04 3.358e-09
 40.17043    -48.1 1.306e+04 3.524e-09
 40.19006    -47.3 1.298e+04 3.782e-09
 40.20970    -46.5 1.295e+04 4.170e-09
 40.22933    -46.0 1.303e+04 4.840e-09
 40.24897    -45.7 1.314e+04 5.845e-09
 40.26002    -45.4 1.327e+04 7.034e-09
 40.26984    -45.8 1.381e+04 1.221e-08
 40.28823    -45.5 1.392e+04 1.408e-08
 40.30787    -45.3 1.395e+04 1.471e-08
 40.32750    -45.2 1.388e+04 1.469e-08
 40.34714    -44.8 1.370e+04 1.312e-08
 40.36677    -44.5 1.358e+04 1.070e-08
 40.38640    -44.1 1.344e+04 8.525e-09
 40.40518    -43.7 1.325e+04 6.917e-09
 40.41499    -43.2 1.339e+04 7.346e-09
 40.42567    -42.8 1.319e+04 6.067e-09
 40.44531    -42.2 1.296e+04 5.297e-09
 40.46494    -41.5 1.270e+04 4.721e-09
 40.48457    -40.4 1.250e+04 4.186e-09
 40.50191    -39.2 1.236e+04 3.612e-09
 40.51173    -39.0 1.230e+04 5.469e-09
 40.52384    -37.7 1.223e+04 4.144e-09
 40.54347    -36.5 1.232e+04 3.176e-09
 40.56311    -35.5 1.238e+04 2.762e-09
 40.59266    -33.9 1.248e+04 2.453e-09
 40.63202    -31.2 1.246e+04 2.443e-09
 40.67129    -28.5 1.246e+04 2.641e-09
 40.70270    -25.9 1.252e+04 2.850e-09
 40.72234    -25.7 1.252e+04 3.159e-09
 40.73991    -23.6 1.256e+04 3.013e-09
 40.75362    -23.2 1.250e+04 3.044e-09
 40.76353    -22.9 1.216e+04 2.107e-09
 40.77918    -21.4 1.221e+04 2.421e-09
 40.79872    -20.9 1.218e+04 2.894e-09
 40.81835    -19.6 1.233e+04 3.855e-09
 40.83798    -18.6 1.259e+04 4.675e-09
 40.85762    -17.8 1.294e+04 5.893e-09
 40.87725    -17.5 1.324e+04 7.631e-09
 40.89689    -17.4 1.345e+04 1.021e-08
 40.91652    -17.7 1.365e+04 1.393e-08
 40.93615    -18.0 1.379e+04 1.860e-08
 40.95579    -18.4 1.383e+04 2.322e-08
 40.97542    -18.7 1.376e+04 2.555e-08
 40.99505    -19.3 1.358e+04 2.587e-08
 41.00532    -19.8 1.314e+04 2.380e-08
 41.01011    -20.0 1.324e+04 2.497e-08
 41.01947    -20.1 1.308e+04 2.293e-08
 41.03432    -20.4 1.278e+04 2.276e-08
 41.05396    -20.3 1.237e+04 2.006e-08
 41.07359    -20.3 1.191e+04 1.509e-08
 41.09322    -20.8 1.149e+04 1.038e-08
 41.11286    -22.0 1.106e+04 7.718e-09
 41.13249    -23.5 1.079e+04 7.096e-09
 41.15213    -24.7 1.071e+04 7.154e-09
 41.17176    -25.6 1.064e+04 8.305e-09
 41.19139    -26.2 1.062e+04 9.042e-09
 41.21103    -26.6 1.054e+04 9.051e-09
 41.23066    -27.1 1.023e+04 7.601e-09
 41.24721    -27.8 9.834e+03 5.915e-09
 41.25703    -27.4 9.933e+03 5.899e-09
 41.26993    -28.3 9.643e+03 5.094e-09
 41.28956    -29.0 9.567e+03 4.933e-09
 41.30699    -29.7 9.646e+03 5.034e-09
 41.31680    -29.3 9.640e+03 4.891e-09
 41.32883    -30.3 9.800e+03 5.778e-09
 41.34846    -31.2 9.865e+03 7.243e-09
 41.36810    -31.6 9.918e+03 8.706e-09
 41.38773    -31.8 9.944e+03 9.285e-09
 41.40737    -32.2 9.889e+03 9.257e-09
 41.42700    -32.8 9.635e+03 8.315e-09
 41.44663    -33.7 9.447e+03 7.488e-09
 41.46627    -34.9 9.389e+03 7.283e-09
 41.48590    -35.8 9.393e+03 7.637e-09
 41.49892    -36.4 9.416e+03 8.374e-09
 41.50873    -36.2 9.618e+03 9.877e-09
 41.52517    -36.4 9.619e+03 1.020e-08
 41.54480    -36.4 9.539e+03 1.019e-08
 41.56444    -36.2 9.270e+03 9.271e-09
 41.58407    -35.8 8.952e+03 7.663e-09
 41.60371    -35.5 8.592e+03 6.029e-09
 41.61413    -35.0 8.201e+03 4.642e-09
 41.62395    -34.8 8.168e+03 4.579e-09
 41.64297    -34.1 7.766e+03 3.547e-09
 41.66261    -33.2 7.434e+03 2.865e-09
 41.68224    -32.1 7.289e+03 2.571e-09
 41.70187    -31.3 7.322e+03 2.552e-09
 41.72151    -32.3 8.171e+03 2.931e-09
 41.74080    -36.8 1.135e+04 7.130e-09
 41.75062    -36.6 1.243e+04 1.407e-08
 41.76078    -38.7 1.440e+04 3.908e-08
 41.78041    -39.2 1.598e+04 8.197e-08
 41.79509    -39.2 1.708e+04 1.218e-07
 41.80485    -40.5 1.728e+04 1.416e-07
 41.81467    -41.9 1.753e+04 1.647e-07
 41.82449    -43.8 1.772e+04 1.732e-07
 41.83431    -50.0 2.303e+04 1.819e-07
 41.84412    -65.5 2.958e+04 4.102e-07
 41.85394    -79.1 2.146e+04 3.523e-06
 41.86128    -86.7 1.566e+04 3.299e-05
 41.86616    -89.1 1.502e+04 6.433e-05
 41.87107    -92.4 1.461e+04 9.101e-05
 41.87387    -93.9 1.543e+04 3.983e-05
 41.87633    -97.3 1.280e+04 7.128e-04
 41.88089    -98.5 1.641e+04 2.336e-05
 41.88580    -99.1 1.803e+04 6.803e-06
 41.89318    -98.6 1.837e+04 4.770e-06
 41.90302   -100.3 2.034e+04 1.201e-06
 41.91137   -101.3 1.974e+04 4.165e-07
 41.91627   -102.9 1.858e+04 4.344e-07
 41.92266   -101.2 1.818e+04 3.172e-07
 41.93248    -99.5 1.802e+04 2.459e-07
 41.94229    -97.9 1.789e+04 1.950e-07
 41.95211    -96.5 1.773e+04 1.529e-07
 41.96193    -95.3 1.751e+04 1.185e-07
 41.97174    -94.3 1.717e+04 9.110e-08
 41.98156    -93.5 1.668e+04 7.217e-08
 41.99138    -92.6 1.618e+04 5.810e-08
 41.99732    -91.9 1.567e+04 4.844e-08
 42.00228    -93.7 1.402e+04 2.551e-08
 42.01602    -92.1 1.324e+04 1.931e-08
 42.03565    -91.1 1.248e+04 1.470e-08
 42.05528    -90.3 1.192e+04 1.121e-08
 42.07492    -89.4 1.135e+04 8.517e-09
 42.09455    -88.9 1.064e+04 6.254e-09
 42.11419    -88.2 1.018e+04 5.159e-09
 42.13382    -87.3 1.002e+04 4.580e-09
 42.15345    -86.0 9.937e+03 4.271e-09
 42.17309    -84.7 9.896e+03 4.097e-09
 42.19272    -83.3 9.890e+03 4.010e-09
 42.20879    -82.0 9.899e+03 3.985e-09
 42.21861    -81.9 9.864e+03 3.858e-09
 42.23199    -80.4 9.863e+03 3.831e-09
 42.24422    -78.7 9.915e+03 3.897e-09
 42.25403    -78.8 9.725e+03 3.162e-09
 42.27126    -77.3 9.842e+03 3.389e-09
 42.29089    -76.1 9.940e+03 3.635e-09
 42.31053    -74.8 1.002e+04 3.873e-09
 42.33016    -73.4 1.010e+04 4.181e-09
 42.35971    -71.6 1.026e+04 4.795e-09
 42.39907    -69.0 1.046e+04 5.475e-09
 42.43834    -66.8 1.072e+04 5.976e-09
 42.47761    -65.1 1.107e+04 6.561e-09
 42.50622    -64.7 1.194e+04 9.052e-09
 42.51594    -65.9 1.252e+04 1.189e-08
 42.52650    -65.9 1.343e+04 1.901e-08
 42.54613    -65.8 1.432e+04 3.236e-08
 42.56577    -65.3 1.507e+04 5.021e-08
 42.58540    -65.0 1.556e+04 6.566e-08
 42.60503    -65.1 1.583e+04 7.216e-08
 42.62467    -65.2 1.599e+04 7.686e-08
 42.64430    -65.5 1.613e+04 8.032e-08
 42.66394    -66.0 1.607e+04 7.284e-08
 42.68357    -66.6 1.567e+04 5.411e-08
 42.70320    -67.5 1.500e+04 3.551e-08
 42.72284    -68.6 1.420e+04 2.295e-08
 42.73781    -69.6 1.356e+04 1.638e-08
 42.74763    -70.4 1.276e+04 1.130e-08
 42.76210    -70.5 1.274e+04 1.054e-08
 42.78174    -70.5 1.276e+04 9.743e-09
 42.80137    -70.4 1.278e+04 9.039e-09
 42.81327    -70.1 1.284e+04 8.587e-09
 42.82309    -70.1 1.274e+04 8.601e-09
 42.84064    -69.6 1.285e+04 8.586e-09
 42.86027    -69.2 1.296e+04 9.076e-09
 42.87991    -68.7 1.301e+04 9.923e-09
 42.89954    -68.2 1.312e+04 1.074e-08
 42.91918    -67.7 1.322e+04 1.168e-08
 42.93881    -67.3 1.332e+04 1.240e-08
 42.95844    -67.0 1.335e+04 1.261e-08
 42.97808    -66.7 1.332e+04 1.216e-08
 42.98951    -66.4 1.321e+04 1.119e-08
 42.99933    -66.7 1.263e+04 7.082e-09
 43.01735    -66.3 1.249e+04 6.148e-09
 43.03698    -66.0 1.240e+04 5.542e-09
 43.05661    -65.5 1.239e+04 5.264e-09
 43.07625    -65.1 1.241e+04 5.202e-09
 43.09588    -64.8 1.243e+04 5.232e-09
 43.11060    -64.5 1.240e+04 5.213e-09
 43.12042    -64.8 1.226e+04 4.704e-09
 43.14506    -64.4 1.246e+04 5.174e-09
 43.17451    -62.7 1.214e+04 4.602e-09
 43.19405    -62.2 1.201e+04 4.296e-09
 43.21368    -60.7 1.194e+04 3.463e-09
 43.23140    -59.9 1.194e+04 2.651e-09
 43.24122    -59.5 1.186e+04 2.791e-09
 43.26287    -58.2 1.177e+04 2.186e-09
 43.30223    -56.0 1.155e+04 1.519e-09
 43.34150    -53.4 1.138e+04 1.192e-09
 43.38077    -50.7 1.134e+04 1.108e-09
 43.42004    -47.9 1.135e+04 1.100e-09
 43.45930    -45.4 1.135e+04 1.253e-09
 43.49857    -43.1 1.127e+04 1.635e-09
 43.53784    -40.5 1.117e+04 2.132e-09
 43.57711    -38.1 1.109e+04 2.512e-09
 43.61637    -35.6 1.104e+04 2.638e-09
 43.65564    -33.2 1.094e+04 2.585e-09
 43.69491    -30.8 1.085e+04 2.459e-09
 43.71528    -28.5 1.073e+04 2.397e-09
 43.72593    -28.6 1.080e+04 2.656e-09
 43.74483    -28.5 1.100e+04 3.323e-09
 43.77345    -26.2 1.094e+04 3.334e-09
 43.81271    -24.0 1.079e+04 3.466e-09
 43.85198    -21.7 1.062e+04 3.430e-09
 43.89125    -19.3 1.043e+04 3.021e-09
 43.93052    -16.7 1.025e+04 2.295e-09
 43.96978    -14.3 1.005e+04 1.608e-09
 44.00905    -12.1 9.855e+03 1.303e-09
 44.04832     -9.8 9.784e+03 1.254e-09
 44.08759     -7.6 9.774e+03 1.513e-09
 44.12686     -5.4 9.772e+03 2.175e-09
 44.16612     -3.0 9.852e+03 3.050e-09
 44.19548     -0.8 1.005e+04 3.931e-09
 44.21501     -0.5 1.006e+04 3.948e-09
 44.22841      0.9 9.995e+03 3.987e-09
 44.23823      0.9 1.002e+04 3.826e-09
 44.25428      1.4 9.957e+03 3.715e-09
 44.28383      3.2 9.838e+03 3.155e-09
 44.30994      5.4 9.473e+03 2.646e-09
 44.32957      5.8 9.925e+03 3.756e-09
 44.35255      8.0 9.612e+03 3.307e-09
 44.37208      8.1 9.612e+03 3.302e-09
 44.39172     10.4 9.622e+03 3.436e-09
 44.41135     10.7 9.660e+03 3.478e-09
 44.43099     12.6 9.599e+03 3.302e-09
 44.45062     13.0 9.631e+03 3.345e-09
 44.47025     14.6 9.522e+03 3.310e-09
 44.48989     15.5 9.603e+03 3.717e-09
 44.50952     16.7 9.580e+03 3.571e-09
 44.52915     17.6 9.684e+03 3.697e-09
 44.54879     18.3 9.812e+03 4.082e-09
 44.56842     18.9 9.973e+03 4.808e-09
 44.58806     19.3 1.025e+04 6.102e-09
 44.60707     19.6 1.063e+04 7.878e-09
 44.61689     19.4 1.136e+04 1.161e-08
 44.62732     19.6 1.202e+04 1.614e-08
 44.64696     19.5 1.259e+04 2.055e-08
 44.66659     19.0 1.296e+04 2.497e-08
 44.68623     18.4 1.306e+04 2.890e-08
 44.70586     17.9 1.299e+04 3.214e-08
 44.72200     17.9 1.273e+04 3.210e-08
 44.73182     17.4 1.302e+04 3.514e-08
 44.74513     17.3 1.246e+04 2.810e-08
 44.76476     17.1 1.180e+04 2.058e-08
 44.78440     16.4 1.124e+04 1.469e-08
 44.80403     15.2 1.069e+04 1.126e-08
 44.82366     14.3 1.055e+04 1.054e-08
 44.84330     12.3 1.127e+04 1.269e-08
 44.86293     10.1 1.245e+04 1.977e-08
 44.88256      9.6 1.308e+04 2.996e-08
 44.89724      8.5 1.418e+04 5.051e-08
 44.90701      8.5 1.480e+04 6.024e-08
 44.91412      8.2 1.565e+04 8.670e-08
 44.91903      7.2 1.652e+04 1.213e-07
 44.92664      7.0 1.700e+04 1.387e-07
 44.94142      6.0 1.785e+04 1.773e-07
 44.96110      5.6 1.789e+04 1.502e-07
 44.97371      4.6 1.765e+04 1.180e-07
 44.98352      2.5 1.778e+04 1.288e-07
 45.00037      1.5 1.741e+04 1.166e-07
 45.02000      0.8 1.708e+04 1.084e-07
 45.03964      0.7 1.676e+04 1.051e-07
 45.05927      1.1 1.646e+04 9.736e-08
 45.07890      1.8 1.595e+04 8.199e-08
 45.09854      2.8 1.531e+04 6.743e-08
 45.11817      3.9 1.449e+04 5.143e-08
 45.13781      4.9 1.386e+04 3.703e-08
 45.15744      5.8 1.307e+04 2.923e-08
 45.17707      7.5 1.232e+04 2.043e-08
 45.19671      8.9 1.177e+04 1.452e-08
 45.21155     10.1 1.132e+04 9.963e-09
 45.22062      9.2 1.113e+04 9.152e-09
 45.22541      8.7 1.066e+04 7.239e-09
 45.23597      9.2 1.046e+04 5.942e-09
 45.25561     10.6 1.012e+04 4.815e-09
 45.27524     11.7 1.022e+04 4.942e-09
 45.29488     12.9 1.029e+04 5.118e-09
 45.31451     13.9 1.034e+04 5.439e-09
 45.33414     15.2 1.037e+04 5.814e-09
 45.35378     16.2 1.055e+04 6.510e-09
 45.37341     17.3 1.068e+04 6.970e-09
 45.39305     18.3 1.081e+04 7.070e-09
 45.41268     19.3 1.085e+04 6.715e-09
 45.43231     20.0 1.094e+04 6.264e-09
 45.45195     20.5 1.106e+04 5.981e-09
 45.46730     20.8 1.113e+04 5.984e-09
 45.47712     21.1 1.132e+04 7.183e-09
 45.49122     21.7 1.144e+04 7.487e-09
 45.50888     22.2 1.157e+04 7.905e-09
 45.51870     21.7 1.154e+04 7.880e-09
 45.53048     22.3 1.161e+04 7.972e-09
 45.55012     22.9 1.166e+04 7.853e-09
 45.56975     23.7 1.167e+04 7.404e-09
 45.58938     24.3 1.167e+04 6.916e-09
 45.60902     24.9 1.162e+04 6.361e-09
 45.62865     25.4 1.158e+04 5.896e-09
 45.64829     25.8 1.156e+04 5.619e-09
 45.66792     26.2 1.154e+04 5.569e-09
 45.68755     26.9 1.148e+04 5.569e-09
 45.70719     27.7 1.149e+04 5.649e-09
 45.71901     28.8 1.145e+04 5.720e-09
 45.72882     29.2 1.134e+04 6.143e-09
 45.74646     30.4 1.143e+04 6.053e-09
 45.76609     31.9 1.156e+04 6.110e-09
 45.78572     33.4 1.194e+04 6.208e-09
 45.80536     35.0 1.324e+04 6.191e-09
 45.81603     36.5 1.620e+04 6.298e-09
 45.82585     37.6 1.204e+04 6.244e-09
 45.84463     39.2 1.310e+04 6.365e-09
 45.86426     40.0 1.596e+04 6.844e-09
 45.88389     38.9 2.119e+04 1.196e-08
 45.89857     38.5 2.179e+04 2.634e-08
 45.90834     37.8 2.229e+04 4.120e-08
 45.91815     35.4 2.330e+04 8.917e-08
 45.92797     29.9 2.508e+04 3.259e-07
 45.93779     23.3 2.028e+04 3.654e-06
 45.94513     16.5 1.741e+04 1.426e-05
 45.95001     13.5 1.621e+04 2.841e-05
 45.95492      8.4 1.676e+04 2.105e-05
 45.95983      7.4 1.696e+04 1.664e-05
 45.96457     -1.1 1.870e+04 6.283e-06
 45.96797      2.2 1.865e+04 4.766e-06
 45.97062     -0.6 2.006e+04 2.622e-06
 45.97706    -12.7 2.237e+04 5.207e-07
 45.98687    -19.4 1.985e+04 2.397e-07
 45.99669    -20.0 1.961e+04 1.865e-07
 46.00651    -20.6 1.943e+04 1.345e-07
 46.02128    -20.7 1.949e+04 1.047e-07
 46.03601    -22.2 1.868e+04 6.693e-08
 46.04578    -22.3 1.872e+04 6.610e-08
 46.05559    -25.4 1.831e+04 6.130e-08
 46.06541    -28.3 1.863e+04 7.192e-08
 46.07523    -32.7 1.792e+04 8.574e-08
 46.08504    -35.8 1.783e+04 1.105e-07
 46.09156    -38.7 1.790e+04 1.283e-07
 46.09647    -38.5 1.776e+04 1.168e-07
 46.10468    -41.1 1.800e+04 1.270e-07
 46.11326    -44.4 1.805e+04 1.200e-07
 46.11817    -44.4 1.806e+04 1.215e-07
 46.12431    -47.9 1.758e+04 9.217e-08
 46.13908    -53.4 1.658e+04 5.656e-08
 46.15877    -65.4 1.360e+04 2.315e-08
 46.17840    -73.5 1.299e+04 1.928e-08
 46.19804    -78.8 1.332e+04 1.997e-08
 46.21260    -83.0 1.395e+04 2.636e-08
 46.22242    -83.8 1.440e+04 3.042e-08
 46.23730    -86.4 1.470e+04 4.169e-08
 46.25694    -88.0 1.467e+04 4.473e-08
 46.27657    -88.9 1.417e+04 3.878e-08
 46.29620    -89.5 1.346e+04 2.835e-08
 46.31584    -89.8 1.284e+04 2.106e-08
 46.33547    -89.9 1.238e+04 1.711e-08
 46.35511    -89.8 1.211e+04 1.568e-08
 46.37474    -89.7 1.208e+04 1.604e-08
 46.39437    -89.4 1.243e+04 2.030e-08
 46.41069    -88.8 1.295e+04 2.660e-08
 46.42051    -88.8 1.291e+04 2.585e-08
 46.43364    -88.5 1.318e+04 2.913e-08
 46.45328    -88.4 1.326e+04 3.006e-08
 46.46431    -88.4 1.312e+04 2.811e-08
 46.47412    -88.1 1.330e+04 3.083e-08
 46.49254    -88.5 1.289e+04 2.497e-08
 46.51218    -89.3 1.221e+04 1.729e-08
 46.53181    -90.6 1.168e+04 1.266e-08
 46.55145    -92.0 1.160e+04 1.168e-08
 46.57108    -93.4 1.164e+04 1.182e-08
 46.59071    -94.9 1.207e+04 1.480e-08
 46.61035    -95.9 1.262e+04 2.091e-08
 46.62998    -96.6 1.303e+04 2.713e-08
 46.64961    -97.2 1.314e+04 2.933e-08
 46.66925    -97.8 1.312e+04 2.918e-08
 46.68888    -98.4 1.267e+04 2.180e-08
 46.70620    -99.1 1.220e+04 1.512e-08
 46.71552    -97.9 1.209e+04 1.523e-08
 46.71784    -98.2 1.224e+04 1.518e-08
 46.72815    -98.7 1.181e+04 1.131e-08
 46.74778    -98.9 1.153e+04 9.339e-09
 46.76742    -98.8 1.135e+04 8.156e-09
 46.78705    -98.2 1.122e+04 7.372e-09
 46.80669    -97.3 1.115e+04 6.817e-09
 46.82632    -96.4 1.112e+04 6.418e-09
 46.84595    -95.3 1.112e+04 6.143e-09
 46.86559    -94.2 1.112e+04 6.004e-09
 46.88522    -93.1 1.110e+04 5.933e-09
 46.90486    -91.9 1.102e+04 5.862e-09
 46.92449    -90.7 1.085e+04 5.753e-09
 46.94412    -89.5 1.064e+04 5.561e-09
 46.95790    -88.4 1.044e+04 5.194e-09
 46.96772    -87.5 1.038e+04 4.557e-09
 46.98339    -86.4 1.020e+04 4.232e-09
 47.00302    -85.3 1.005e+04 3.838e-09
 47.03257    -84.2 9.896e+03 3.419e-09
 47.07194    -81.1 9.533e+03 2.655e-09
 47.11121    -78.0 9.237e+03 2.020e-09
 47.15047    -75.1 9.076e+03 1.593e-09
 47.18974    -72.2 8.955e+03 1.359e-09
 47.20980    -69.4 8.858e+03 1.259e-09
 47.22944    -68.3 8.916e+03 1.346e-09
 47.26828    -65.5 8.837e+03 1.292e-09
 47.30288    -62.6 8.768e+03 1.253e-09
 47.32251    -62.3 8.862e+03 1.348e-09
 47.34681    -59.6 8.756e+03 1.224e-09
 47.38608    -56.9 8.637e+03 1.096e-09
 47.42535    -54.2 8.554e+03 9.749e-10
 47.46462    -51.6 8.490e+03 9.242e-10
 47.50388    -49.0 8.460e+03 9.238e-10
 47.54315    -46.5 8.430e+03 1.002e-09
 47.58242    -44.0 8.410e+03 1.111e-09
 47.62169    -41.5 8.394e+03 1.202e-09
 47.66096    -38.9 8.374e+03 1.264e-09
 47.69358    -36.4 8.361e+03 1.310e-09
 47.71321    -35.8 8.374e+03 1.257e-09
 47.73949    -33.3 8.372e+03 1.271e-09
 47.77876    -30.8 8.369e+03 1.275e-09
 47.81803    -28.2 8.334e+03 1.250e-09
 47.85729    -25.5 8.304e+03 1.174e-09
 47.89656    -22.8 8.276e+03 1.077e-09
 47.91717    -20.2 8.270e+03 1.018e-09
 47.93681    -20.1 8.388e+03 1.185e-09
 47.97510    -17.5 8.390e+03 1.167e-09
 48.01437    -15.2 8.508e+03 1.274e-09
 48.05363    -13.2 8.603e+03 1.642e-09
 48.09290    -10.9 8.824e+03 2.196e-09
 48.13217     -8.6 9.139e+03 2.716e-09
 48.17144     -6.7 9.283e+03 2.918e-09
 48.19699     -4.9 9.405e+03 3.074e-09
 48.20671     -4.8 9.454e+03 3.235e-09
 48.21431     -4.7 9.471e+03 3.281e-09
 48.22413     -5.0 9.594e+03 3.714e-09
 48.23996     -4.0 9.650e+03 3.935e-09
 48.25959     -3.3 9.725e+03 4.076e-09
 48.27923     -2.7 9.793e+03 4.265e-09
 48.29886     -2.0 9.940e+03 4.231e-09
 48.32841     -0.8 9.982e+03 4.252e-09
 48.36778      1.1 1.006e+04 4.336e-09
 48.40704      2.8 1.011e+04 4.221e-09
 48.43640      3.8 1.024e+04 3.751e-09
 48.44850      4.5 1.024e+04 3.579e-09
 48.45832      4.2 1.017e+04 3.010e-09
 48.47557      5.0 1.012e+04 2.611e-09
 48.49520      5.5 1.002e+04 2.634e-09
 48.51164      6.3 1.019e+04 2.531e-09
 48.52146      5.3 1.040e+04 2.836e-09
 48.53447      4.8 1.078e+04 3.353e-09
 48.55410      4.3 1.100e+04 5.194e-09
 48.57374      4.7 1.115e+04 8.280e-09
 48.59337      5.4 1.156e+04 1.182e-08
 48.61300      5.0 1.231e+04 1.462e-08
 48.63264      2.4 1.386e+04 1.990e-08
 48.65227     -1.5 1.455e+04 3.006e-08
 48.67191     -3.8 1.446e+04 3.925e-08
 48.69039     -5.5 1.417e+04 3.426e-08
 48.70021     -5.6 1.483e+04 4.306e-08
 48.71117     -9.7 1.472e+04 2.613e-08
 48.73081    -15.5 1.322e+04 1.964e-08
 48.75044    -17.3 1.272e+04 1.842e-08
 48.77007    -18.6 1.240e+04 1.533e-08
 48.78971    -20.1 1.196e+04 1.191e-08
 48.80897    -21.5 1.155e+04 1.019e-08
 48.81879    -20.7 1.160e+04 1.053e-08
 48.83889    -22.1 1.129e+04 9.042e-09
 48.87826    -23.4 1.105e+04 7.642e-09
 48.91752    -25.5 1.106e+04 7.017e-09
 48.95679    -28.4 1.135e+04 8.186e-09
 48.99606    -30.9 1.162e+04 1.064e-08
 49.02541    -32.8 1.193e+04 1.260e-08
 49.04495    -34.2 1.197e+04 1.265e-08
 49.06458    -35.7 1.196e+04 1.197e-08
 49.08422    -37.5 1.206e+04 1.238e-08
 49.10385    -39.4 1.211e+04 1.300e-08
 49.11612    -41.3 1.217e+04 1.359e-08
 49.12594    -40.5 1.226e+04 1.436e-08
 49.14312    -42.3 1.227e+04 1.445e-08
 49.16275    -43.9 1.211e+04 1.349e-08
 49.18239    -45.0 1.173e+04 1.133e-08
 49.19380    -45.6 1.126e+04 8.680e-09
 49.20362    -46.3 1.128e+04 8.348e-09
 49.22165    -46.4 1.081e+04 5.705e-09
 49.24129    -46.4 1.052e+04 3.902e-09
 49.27084    -46.0 1.024e+04 2.640e-09
 49.31020    -44.9 9.835e+03 1.421e-09
 49.34947    -43.2 9.611e+03 1.167e-09
 49.38874    -41.3 9.580e+03 1.134e-09
 49.42801    -39.9 9.730e+03 1.385e-09
 49.46727    -38.8 9.892e+03 2.135e-09
 49.50654    -37.8 1.010e+04 3.057e-09
 49.54581    -37.5 1.032e+04 3.723e-09
 49.58508    -37.4 1.046e+04 3.976e-09
 49.62434    -37.8 1.051e+04 4.016e-09
 49.66361    -38.1 1.049e+04 3.710e-09
 49.68759    -38.1 1.040e+04 2.959e-09
 49.70550    -38.4 1.062e+04 3.191e-09
 49.72079    -37.6 1.087e+04 4.167e-09
 49.74215    -37.8 1.087e+04 3.029e-09
 49.78142    -38.0 1.083e+04 2.542e-09
 49.82068    -38.1 1.085e+04 2.565e-09
 49.85995    -38.0 1.107e+04 3.447e-09
 49.89922    -37.8 1.131e+04 5.038e-09
 49.93849    -37.6 1.160e+04 6.303e-09
 49.97775    -37.8 1.172e+04 6.539e-09
 50.01702    -38.4 1.172e+04 5.747e-09
 50.05629    -38.8 1.173e+04 4.884e-09
 50.09556    -39.3 1.177e+04 4.594e-09
 50.13483    -39.7 1.185e+04 4.609e-09
 50.17137    -39.9 1.194e+04 4.817e-09
 50.19100    -39.9 1.211e+04 4.854e-09
 50.21336    -39.9 1.220e+04 5.228e-09
 50.25263    -39.4 1.221e+04 5.328e-09
 50.29190    -38.6 1.219e+04 5.000e-09
 50.31545    -37.2 1.220e+04 4.203e-09
 50.33509    -37.1 1.238e+04 5.332e-09
 50.37043    -35.6 1.235e+04 3.799e-09
 50.40970    -34.0 1.244e+04 2.732e-09
 50.44897    -32.4 1.254e+04 2.175e-09
 50.48824    -30.8 1.262e+04 1.792e-09
 50.52750    -29.0 1.271e+04 1.460e-09
 50.56677    -27.2 1.278e+04 1.215e-09
 50.60604    -25.3 1.284e+04 1.091e-09
 50.64531    -23.3 1.288e+04 1.067e-09
 50.67478    -21.4 1.299e+04 1.112e-09
 50.69441    -21.8 1.307e+04 1.355e-09
 50.72384    -19.9 1.303e+04 1.615e-09
 50.76311    -17.9 1.303e+04 1.888e-09
 50.80238    -15.8 1.312e+04 2.071e-09
 50.84165    -13.9 1.325e+04 2.280e-09
 50.88091    -12.2 1.336e+04 2.724e-09
 50.91011    -10.5 1.349e+04 3.599e-09
 50.92975    -10.7 1.376e+04 3.955e-09
 50.95945     -9.2 1.390e+04 4.738e-09
 50.99872     -7.9 1.401e+04 4.968e-09
 51.03798     -6.4 1.399e+04 4.391e-09
 51.07725     -4.5 1.407e+04 3.200e-09
 51.11652     -2.6 1.414e+04 2.457e-09
 51.15579     -0.7 1.424e+04 2.184e-09
 51.17819      1.1 1.415e+04 2.842e-09
 51.19782      0.4 1.402e+04 2.115e-09
 51.23432      2.5 1.387e+04 3.564e-09
 51.27359      4.8 1.395e+04 4.870e-09
 51.31286      6.9 1.409e+04 5.054e-09
 51.35213      8.6 1.422e+04 5.242e-09
 51.39139     10.2 1.420e+04 5.641e-09
 51.43066     11.8 1.434e+04 5.771e-09
 51.46993     13.5 1.432e+04 5.490e-09
 51.50478     15.4 1.429e+04 4.610e-09
 51.52441     15.1 1.397e+04 4.854e-09
 51.54847     17.1 1.392e+04 3.721e-09
 51.58773     19.4 1.387e+04 2.711e-09
 51.62700     21.6 1.393e+04 2.128e-09
 51.66196     24.1 1.392e+04 2.038e-09
 51.68160     23.5 1.371e+04 2.171e-09
 51.70554     25.9 1.368e+04 2.338e-09
 51.74480     28.1 1.367e+04 2.773e-09
 51.78407     30.4 1.380e+04 3.304e-09
 51.82334     32.4 1.388e+04 3.457e-09
 51.86261     34.6 1.378e+04 3.386e-09
 51.90188     36.9 1.381e+04 3.006e-09
 51.94114     39.3 1.389e+04 2.615e-09
 51.98041     41.7 1.397e+04 2.477e-09
 52.01968     44.4 1.402e+04 2.550e-09
 52.05895     47.0 1.418e+04 2.830e-09
 52.09821     49.6 1.424e+04 3.661e-09
 52.11907     52.5 1.429e+04 5.330e-09
 52.13871     51.9 1.426e+04 5.233e-09
 52.16538     54.4 1.439e+04 7.298e-09
 52.18501     53.1 1.392e+04 6.325e-09
 52.21602     55.3 1.386e+04 6.548e-09
 52.25529     57.4 1.392e+04 6.184e-09
 52.29455     59.4 1.402e+04 5.609e-09
 52.32391     60.7 1.413e+04 6.169e-09
 52.34344     61.8 1.418e+04 6.741e-09
 52.36308     62.8 1.431e+04 8.089e-09
 52.38271     63.5 1.472e+04 1.170e-08
 52.40234     63.5 1.525e+04 2.075e-08
 52.41621     63.3 1.600e+04 4.115e-08
 52.42093     63.8 1.537e+04 2.327e-08
 52.42670     63.0 1.557e+04 2.809e-08
 52.44161     62.6 1.638e+04 5.689e-08
 52.46125     61.7 1.700e+04 9.225e-08
 52.48088     60.5 1.728e+04 1.138e-07
 52.50051     59.3 1.750e+04 1.308e-07
 52.52015     58.1 1.720e+04 9.557e-08
 52.53978     56.8 1.673e+04 5.845e-08
 52.55446     54.9 1.625e+04 3.653e-08
 52.56423     54.1 1.586e+04 2.980e-08
 52.56968     52.4 1.584e+04 3.244e-08
 52.57459     52.5 1.591e+04 3.462e-08
 52.58386     52.0 1.575e+04 3.478e-08
 52.59368     50.5 1.577e+04 4.008e-08
 52.60349     50.3 1.568e+04 4.284e-08
 52.61331     49.2 1.561e+04 4.835e-08
 52.62313     48.8 1.550e+04 4.930e-08
 52.63295     48.1 1.532e+04 4.757e-08
 52.64276     47.8 1.522e+04 4.655e-08
 52.65754     47.6 1.489e+04 3.900e-08
 52.66859     46.6 1.429e+04 2.355e-08
 52.67841     46.5 1.400e+04 2.020e-08
 52.69685     45.4 1.354e+04 1.283e-08
 52.71354     44.8 1.314e+04 1.010e-08
 52.72335     44.2 1.305e+04 1.055e-08
 52.73612     44.4 1.281e+04 1.015e-08
 52.75575     45.2 1.257e+04 9.213e-09
 52.77539     46.1 1.241e+04 7.744e-09
 52.79502     47.2 1.222e+04 5.960e-09
 52.81466     47.8 1.213e+04 4.916e-09
 52.84420     49.1 1.176e+04 3.819e-09
 52.88357     51.2 1.144e+04 3.247e-09
 52.92284     53.5 1.128e+04 3.289e-09
 52.96211     56.0 1.114e+04 3.498e-09
 53.00137     58.4 1.108e+04 3.943e-09
 53.04064     60.8 1.083e+04 4.298e-09
 53.07991     62.9 1.073e+04 4.455e-09
 53.11918     64.9 1.064e+04 4.418e-09
 53.15256     66.9 1.045e+04 4.225e-09
 53.17220     67.4 1.017e+04 3.433e-09
 53.19771     69.5 9.917e+03 3.042e-09
 53.23698     71.7 9.676e+03 2.759e-09
 53.27625     73.9 9.511e+03 2.699e-09
 53.30839     76.2 9.444e+03 2.805e-09
 53.32803     76.4 9.408e+03 2.560e-09
 53.35478     78.6 9.412e+03 2.847e-09
 53.39405     80.7 9.439e+03 3.322e-09
 53.43332     82.5 9.467e+03 3.997e-09
 53.47259     84.2 9.508e+03 4.736e-09
 53.51185     85.8 9.494e+03 5.138e-09
 53.55112     87.5 9.386e+03 4.923e-09
 53.59039     89.2 9.133e+03 4.248e-09
 53.62966     91.0 8.924e+03 3.692e-09
 53.65597     92.6 8.744e+03 3.371e-09
 53.67561     92.8 8.794e+03 3.323e-09
 53.70819     94.6 8.650e+03 3.295e-09
 53.74746     96.5 8.619e+03 3.385e-09
 53.78673     98.3 8.591e+03 3.653e-09
 53.82600    100.0 8.558e+03 3.970e-09
 53.85535    101.4 8.582e+03 4.526e-09
 53.87489    102.3 8.594e+03 4.637e-09
 53.89452    103.3 8.575e+03 4.600e-09
 53.90748    104.1 8.553e+03 4.533e-09
 53.91582    104.0 8.507e+03 4.293e-09
 53.92249    104.1 8.730e+03 5.264e-09
 53.93379    105.0 8.752e+03 5.319e-09
 53.95342    105.9 8.756e+03 5.301e-09
 53.97306    106.7 8.758e+03 5.263e-09
 53.99269    107.5 8.739e+03 5.161e-09
 54.01232    108.3 8.664e+03 4.910e-09
 54.03196    109.0 8.598e+03 4.753e-09
 54.05159    110.0 8.512e+03 4.636e-09
 54.07123    110.6 8.449e+03 4.606e-09
 54.09086    111.5 8.445e+03 4.737e-09
 54.11049    112.4 8.451e+03 4.998e-09
 54.13013    113.2 8.499e+03 5.381e-09
 54.14937    114.0 8.587e+03 5.878e-09
 54.15919    113.9 8.853e+03 6.679e-09
 54.16939    114.6 8.979e+03 7.300e-09
 54.18903    115.2 9.133e+03 7.965e-09
 54.20866    115.8 9.312e+03 8.664e-09
 54.21982    116.2 9.514e+03 9.419e-09
 54.22964    115.8 9.982e+03 1.120e-08
 54.24793    116.2 1.017e+04 1.212e-08
 54.26756    116.6 1.034e+04 1.301e-08
 54.28720    117.0 1.041e+04 1.328e-08
 54.30683    117.4 1.038e+04 1.289e-08
 54.32647    117.8 1.022e+04 1.185e-08
 54.34610    118.2 9.951e+03 1.049e-08
 54.36573    118.6 9.613e+03 8.835e-09
 54.38537    118.9 9.225e+03 7.101e-09
 54.40108    119.3 8.792e+03 5.250e-09
 54.41090    118.8 8.652e+03 4.435e-09
 54.42464    118.8 8.515e+03 3.938e-09
 54.45418    120.4 8.178e+03 3.306e-09
 54.49355    122.0 7.699e+03 2.522e-09
 54.51735    123.8 7.540e+03 2.232e-09
 54.53698    123.7 7.701e+03 2.307e-09
 54.57208    125.6 7.727e+03 2.332e-09
 54.61135    127.2 7.843e+03 2.517e-09
 54.64316    128.1 8.011e+03 2.913e-09
 54.66270    128.1 8.140e+03 2.931e-09
 54.67988    128.3 8.283e+03 3.275e-09
 54.69951    128.4 8.504e+03 3.940e-09
 54.71914    128.3 8.773e+03 4.767e-09
 54.73878    128.1 9.067e+03 5.615e-09
 54.75841    127.7 9.368e+03 6.383e-09
 54.77805    127.0 9.676e+03 6.774e-09
 54.79768    126.1 9.786e+03 6.744e-09
 54.81449    125.1 9.792e+03 6.644e-09
 54.82430    124.2 9.960e+03 7.045e-09
 54.83695    123.2 9.979e+03 6.594e-09
 54.85658    122.1 9.970e+03 5.904e-09
 54.87621    121.2 9.941e+03 5.367e-09
 54.89467    120.5 9.928e+03 5.298e-09
 54.90449    119.8 1.024e+04 6.349e-09
 54.91548    119.3 1.032e+04 6.637e-09
 54.93512    119.0 1.052e+04 7.397e-09
 54.95475    118.6 1.086e+04 8.883e-09
 54.97438    118.3 1.135e+04 1.142e-08
 54.99402    117.9 1.193e+04 1.514e-08
 55.01365    117.6 1.246e+04 1.904e-08
 55.03329    117.2 1.280e+04 2.148e-08
 55.05292    116.8 1.281e+04 2.062e-08
 55.07255    116.5 1.263e+04 1.736e-08
 55.09219    116.0 1.228e+04 1.251e-08
 55.11182    115.6 1.178e+04 8.541e-09
 55.13145    113.3 1.118e+04 5.455e-09
 55.14648    113.4 1.099e+04 5.444e-09
 55.16621    114.0 1.053e+04 4.278e-09
 55.20037    115.4 1.033e+04 4.055e-09
 55.23964    116.5 1.029e+04 3.968e-09
 55.27890    117.4 1.029e+04 3.833e-09
 55.31817    118.1 1.027e+04 3.618e-09
 55.35744    118.8 1.023e+04 3.397e-09
 55.39671    119.9 1.022e+04 3.321e-09
 55.43598    121.0 1.026e+04 3.377e-09
 55.47524    122.6 1.033e+04 3.575e-09
 55.50460    123.2 1.046e+04 3.948e-09
 55.52413    123.6 1.052e+04 4.220e-09
 55.54377    124.1 1.059e+04 4.506e-09
 55.56340    124.6 1.068e+04 4.802e-09
 55.58303    125.2 1.078e+04 5.089e-09
 55.60267    125.8 1.084e+04 5.352e-09
 55.62230    126.3 1.089e+04 5.550e-09
 55.63997    126.9 1.092e+04 5.743e-09
 55.64979    126.9 1.089e+04 5.399e-09
 55.66157    127.5 1.090e+04 5.583e-09
 55.68120    128.1 1.093e+04 5.814e-09
 55.70084    128.7 1.100e+04 6.137e-09
 55.71629    129.2 1.112e+04 6.605e-09
 55.72611    128.3 1.112e+04 6.322e-09
 55.74011    128.8 1.124e+04 7.001e-09
 55.75974    129.1 1.138e+04 7.559e-09
 55.77937    129.5 1.151e+04 7.758e-09
 55.79901    129.7 1.160e+04 7.741e-09
 55.81864    129.8 1.170e+04 7.653e-09
 55.83828    129.7 1.191e+04 7.556e-09
 55.85791    129.4 1.227e+04 7.813e-09
 55.87754    128.7 1.285e+04 9.017e-09
 55.89168    127.6 1.353e+04 1.195e-08
 55.90149    127.4 1.338e+04 1.036e-08
 55.91681    126.0 1.387e+04 1.454e-08
 55.93644    124.7 1.409e+04 1.944e-08
 55.95608    123.4 1.417e+04 2.229e-08
 55.97571    122.3 1.389e+04 2.334e-08
 55.99535    121.4 1.371e+04 2.236e-08
 56.01363    120.6 1.339e+04 2.053e-08
 56.02344    120.6 1.240e+04 9.782e-09
 56.03461    120.0 1.230e+04 1.061e-08
 56.05425    119.6 1.220e+04 1.108e-08
 56.07388    119.5 1.210e+04 1.108e-08
 56.09352    119.5 1.200e+04 1.076e-08
 56.11315    119.6 1.192e+04 1.008e-08
 56.13278    119.7 1.180e+04 9.246e-09
 56.14338    119.8 1.165e+04 8.387e-09
 56.15320    119.8 1.147e+04 7.981e-09
 56.17205    120.0 1.131e+04 7.187e-09
 56.19169    120.2 1.117e+04 6.428e-09
 56.21132    120.3 1.106e+04 5.779e-09
 56.23095    120.4 1.097e+04 5.249e-09
 56.25059    120.6 1.089e+04 4.807e-09
 56.27022    120.7 1.080e+04 4.401e-09
 56.28985    121.0 1.071e+04 4.029e-09
 56.30949    121.3 1.061e+04 3.717e-09
 56.32077    121.6 1.055e+04 3.484e-09
 56.34050    122.3 1.040e+04 2.652e-09
 56.37840    123.0 1.044e+04 2.364e-09
 56.41767    123.5 1.055e+04 2.336e-09
 56.44702    123.5 1.060e+04 2.286e-09
 56.46656    123.5 1.065e+04 2.317e-09
 56.49611    123.3 1.093e+04 2.690e-09
 56.53547    122.6 1.126e+04 3.205e-09
 56.57474    122.0 1.141e+04 3.631e-09
 56.60409    121.7 1.143e+04 4.012e-09
 56.61810    121.8 1.141e+04 4.362e-09
 56.62792    122.6 1.134e+04 3.441e-09
 56.63698    122.7 1.129e+04 3.709e-09
 56.64679    122.9 1.136e+04 4.250e-09
 56.66290    123.2 1.131e+04 4.742e-09
 56.68253    123.7 1.130e+04 5.025e-09
 56.70217    124.2 1.119e+04 5.240e-09
 56.72180    124.7 1.116e+04 5.057e-09
 56.74143    125.2 1.117e+04 4.852e-09
 56.76107    125.7 1.120e+04 4.844e-09
 56.78070    125.7 1.130e+04 4.967e-09
 56.80034    125.6 1.145e+04 5.622e-09
 56.81997    125.6 1.160e+04 7.051e-09
 56.83960    125.5 1.176e+04 9.101e-09
 56.85924    125.4 1.202e+04 1.164e-08
 56.87887    124.9 1.256e+04 1.530e-08
 56.89850    123.5 1.325e+04 1.962e-08
 56.91543    121.8 1.415e+04 2.501e-08
 56.92525    121.2 1.596e+04 6.797e-08
 56.93777    119.3 1.670e+04 9.640e-08
 56.95741    117.3 1.732e+04 1.291e-07
 56.97704    115.5 1.782e+04 1.591e-07
 56.99667    113.3 1.839e+04 1.954e-07
 57.01631    110.3 1.852e+04 1.837e-07
 57.03594    107.2 1.808e+04 1.272e-07
 57.05558    104.8 1.696e+04 7.572e-08
 57.07521    102.9 1.553e+04 4.933e-08
 57.09484    102.1 1.480e+04 4.464e-08
 57.11448    102.0 1.472e+04 4.513e-08
 57.13057    102.0 1.469e+04 4.641e-08
 57.14039    101.7 1.389e+04 3.401e-08
 57.15375    101.9 1.398e+04 3.508e-08
 57.17338    101.9 1.403e+04 3.510e-08
 57.19301    101.9 1.402e+04 3.424e-08
 57.21265    101.8 1.391e+04 3.080e-08
 57.22258    101.7 1.360e+04 2.479e-08
 57.23240    100.4 1.283e+04 1.458e-08
 57.25192    100.2 1.230e+04 9.912e-09
 57.27155     99.7 1.174e+04 6.577e-09
 57.29118     99.2 1.118e+04 4.692e-09
 57.31082     98.8 1.069e+04 4.020e-09
 57.33045     98.8 1.049e+04 3.934e-09
 57.35008     99.2 1.047e+04 3.922e-09
 57.36972     99.7 1.048e+04 3.953e-09
 57.38228    100.2 1.059e+04 4.112e-09
 57.39209    100.1 1.059e+04 4.077e-09
 57.40899    100.4 1.084e+04 4.571e-09
 57.42862    100.4 1.111e+04 5.508e-09
 57.44825    100.4 1.139e+04 7.091e-09
 57.46789    100.4 1.165e+04 9.380e-09
 57.48752    100.5 1.187e+04 1.191e-08
 57.50716    100.4 1.188e+04 1.350e-08
 57.51991    100.2 1.183e+04 1.355e-08
 57.52973    100.0 1.213e+04 1.375e-08
 57.54642     99.8 1.204e+04 1.362e-08
 57.56606     99.7 1.182e+04 1.330e-08
 57.58569     99.8 1.172e+04 1.314e-08
 57.60533    100.0 1.172e+04 1.323e-08
 57.62417    100.4 1.178e+04 1.383e-08
 57.63398     99.7 1.173e+04 1.478e-08
 57.64459    100.1 1.195e+04 1.639e-08
 57.66423    100.5 1.236e+04 2.005e-08
 57.68386    101.0 1.285e+04 2.569e-08
 57.70349    101.5 1.343e+04 3.330e-08
 57.72313    102.2 1.408e+04 4.309e-08
 57.74276    102.8 1.475e+04 5.542e-08
 57.76240    103.3 1.551e+04 7.204e-08
 57.78203    103.6 1.635e+04 9.501e-08
 57.79671    103.3 1.662e+04 1.067e-07
 57.80648    102.9 1.698e+04 1.234e-07
 57.81629    102.5 1.737e+04 1.464e-07
 57.82205    102.0 1.772e+04 1.709e-07
 57.82696    101.0 1.769e+04 1.626e-07
 57.83593     99.4 1.861e+04 2.188e-07
 57.84574     96.2 1.961e+04 5.121e-07
 57.85556     91.3 1.876e+04 1.846e-06
 57.86538     85.4 1.813e+04 3.901e-06
 57.87519     79.4 1.814e+04 3.770e-06
 57.88068     75.9 1.853e+04 2.052e-06
 57.88559     75.8 1.863e+04 1.947e-06
 57.89483     74.6 1.930e+04 5.358e-07
 57.90464     73.3 2.097e+04 7.818e-08
 57.91942     61.6 1.972e+04 9.799e-09
 57.93910     46.7 1.157e+04 6.568e-09
 57.95874     42.5 1.097e+04 6.609e-09
 57.97837     41.9 1.111e+04 7.561e-09
 57.99800     41.5 1.152e+04 9.712e-09
 58.01764     41.0 1.195e+04 1.284e-08
 58.03727     40.3 1.236e+04 1.718e-08
 58.05690     39.6 1.273e+04 2.217e-08
 58.07654     39.4 1.314e+04 2.744e-08
 58.09617     39.4 1.327e+04 3.093e-08
 58.11457     39.4 1.298e+04 2.709e-08
 58.12439     40.1 1.332e+04 3.097e-08
 58.12758     40.2 1.266e+04 2.335e-08
 58.13739     38.6 1.179e+04 1.631e-08
 58.15507     38.2 1.088e+04 1.119e-08
 58.17471     37.6 1.008e+04 7.906e-09
 58.19434     37.3 9.513e+03 5.983e-09
 58.21398     37.3 9.154e+03 4.861e-09
 58.23361     37.5 8.905e+03 4.237e-09
 58.25324     37.9 8.753e+03 3.924e-09
 58.27288     38.3 8.718e+03 3.897e-09
 58.29251     39.0 8.716e+03 3.930e-09
 58.31215     39.6 8.744e+03 4.058e-09
 58.33178     40.4 8.806e+03 4.276e-09
 58.35141     41.2 8.880e+03 4.523e-09
 58.36947     42.0 8.974e+03 4.810e-09
 58.37928     41.9 8.664e+03 3.852e-09
 58.39068     42.5 8.707e+03 3.957e-09
 58.41032     43.6 8.748e+03 4.024e-09
 58.42172     44.4 8.789e+03 4.091e-09
 58.43154     44.9 8.872e+03 4.254e-09
 58.44958     46.0 8.899e+03 4.252e-09
 58.46922     46.9 8.938e+03 4.280e-09
 58.48885     48.0 8.995e+03 4.355e-09
 58.50848     49.0 9.058e+03 4.428e-09
 58.52812     50.1 9.124e+03 4.538e-09
 58.54775     51.2 9.214e+03 4.712e-09
 58.56739     52.3 9.313e+03 4.992e-09
 58.58702     53.6 9.401e+03 5.281e-09
 58.60665     54.9 9.515e+03 5.598e-09
 58.62117     56.3 9.679e+03 6.006e-09
 58.63099     56.4 9.059e+03 4.137e-09
 58.64592     57.6 9.294e+03 4.589e-09
 58.66556     58.5 9.663e+03 5.400e-09
 58.68519     59.3 1.038e+04 7.092e-09
 58.70482     59.9 1.136e+04 1.055e-08
 58.71905     59.7 1.275e+04 1.650e-08
 58.72887     61.1 1.176e+04 1.292e-08
 58.74409     60.9 1.318e+04 2.066e-08
 58.76373     60.3 1.491e+04 3.724e-08
 58.78336     59.3 1.659e+04 7.119e-08
 58.80299     57.7 1.778e+04 1.271e-07
 58.81767     56.2 1.845e+04 1.670e-07
 58.82744     55.1 1.860e+04 2.029e-07
 58.83725     54.0 1.869e+04 2.301e-07
 58.84707     52.8 1.874e+04 2.412e-07
 58.85689     51.5 1.883e+04 2.342e-07
 58.86671     50.1 1.894e+04 2.150e-07
 58.87253     48.4 1.902e+04 1.910e-07
 58.87369     49.3 1.907e+04 2.067e-07
 58.87769     49.2 1.842e+04 1.231e-07
 58.88634     47.6 1.824e+04 1.041e-07
 58.89616     45.8 1.802e+04 9.058e-08
 58.90597     44.5 1.771e+04 8.176e-08
 58.92075     43.0 1.722e+04 7.239e-08
 58.94043     42.0 1.675e+04 6.933e-08
 58.96006     40.9 1.673e+04 6.819e-08
 58.97970     39.5 1.720e+04 7.941e-08
 58.99933     38.2 1.809e+04 1.142e-07
 59.01401     38.1 1.810e+04 1.213e-07
 59.02119     37.4 1.848e+04 1.521e-07
 59.02615     38.0 1.853e+04 1.340e-07
 59.03364     36.9 1.888e+04 1.771e-07
 59.04341     35.4 1.940e+04 2.627e-07
 59.05323     33.2 1.971e+04 4.225e-07
 59.06304     30.9 1.934e+04 7.494e-07
 59.07286     29.2 1.874e+04 1.303e-06
 59.08268     27.2 1.875e+04 1.520e-06
 59.09250     26.4 1.885e+04 1.246e-06
 59.10231     26.3 1.907e+04 7.059e-07
 59.11213     26.4 1.896e+04 2.997e-07
 59.11958     25.6 1.846e+04 1.635e-07
 59.12448     25.6 1.828e+04 1.667e-07
 59.13672     25.0 1.723e+04 8.061e-08
 59.15640     22.0 1.578e+04 3.640e-08
 59.17604     19.6 1.467e+04 2.748e-08
 59.19567     18.1 1.471e+04 3.041e-08
 59.21530     17.1 1.511e+04 4.150e-08
 59.23494     16.5 1.559e+04 5.988e-08
 59.25457     16.1 1.627e+04 8.586e-08
 59.27421     15.8 1.695e+04 1.329e-07
 59.28888     15.5 1.742e+04 1.380e-07
 59.29865     15.2 1.736e+04 1.314e-07
 59.30847     14.4 1.731e+04 1.145e-07
 59.31828     13.4 1.701e+04 1.001e-07
 59.32343     12.8 1.646e+04 7.621e-08
 59.32834     13.4 1.713e+04 1.060e-07
 59.33792     12.6 1.685e+04 9.634e-08
 59.34774     11.9 1.640e+04 7.225e-08
 59.35755     11.6 1.628e+04 6.955e-08
 59.36637     11.4 1.576e+04 5.178e-08
 59.37128     11.3 1.510e+04 3.901e-08
 59.37719     10.5 1.491e+04 3.637e-08
 59.39196      9.0 1.537e+04 3.902e-08
 59.41164      4.2 1.714e+04 7.018e-08
 59.43128      3.3 1.793e+04 1.778e-07
 59.45091      2.3 1.799e+04 2.225e-07
 59.47055      3.0 1.725e+04 1.361e-07
 59.49018      1.8 1.642e+04 5.937e-08
 59.50981     -1.0 1.439e+04 2.581e-08
 59.52945     -2.8 1.270e+04 1.427e-08
 59.54908     -3.3 1.228e+04 1.021e-08
 59.56871     -3.1 1.163e+04 8.644e-09
 59.58835     -3.1 1.173e+04 6.888e-09
 59.60798     -3.0 1.159e+04 8.220e-09
 59.61818     -2.6 1.187e+04 8.554e-09
 59.62124     -1.5 1.157e+04 6.847e-09
 59.63068     -0.8 1.179e+04 7.299e-09
 59.64725     -0.9 1.202e+04 8.602e-09
 59.66688     -0.5 1.210e+04 1.094e-08
 59.68652      0.7 1.210e+04 1.288e-08
 59.70615      2.0 1.217e+04 1.166e-08
 59.72579      3.3 1.192e+04 9.888e-09
 59.74542      4.4 1.188e+04 6.481e-09
 59.76505      4.6 1.160e+04 5.251e-09
 59.78469      6.4 1.123e+04 2.986e-09
 59.80432      6.5 1.132e+04 2.727e-09
 59.83387      9.0 1.110e+04 1.706e-09
 59.87324     11.2 1.103e+04 1.326e-09
 59.90857     13.9 1.090e+04 1.331e-09
 59.92820     14.3 1.086e+04 1.355e-09
 59.95177     17.1 1.084e+04 1.418e-09
 59.99104     19.8 1.084e+04 1.620e-09
 60.03031     22.4 1.082e+04 1.895e-09
 60.06957     24.8 1.088e+04 2.257e-09
 60.10215     27.2 1.095e+04 2.738e-09
 60.12178     27.5 1.092e+04 2.594e-09
 60.14811     29.8 1.098e+04 3.116e-09
 60.18738     32.1 1.104e+04 3.345e-09
 60.22665     34.4 1.103e+04 3.298e-09
 60.26591     36.7 1.103e+04 3.222e-09
 60.29527     38.7 1.090e+04 3.051e-09
 60.31480     39.4 1.095e+04 3.095e-09
 60.34435     41.2 1.115e+04 3.487e-09
 60.37380     42.0 1.126e+04 3.756e-09
 60.39334     42.9 1.135e+04 4.244e-09
 60.41297     43.9 1.149e+04 5.094e-09
 60.43261     44.8 1.166e+04 6.303e-09
 60.45224     45.7 1.183e+04 7.700e-09
 60.47187     46.6 1.198e+04 8.925e-09
 60.49151     47.5 1.209e+04 9.614e-09
 60.51114     48.3 1.218e+04 9.983e-09
 60.52267     48.9 1.226e+04 9.884e-09
 60.53249     49.5 1.223e+04 1.083e-08
 60.55041     49.9 1.235e+04 1.153e-08
 60.57004     50.3 1.246e+04 1.231e-08
 60.58968     50.6 1.257e+04 1.324e-08
 60.60536     51.1 1.269e+04 1.433e-08
 60.61518     51.1 1.229e+04 1.142e-08
 60.62894     51.6 1.239e+04 1.214e-08
 60.64858     52.2 1.250e+04 1.278e-08
 60.66821     52.8 1.264e+04 1.344e-08
 60.68785     53.3 1.277e+04 1.407e-08
 60.70748     53.9 1.287e+04 1.443e-08
 60.72711     54.4 1.290e+04 1.441e-08
 60.74675     55.0 1.289e+04 1.404e-08
 60.76638     55.6 1.285e+04 1.336e-08
 60.78602     56.1 1.285e+04 1.283e-08
 60.80565     56.6 1.288e+04 1.293e-08
 60.82000     57.1 1.297e+04 1.363e-08
 60.82982     56.6 1.292e+04 1.296e-08
 60.84492     57.0 1.301e+04 1.341e-08
 60.85707     57.2 1.312e+04 1.407e-08
 60.86689     58.0 1.294e+04 1.279e-08
 60.88419     58.2 1.307e+04 1.344e-08
 60.90382     58.3 1.317e+04 1.395e-08
 60.92345     58.3 1.323e+04 1.421e-08
 60.94309     58.2 1.318e+04 1.453e-08
 60.96272     58.1 1.314e+04 1.499e-08
 60.98235     57.9 1.314e+04 1.547e-08
 61.00199     57.8 1.317e+04 1.604e-08
 61.02162     57.6 1.326e+04 1.704e-08
 61.04126     57.0 1.360e+04 1.932e-08
 61.06089     55.4 1.450e+04 2.727e-08
 61.08052     52.7 1.616e+04 5.433e-08
 61.09896     50.1 1.745e+04 1.053e-07
 61.10877     53.0 1.692e+04 8.523e-08
 61.11733     50.4 1.798e+04 1.241e-07
 61.12715     50.0 1.755e+04 1.109e-07
 61.13943     47.8 1.736e+04 9.965e-08
 61.15906     44.6 1.759e+04 5.303e-08
 61.17869     35.9 1.895e+04 4.217e-08
 61.19833     25.7 1.818e+04 6.010e-08
 61.21796     21.5 1.663e+04 9.243e-08
 61.23760     20.9 1.637e+04 9.375e-08
 61.25723     20.1 1.644e+04 7.707e-08
 61.27686     17.7 1.591e+04 4.005e-08
 61.29650     14.8 1.522e+04 2.616e-08
 61.31613     12.3 1.398e+04 1.885e-08
 61.33576     10.7 1.330e+04 1.524e-08
 61.35066      9.5 1.319e+04 1.351e-08
 61.36048     10.0 1.406e+04 2.412e-08
 61.37503      8.8 1.398e+04 2.356e-08
 61.39467      8.4 1.355e+04 2.081e-08
 61.41430      8.3 1.310e+04 1.576e-08
 61.42448      7.5 1.279e+04 1.143e-08
 61.43430      8.0 1.358e+04 1.464e-08
 61.45357      7.2 1.279e+04 1.309e-08
 61.47320      7.1 1.272e+04 1.186e-08
 61.49284      7.2 1.279e+04 1.261e-08
 61.51247      7.8 1.290e+04 1.341e-08
 61.53210      8.4 1.299e+04 1.397e-08
 61.55174      9.0 1.317e+04 1.492e-08
 61.57137      9.4 1.344e+04 1.781e-08
 61.59101      9.4 1.384e+04 2.237e-08
 61.60237      9.1 1.449e+04 3.167e-08
 61.61219      7.5 1.454e+04 3.476e-08
 61.63027      7.9 1.479e+04 4.616e-08
 61.64991      9.0 1.474e+04 4.710e-08
 61.66954     10.6 1.445e+04 3.493e-08
 61.68917     12.2 1.391e+04 1.891e-08
 61.70881     11.5 1.358e+04 8.097e-09
 61.72181     10.3 1.265e+04 5.071e-09
 61.73163     10.7 1.226e+04 3.743e-09
 61.74808     11.0 1.174e+04 3.019e-09
 61.76771     11.5 1.181e+04 2.665e-09
 61.78734     11.9 1.188e+04 2.887e-09
 61.80698     12.7 1.178e+04 3.445e-09
 61.82661     13.9 1.172e+04 3.972e-09
 61.84426     15.0 1.181e+04 4.527e-09
 61.85407     15.4 1.182e+04 3.345e-09
 61.86588     16.6 1.182e+04 3.741e-09
 61.88551     17.4 1.188e+04 3.881e-09
 61.90515     18.4 1.187e+04 4.291e-09
 61.92478     19.5 1.185e+04 4.363e-09
 61.94442     20.9 1.175e+04 4.110e-09
 61.96405     22.0 1.175e+04 3.849e-09
 61.98368     23.6 1.158e+04 3.226e-09
 62.00332     23.8 1.159e+04 3.094e-09
 62.03287     25.6 1.119e+04 2.696e-09
 62.07223     27.6 1.079e+04 2.318e-09
 62.09616     29.7 1.065e+04 2.043e-09
 62.11579     29.9 1.079e+04 2.364e-09
 62.15077     31.8 1.081e+04 2.664e-09
 62.19003     33.7 1.082e+04 3.272e-09
 62.22930     35.4 1.083e+04 4.114e-09
 62.26857     37.2 1.082e+04 5.081e-09
 62.30685     38.9 1.074e+04 5.678e-09
 62.32648     39.2 1.099e+04 7.316e-09
 62.34711     40.7 1.087e+04 7.243e-09
 62.38637     42.2 1.069e+04 6.909e-09
 62.42564     43.7 1.046e+04 6.327e-09
 62.46491     45.2 1.020e+04 5.608e-09
 62.50418     47.0 9.944e+03 4.744e-09
 62.53353     48.4 9.658e+03 3.754e-09
 62.55307     48.7 9.609e+03 3.552e-09
 62.57270     50.3 9.425e+03 3.093e-09
 62.58956     50.5 9.424e+03 3.039e-09
 62.59947     50.3 9.470e+03 3.170e-09
 62.62198     52.4 9.258e+03 2.989e-09
 62.66125     54.7 9.169e+03 3.072e-09
 62.70052     56.7 9.078e+03 3.325e-09
 62.73978     59.0 9.164e+03 4.134e-09
 62.76914     59.9 9.421e+03 5.359e-09
 62.78867     60.8 9.631e+03 6.346e-09
 62.80831     61.6 9.830e+03 7.320e-09
 62.82794     62.3 1.003e+04 8.351e-09
 62.84126     62.9 1.019e+04 9.345e-09
 62.85108     63.0 1.002e+04 8.619e-09
 62.86721     63.6 1.014e+04 9.397e-09
 62.88684     64.2 1.028e+04 1.011e-08
 62.90648     64.8 1.038e+04 1.041e-08
 62.92095     65.3 1.036e+04 1.024e-08
 62.94068     64.0 1.041e+04 1.029e-08
 62.97539     64.4 1.021e+04 9.101e-09
 63.01466     64.8 9.934e+03 7.791e-09
 63.04401     65.3 9.959e+03 8.071e-09
 63.06355     65.6 9.914e+03 7.925e-09
 63.08315     65.6 9.860e+03 7.649e-09
 63.10278     65.6 1.046e+04 9.760e-09
 63.12245     63.9 1.145e+04 1.273e-08
 63.14208     59.9 1.371e+04 2.598e-08
 63.16172     56.2 1.552e+04 6.055e-08
 63.18135     53.9 1.600e+04 8.813e-08
 63.20098     52.5 1.570e+04 8.050e-08
 63.21828     51.8 1.460e+04 5.131e-08
 63.22810     51.4 1.425e+04 4.656e-08
 63.24025     49.8 1.270e+04 2.207e-08
 63.25989     45.9 1.051e+04 9.344e-09
 63.27952     42.8 9.191e+03 6.380e-09
 63.29915     42.6 9.227e+03 6.549e-09
 63.31879     42.5 9.451e+03 7.233e-09
 63.33486     42.6 9.802e+03 8.516e-09
 63.34467     42.1 1.009e+04 9.965e-09
 63.35806     42.4 1.033e+04 1.131e-08
 63.37769     42.9 1.049e+04 1.224e-08
 63.39732     43.4 1.061e+04 1.288e-08
 63.41696     43.9 1.072e+04 1.333e-08
 63.43659     44.5 1.081e+04 1.367e-08
 63.45622     45.1 1.089e+04 1.404e-08
 63.47586     45.7 1.100e+04 1.471e-08
 63.49549     46.4 1.123e+04 1.620e-08
 63.51513     46.9 1.160e+04 1.880e-08
 63.52543     47.5 1.201e+04 2.231e-08
 63.53524     47.4 1.179e+04 2.074e-08
 63.55439     48.1 1.229e+04 2.518e-08
 63.57403     48.6 1.276e+04 2.944e-08
 63.58656     48.7 1.314e+04 3.263e-08
 63.59638     49.5 1.267e+04 2.715e-08
 63.61330     49.3 1.321e+04 3.222e-08
 63.63293     48.6 1.398e+04 4.049e-08
 63.64761     47.8 1.435e+04 4.512e-08
 63.65737     47.5 1.457e+04 4.868e-08
 63.66719     47.2 1.483e+04 5.286e-08
 63.67400     47.0 1.485e+04 5.332e-08
 63.67890     46.4 1.503e+04 5.636e-08
 63.68683     45.9 1.500e+04 5.379e-08
 63.69664     45.6 1.494e+04 5.137e-08
 63.70646     44.7 1.495e+04 4.512e-08
 63.71232     44.0 1.490e+04 4.153e-08
 63.71723     44.5 1.550e+04 5.391e-08
 63.72609     42.7 1.567e+04 4.985e-08
 63.73591     41.6 1.556e+04 4.705e-08
 63.74573     39.3 1.554e+04 4.494e-08
 63.75554     38.9 1.543e+04 4.434e-08
 63.77032     35.8 1.462e+04 3.780e-08
 63.79000     32.7 1.488e+04 4.424e-08
 63.80963     30.2 1.522e+04 4.656e-08
 63.82276     27.6 1.548e+04 4.455e-08
 63.83176     22.7 1.508e+04 3.289e-08
 63.83827     21.2 1.432e+04 2.551e-08
 63.84890     18.3 1.352e+04 2.061e-08
 63.86854     15.9 1.267e+04 1.835e-08
 63.88817     14.5 1.208e+04 1.695e-08
 63.90780     12.4 1.276e+04 1.892e-08
 63.92744      5.6 1.493e+04 2.920e-08
 63.94707      0.6 1.602e+04 6.550e-08
 63.96671     -3.9 1.724e+04 8.733e-08
 63.98634     -8.9 1.641e+04 7.148e-08
 64.00597    -12.2 1.435e+04 3.855e-08
 64.02561    -15.3 1.268e+04 1.423e-08
 64.04524    -18.5 1.138e+04 8.026e-09
 64.06488    -19.3 1.101e+04 6.035e-09
 64.08016    -19.6 1.070e+04 5.235e-09
 64.09007    -20.8 1.077e+04 5.145e-09
 64.11047    -19.4 1.034e+04 3.280e-09
 64.13000    -19.0 1.036e+04 3.387e-09
 64.14341    -17.3 1.028e+04 2.926e-09
 64.16304    -17.1 1.023e+04 2.895e-09
 64.19259    -14.8 1.018e+04 2.938e-09
 64.23196    -12.2 1.008e+04 3.211e-09
 64.26131     -9.8 1.003e+04 3.410e-09
 64.28085     -9.4 9.997e+03 3.384e-09
 64.31040     -7.0 9.954e+03 3.457e-09
 64.34976     -4.3 9.885e+03 3.328e-09
 64.38903     -1.2 9.613e+03 2.326e-09
 64.42830      1.5 9.559e+03 1.548e-09
 64.46757      3.4 9.636e+03 1.072e-09
 64.50683      5.7 9.610e+03 1.010e-09
 64.54610      8.0 9.595e+03 1.099e-09
 64.57394     10.6 9.577e+03 1.183e-09
 64.59358     11.3 9.539e+03 1.166e-09
 64.62464     13.9 9.550e+03 1.116e-09
 64.66390     16.3 9.590e+03 1.036e-09
 64.70317     18.8 9.629e+03 9.590e-10
 64.72476     21.1 9.678e+03 8.844e-10
 64.74440     20.7 9.699e+03 9.527e-10
 64.78171     23.1 9.727e+03 8.779e-10
 64.82098     25.4 9.781e+03 8.395e-10
 64.86024     27.7 9.826e+03 8.308e-10
 64.89951     30.0 9.875e+03 8.377e-10
 64.93878     32.0 9.986e+03 8.886e-10
 64.97805     33.9 1.010e+04 1.043e-09
 65.01731     35.6 1.019e+04 1.330e-09
 65.05658     37.3 1.035e+04 1.558e-09
 65.07736     38.8 1.044e+04 1.549e-09
 65.09699     39.5 1.040e+04 1.795e-09
 65.13512     40.9 1.043e+04 1.737e-09
 65.17439     42.3 1.050e+04 1.588e-09
 65.21365     43.8 1.060e+04 1.469e-09
 65.25292     45.3 1.063e+04 1.456e-09
 65.29219     46.9 1.069e+04 1.497e-09
 65.31942     48.3 1.071e+04 1.745e-09
 65.33906     48.0 1.072e+04 1.751e-09
 65.37072     49.1 1.078e+04 2.418e-09
 65.40999     50.0 1.080e+04 3.400e-09
 65.44926     50.3 1.067e+04 3.922e-09
 65.48853     50.5 1.058e+04 3.833e-09
 65.52780     50.9 1.028e+04 3.283e-09
 65.56113     51.5 9.963e+03 2.318e-09
 65.58077     51.9 1.021e+04 2.391e-09
 65.60633     52.1 9.889e+03 1.709e-09
 65.64560     52.6 9.725e+03 1.679e-09
 65.68487     53.6 9.694e+03 1.795e-09
 65.72413     54.6 9.750e+03 2.114e-09
 65.76340     55.6 9.840e+03 2.300e-09
 65.80267     56.4 9.825e+03 2.236e-09
 65.84194     57.3 9.721e+03 2.019e-09
 65.88121     58.3 9.570e+03 1.772e-09
 65.91409     59.5 9.392e+03 1.596e-09
 65.93372     59.3 9.280e+03 1.418e-09
 65.95974     60.7 9.020e+03 1.424e-09
 65.99901     62.2 8.985e+03 1.443e-09
 66.03828     63.7 8.926e+03 1.538e-09
 66.06454     65.1 8.913e+03 1.811e-09
 66.08418     65.4 8.985e+03 1.642e-09
 66.11681     66.7 9.157e+03 2.300e-09
 66.15608     67.9 9.376e+03 2.959e-09
 66.19535     68.8 9.442e+03 3.066e-09
 66.23462     69.5 9.408e+03 2.965e-09
 66.27388     70.4 9.272e+03 2.665e-09
 66.31315     71.3 9.094e+03 2.457e-09
 66.35242     72.3 9.073e+03 2.416e-09
 66.39169     73.2 9.110e+03 2.400e-09
 66.43095     74.0 9.084e+03 2.367e-09
 66.47022     75.0 9.058e+03 2.148e-09
 66.50875     76.0 9.026e+03 1.812e-09
 66.52838     75.6 9.020e+03 1.493e-09
 66.54832     76.5 9.011e+03 1.331e-09
 66.56795     75.9 9.097e+03 1.192e-09
 66.58803     77.0 9.100e+03 1.206e-09
 66.62729     78.2 9.181e+03 1.293e-09
 66.66656     79.3 9.242e+03 1.590e-09
 66.70583     80.4 9.454e+03 2.122e-09
 66.74510     81.5 9.684e+03 2.898e-09
 66.78436     82.4 9.889e+03 3.856e-09
 66.82363     83.1 1.007e+04 4.895e-09
 66.86290     83.6 1.018e+04 5.841e-09
 66.90217     83.9 1.033e+04 6.682e-09
 66.94144     84.3 1.040e+04 7.413e-09
 66.98070     84.5 1.057e+04 7.504e-09
 67.01997     84.5 1.059e+04 7.430e-09
 67.05173     84.4 1.060e+04 6.884e-09
 67.07137     85.4 1.072e+04 6.136e-09
 67.09851     85.3 1.065e+04 5.698e-09
 67.12304     85.0 1.067e+04 5.241e-09
 67.14268     83.4 1.057e+04 4.407e-09
 67.17704     82.9 1.042e+04 3.759e-09
 67.21631     82.7 1.034e+04 3.417e-09
 67.25558     82.7 1.033e+04 3.422e-09
 67.29485     82.6 1.050e+04 3.735e-09
 67.33411     82.6 1.097e+04 5.089e-09
 67.37338     82.6 1.180e+04 8.366e-09
 67.40273     82.6 1.220e+04 1.042e-08
 67.42018     82.4 1.261e+04 1.342e-08
 67.42999     81.9 1.255e+04 1.290e-08
 67.44190     81.3 1.305e+04 1.749e-08
 67.46154     80.2 1.352e+04 2.354e-08
 67.48117     78.7 1.391e+04 2.933e-08
 67.50081     76.8 1.415e+04 3.263e-08
 67.52044     74.6 1.408e+04 3.180e-08
 67.54007     72.3 1.363e+04 2.767e-08
 67.55495     69.9 1.284e+04 2.082e-08
 67.56476     70.6 1.375e+04 2.772e-08
 67.57934     66.7 1.349e+04 2.123e-08
 67.59898     61.7 1.369e+04 2.253e-08
 67.61861     57.3 1.389e+04 2.811e-08
 67.63824     54.7 1.362e+04 3.309e-08
 67.65788     54.1 1.324e+04 3.226e-08
 67.67751     53.9 1.271e+04 2.768e-08
 67.69715     53.6 1.213e+04 2.045e-08
 67.71678     52.7 1.150e+04 1.492e-08
 67.72732     52.3 1.096e+04 1.207e-08
 67.73714     53.2 1.137e+04 1.498e-08
 67.75605     52.8 1.116e+04 1.328e-08
 67.77568     52.9 1.109e+04 1.272e-08
 67.79531     53.3 1.111e+04 1.243e-08
 67.80665     53.1 1.113e+04 1.216e-08
 67.81647     52.3 1.111e+04 1.248e-08
 67.83458     52.3 1.120e+04 1.261e-08
 67.85422     51.9 1.140e+04 1.352e-08
 67.87385     51.3 1.187e+04 1.629e-08
 67.89348     50.6 1.251e+04 2.180e-08
 67.91312     50.2 1.301e+04 2.811e-08
 67.93275     50.0 1.310e+04 3.007e-08
 67.95239     49.8 1.291e+04 2.789e-08
 67.97202     49.7 1.240e+04 2.200e-08
 67.99165     49.1 1.193e+04 1.638e-08
 68.01129     48.2 1.140e+04 1.247e-08
 68.03882     47.1 1.110e+04 9.862e-09
 68.05855     45.6 1.023e+04 7.002e-09
 68.08020     44.4 9.902e+03 5.640e-09
 68.11947     43.6 9.944e+03 5.435e-09
 68.15874     42.6 1.002e+04 5.424e-09
 68.18809     42.3 1.003e+04 5.138e-09
 68.20763     42.1 9.988e+03 4.549e-09
 68.22726     41.7 9.974e+03 3.716e-09
 68.24689     40.7 9.978e+03 3.116e-09
 68.26653     39.9 9.907e+03 3.076e-09
 68.28616     39.3 9.901e+03 3.176e-09
 68.30025     38.8 9.977e+03 3.460e-09
 68.31006     39.0 9.931e+03 3.436e-09
 68.32199     38.6 1.005e+04 3.862e-09
 68.33180     39.2 9.933e+03 3.422e-09
 68.34506     38.6 1.027e+04 4.430e-09
 68.36470     38.0 1.059e+04 5.649e-09
 68.38433     37.4 1.096e+04 6.857e-09
 68.40397     36.4 1.138e+04 8.218e-09
 68.42360     35.1 1.177e+04 9.471e-09
 68.44323     33.6 1.219e+04 9.500e-09
 68.46287     31.8 1.250e+04 9.068e-09
 68.48250     30.1 1.277e+04 8.629e-09
 68.50213     28.8 1.277e+04 8.445e-09
 68.52177     27.8 1.260e+04 8.406e-09
 68.54140     26.8 1.250e+04 8.545e-09
 68.55195     25.9 1.238e+04 9.250e-09
 68.56177     25.7 1.252e+04 9.918e-09
 68.58067     25.0 1.240e+04 1.071e-08
 68.60030     24.5 1.223e+04 1.068e-08
 68.61932     24.5 1.175e+04 1.003e-08
 68.62913     24.9 1.198e+04 9.842e-09
 68.63957     24.9 1.151e+04 8.506e-09
 68.65921     24.7 1.108e+04 7.023e-09
 68.67884     24.4 1.072e+04 5.836e-09
 68.69847     23.9 1.054e+04 5.152e-09
 68.71811     23.6 1.037e+04 4.969e-09
 68.73774     23.3 1.036e+04 5.059e-09
 68.75738     22.2 1.039e+04 5.773e-09
 68.77701     20.4 1.081e+04 7.523e-09
 68.79384     18.6 1.124e+04 1.196e-08
 68.80366     17.5 1.122e+04 1.172e-08
 68.81628     16.7 1.176e+04 1.725e-08
 68.83591     16.4 1.175e+04 1.829e-08
 68.85554     16.6 1.149e+04 1.666e-08
 68.87518     16.8 1.095e+04 1.335e-08
 68.89481     16.7 1.041e+04 1.006e-08
 68.91445     16.1 9.882e+03 7.595e-09
 68.92646     15.6 9.471e+03 6.503e-09
 68.93628     16.4 9.491e+03 6.507e-09
 68.95371     16.2 9.362e+03 6.290e-09
 68.97335     15.9 9.550e+03 6.859e-09
 68.99298     14.0 1.076e+04 1.020e-08
 69.01262     10.4 1.278e+04 1.999e-08
 69.02729      9.0 1.362e+04 3.133e-08
 69.03706      9.0 1.388e+04 3.349e-08
 69.04550      8.4 1.514e+04 6.127e-08
 69.05536      9.7 1.371e+04 3.638e-08
 69.07152      9.0 1.420e+04 4.595e-08
 69.09115      8.3 1.406e+04 4.059e-08
 69.11079      7.1 1.320e+04 2.714e-08
 69.13042      4.9 1.191e+04 1.660e-08
 69.15005      2.5 1.072e+04 1.163e-08
 69.16969      1.2 1.010e+04 1.045e-08
 69.18932      1.0 1.022e+04 1.102e-08
 69.20895      1.0 1.081e+04 1.270e-08
 69.22379      1.2 1.174e+04 1.599e-08
 69.23361      3.3 9.683e+03 9.264e-09
 69.24822      3.3 1.066e+04 1.137e-08
 69.26786      2.9 1.179e+04 1.511e-08
 69.28744      2.5 1.285e+04 2.232e-08
 69.30707      2.4 1.294e+04 2.311e-08
 69.32676      1.8 1.372e+04 3.391e-08
 69.34639      1.7 1.425e+04 4.423e-08
 69.36603      1.9 1.449e+04 5.066e-08
 69.38566      2.0 1.459e+04 5.229e-08
 69.40529      1.7 1.459e+04 4.702e-08
 69.42493      1.1 1.420e+04 3.620e-08
 69.44456      0.3 1.348e+04 2.885e-08
 69.46420     -0.1 1.270e+04 2.226e-08
 69.48383     -0.3 1.206e+04 1.658e-08
 69.50346     -0.9 1.165e+04 1.123e-08
 69.52113     -2.2 1.112e+04 7.637e-09
 69.53094     -1.3 1.229e+04 1.214e-08
 69.53914     -3.7 1.136e+04 8.144e-09
 69.54896     -2.1 1.202e+04 1.011e-08
 69.56236     -4.2 1.086e+04 7.151e-09
 69.58200     -4.8 1.089e+04 7.115e-09
 69.60163     -4.8 1.098e+04 7.158e-09
 69.62127     -4.6 1.110e+04 7.343e-09
 69.64090     -4.4 1.148e+04 6.853e-09
 69.66053     -4.7 1.192e+04 5.882e-09
 69.68017     -5.5 1.227e+04 5.554e-09
 69.69980     -5.9 1.243e+04 5.961e-09
 69.71944     -5.9 1.235e+04 6.986e-09
 69.73907     -5.5 1.236e+04 7.778e-09
 69.75870     -5.2 1.238e+04 7.736e-09
 69.77834     -5.0 1.232e+04 7.420e-09
 69.79085     -4.4 1.218e+04 7.419e-09
 69.80066     -3.9 1.206e+04 7.041e-09
 69.81761     -2.9 1.193e+04 7.645e-09
 69.82827     -1.6 1.204e+04 7.925e-09
 69.83809     -1.5 1.193e+04 7.626e-09
 69.85687     -0.4 1.204e+04 7.582e-09
 69.87651      1.0 1.179e+04 9.035e-09
 69.89614      2.5 1.183e+04 9.098e-09
 69.91577      4.1 1.184e+04 8.996e-09
 69.93541      5.6 1.176e+04 9.339e-09
 69.95504      7.3 1.183e+04 8.593e-09
 69.97468      8.7 1.177e+04 8.249e-09
 70.00422     10.4 1.175e+04 7.904e-09
 70.03293     13.5 1.226e+04 9.557e-09
 70.05256     14.1 1.198e+04 9.521e-09
 70.07294     15.9 1.202e+04 1.047e-08
 70.09248     17.3 1.245e+04 1.334e-08
 70.11211     18.1 1.320e+04 1.959e-08
 70.12560     19.5 1.403e+04 3.063e-08
 70.13542     20.0 1.315e+04 1.826e-08
 70.15138     21.3 1.431e+04 3.094e-08
 70.17102     22.6 1.541e+04 5.162e-08
 70.19065     23.8 1.638e+04 8.190e-08
 70.21028     24.9 1.741e+04 1.244e-07
 70.22496     23.1 1.875e+04 2.094e-07
 70.23473     22.2 1.923e+04 3.119e-07
 70.24454     20.0 1.961e+04 5.297e-07
 70.25436     18.1 1.924e+04 8.994e-07
 70.26418     16.9 1.865e+04 1.358e-06
 70.27400     16.4 1.845e+04 1.323e-06
 70.27908     16.6 1.858e+04 9.200e-07
 70.28399     15.8 1.854e+04 1.238e-06
 70.28925     15.4 1.880e+04 8.467e-07
 70.29416     14.6 1.872e+04 8.042e-07
 70.30345     14.3 1.881e+04 5.272e-07
 70.31326     13.9 1.875e+04 3.039e-07
 70.32308     13.5 1.839e+04 1.705e-07
 70.33290     12.6 1.768e+04 9.832e-08
 70.34271     12.0 1.645e+04 5.683e-08
 70.35253     10.9 1.510e+04 4.089e-08
 70.36731     11.0 1.410e+04 3.181e-08
 70.38699     11.9 1.292e+04 2.319e-08
 70.40662     12.8 1.228e+04 1.888e-08
 70.42293     14.5 1.179e+04 1.534e-08
 70.43275     14.0 1.185e+04 1.541e-08
 70.44589     15.8 1.143e+04 1.249e-08
 70.46552     17.3 1.121e+04 9.986e-09
 70.48516     18.3 1.096e+04 8.020e-09
 70.50479     19.3 1.060e+04 6.323e-09
 70.52443     20.3 1.056e+04 5.723e-09
 70.53615     21.6 1.051e+04 5.009e-09
 70.54596     21.6 1.069e+04 6.265e-09
 70.56369     22.2 1.076e+04 6.095e-09
 70.58333     23.4 1.066e+04 5.589e-09
 70.60296     23.7 1.068e+04 5.460e-09
 70.62259     24.7 1.055e+04 4.978e-09
 70.64223     25.3 1.063e+04 4.900e-09
 70.66186     26.2 1.061e+04 4.537e-09
 70.68150     26.4 1.065e+04 4.489e-09
 70.71055     27.5 1.070e+04 3.920e-09
 70.73028     27.5 1.031e+04 3.299e-09
 70.75041     28.6 1.020e+04 2.580e-09
 70.78968     29.7 1.020e+04 2.539e-09
 70.82895     30.6 1.043e+04 2.787e-09
 70.86821     31.3 1.088e+04 3.758e-09
 70.90748     31.8 1.138e+04 4.925e-09
 70.94675     31.7 1.145e+04 5.352e-09
 70.98602     31.6 1.139e+04 5.308e-09
 71.01537     31.3 1.145e+04 5.981e-09
 71.02741     31.3 1.144e+04 6.069e-09
 71.03206     32.2 1.127e+04 5.404e-09
 71.03956     32.1 1.150e+04 6.512e-09
 71.05454     31.9 1.170e+04 7.236e-09
 71.07417     31.9 1.189e+04 8.629e-09
 71.09381     32.3 1.199e+04 1.023e-08
 71.11344     32.1 1.246e+04 1.294e-08
 71.13308     29.7 1.392e+04 2.366e-08
 71.15271     26.4 1.575e+04 6.042e-08
 71.17234     25.1 1.707e+04 1.283e-07
 71.19198     23.9 1.755e+04 1.400e-07
 71.21161     22.3 1.754e+04 1.102e-07
 71.23125     19.6 1.673e+04 7.375e-08
 71.25088     17.3 1.541e+04 5.216e-08
 71.27051     16.5 1.455e+04 3.788e-08
 71.28145     16.3 1.411e+04 3.096e-08
 71.29126     16.4 1.478e+04 3.804e-08
 71.30978     16.8 1.432e+04 3.265e-08
 71.32474     17.4 1.398e+04 2.663e-08
 71.33456     18.3 1.553e+04 4.975e-08
 71.34905     19.1 1.523e+04 4.290e-08
 71.36868     19.8 1.478e+04 3.310e-08
 71.38832     20.4 1.414e+04 2.478e-08
 71.40795     21.4 1.340e+04 1.865e-08
 71.42758     22.5 1.283e+04 1.473e-08
 71.44722     23.7 1.248e+04 1.269e-08
 71.46685     25.0 1.235e+04 1.194e-08
 71.48649     26.4 1.226e+04 1.151e-08
 71.50612     27.9 1.226e+04 1.145e-08
 71.52333     29.3 1.232e+04 1.167e-08
 71.53315     28.9 1.275e+04 1.468e-08
 71.54539     30.2 1.288e+04 1.502e-08
 71.56502     31.5 1.303e+04 1.553e-08
 71.58466     32.8 1.324e+04 1.651e-08
 71.60429     34.0 1.338e+04 1.778e-08
 71.62207     35.3 1.345e+04 1.964e-08
 71.63189     36.2 1.440e+04 3.141e-08
 71.64356     37.6 1.445e+04 3.134e-08
 71.66319     38.9 1.453e+04 3.131e-08
 71.68282     40.2 1.462e+04 3.233e-08
 71.70246     41.6 1.483e+04 3.520e-08
 71.72209     42.8 1.513e+04 3.992e-08
 71.74173     43.9 1.543e+04 4.524e-08
 71.76136     44.9 1.578e+04 5.190e-08
 71.77504     45.2 1.629e+04 6.160e-08
 71.78486     44.9 1.709e+04 6.918e-08
 71.80063     44.7 1.793e+04 9.566e-08
 71.82026     43.7 1.805e+04 1.198e-07
 71.83494     43.5 1.791e+04 1.196e-07
 71.84471     43.1 1.769e+04 1.172e-07
 71.85452     43.2 1.728e+04 1.099e-07
 71.86434     43.3 1.667e+04 9.241e-08
 71.87416     43.5 1.596e+04 6.811e-08
 71.88397     43.3 1.526e+04 4.848e-08
 71.89379     42.0 1.469e+04 3.341e-08
 71.90079     40.4 1.404e+04 2.684e-08
 71.90570     40.1 1.449e+04 2.809e-08
 71.91343     37.9 1.383e+04 2.291e-08
 71.92324     37.1 1.340e+04 2.128e-08
 71.92917     36.8 1.320e+04 2.030e-08
 71.93408     36.7 1.366e+04 2.193e-08
 71.94288     36.5 1.342e+04 2.130e-08
 71.95765     37.6 1.407e+04 2.305e-08
 71.97238     35.6 1.709e+04 1.685e-08
 71.98214     33.6 1.916e+04 1.609e-08
 71.99196     17.7 3.682e+04 1.345e-08
 72.00178      9.4 3.671e+04 3.223e-08
 72.01159      4.9 2.513e+04 3.082e-07
 72.02141      1.8 1.821e+04 2.432e-06
 72.02665     -1.2 1.757e+04 5.377e-06
 72.03156     -1.2 1.760e+04 6.079e-06
 72.04105     -9.9 1.881e+04 3.500e-06
 72.05086    -23.5 2.023e+04 6.016e-07
 72.06068    -35.2 1.860e+04 8.762e-08
 72.07050    -42.4 1.605e+04 2.452e-08
 72.07779    -46.2 1.398e+04 1.703e-08
 72.08270    -44.3 1.381e+04 1.491e-08
 72.09013    -45.7 1.374e+04 1.634e-08
 72.09995    -46.6 1.451e+04 1.931e-08
 72.10976    -48.2 1.577e+04 2.776e-08
 72.11958    -49.9 1.655e+04 3.650e-08
 72.12940    -51.5 1.731e+04 5.679e-08
 72.13922    -52.7 1.772e+04 6.798e-08
 72.14759    -54.5 1.808e+04 9.861e-08
 72.15250    -55.8 1.779e+04 9.470e-08
 72.15885    -56.4 1.786e+04 9.811e-08
 72.16867    -59.0 1.773e+04 1.016e-07
 72.17848    -59.5 1.778e+04 1.007e-07
 72.18830    -62.4 1.712e+04 8.460e-08
 72.19812    -62.7 1.706e+04 8.062e-08
 72.20793    -65.4 1.606e+04 5.358e-08
 72.21775    -66.8 1.565e+04 4.210e-08
 72.22650    -70.0 1.445e+04 2.752e-08
 72.23141    -68.2 1.504e+04 3.451e-08
 72.23738    -68.9 1.474e+04 3.118e-08
 72.25216    -70.9 1.423e+04 2.500e-08
 72.26863    -75.6 1.259e+04 1.569e-08
 72.27845    -75.8 1.226e+04 1.540e-08
 72.29148    -78.7 1.135e+04 1.150e-08
 72.31111    -80.7 1.100e+04 9.890e-09
 72.33074    -82.2 1.082e+04 8.851e-09
 72.35038    -83.5 1.061e+04 7.729e-09
 72.37001    -84.8 1.035e+04 6.610e-09
 72.38964    -85.9 1.010e+04 5.716e-09
 72.40928    -86.7 9.904e+03 5.224e-09
 72.42891    -87.2 9.797e+03 5.004e-09
 72.44855    -87.6 9.777e+03 4.970e-09
 72.46818    -88.4 9.827e+03 5.031e-09
 72.48781    -89.9 1.031e+04 6.458e-09
 72.50745    -91.9 1.156e+04 1.137e-08
 72.52034    -93.3 1.289e+04 2.103e-08
 72.52696    -92.5 1.244e+04 1.768e-08
 72.53370    -93.3 1.295e+04 2.104e-08
 72.54672    -94.4 1.419e+04 3.496e-08
 72.56635    -95.5 1.499e+04 4.749e-08
 72.58598    -96.9 1.540e+04 5.645e-08
 72.60562    -98.4 1.539e+04 5.771e-08
 72.62525    -99.6 1.535e+04 5.682e-08
 72.64489   -101.2 1.475e+04 4.361e-08
 72.66452   -103.1 1.385e+04 2.891e-08
 72.68415   -105.2 1.309e+04 2.105e-08
 72.70379   -107.2 1.291e+04 1.890e-08
 72.72342   -109.5 1.296e+04 1.885e-08
 72.74305   -112.1 1.350e+04 2.203e-08
 72.76223   -114.7 1.386e+04 2.570e-08
 72.77204   -112.9 1.387e+04 2.652e-08
 72.78232   -115.4 1.397e+04 2.753e-08
 72.80196   -117.7 1.366e+04 2.412e-08
 72.82121   -119.7 1.277e+04 1.450e-08
 72.83103   -118.9 1.283e+04 1.501e-08
 72.84122   -120.8 1.162e+04 7.861e-09
 72.86086   -122.1 1.071e+04 4.765e-09
 72.88049   -122.6 1.035e+04 3.710e-09
 72.90013   -122.6 1.021e+04 3.357e-09
 72.91976   -122.3 1.011e+04 3.174e-09
 72.93939   -121.6 1.004e+04 3.084e-09
 72.95903   -120.8 1.002e+04 3.075e-09
 72.97866   -120.0 9.993e+03 3.211e-09
 72.99830   -119.1 1.002e+04 3.444e-09
 73.01393   -118.2 1.009e+04 3.726e-09
 73.02375   -117.2 1.001e+04 3.242e-09
 73.03756   -116.4 1.008e+04 3.457e-09
 73.05720   -115.5 1.017e+04 3.683e-09
 73.07683   -114.7 1.027e+04 3.917e-09
 73.09646   -113.9 1.035e+04 4.162e-09
 73.11610   -113.2 1.038e+04 4.417e-09
 73.12836   -112.5 1.037e+04 4.679e-09
 73.13818   -112.1 1.038e+04 4.507e-09
 73.15537   -111.3 1.037e+04 4.868e-09
 73.17500   -110.6 1.035e+04 5.223e-09
 73.19463   -109.8 1.034e+04 5.550e-09
 73.21427   -108.9 1.032e+04 5.859e-09
 73.23390   -108.0 1.031e+04 6.128e-09
 73.25354   -107.2 1.035e+04 6.332e-09
 73.26564   -106.3 1.038e+04 6.526e-09
 73.27546   -105.4 1.045e+04 6.632e-09
 73.29280   -104.6 1.050e+04 6.739e-09
 73.31244   -103.8 1.054e+04 6.767e-09
 73.33207   -103.0 1.057e+04 6.730e-09
 73.35171   -102.2 1.062e+04 6.651e-09
 73.37134   -101.6 1.068e+04 6.616e-09
 73.39097   -101.3 1.086e+04 6.725e-09
 73.41061   -101.4 1.126e+04 7.616e-09
 73.42569   -101.9 1.188e+04 1.023e-08
 73.43551   -101.5 1.199e+04 9.711e-09
 73.44987   -102.3 1.303e+04 1.589e-08
 73.46951   -103.0 1.385e+04 2.693e-08
 73.48914   -103.3 1.448e+04 3.993e-08
 73.50753   -103.7 1.474e+04 4.675e-08
 73.51734   -101.9 1.432e+04 3.713e-08
 73.52841   -102.4 1.455e+04 4.247e-08
 73.54804   -102.9 1.428e+04 3.692e-08
 73.56768   -103.4 1.372e+04 2.677e-08
 73.58731   -104.1 1.288e+04 1.657e-08
 73.60695   -104.9 1.204e+04 1.072e-08
 73.62658   -105.3 1.151e+04 8.300e-09
 73.64621   -105.3 1.133e+04 7.251e-09
 73.66585   -104.7 1.128e+04 6.371e-09
 73.68548   -104.1 1.123e+04 5.269e-09
 73.70512   -103.6 1.115e+04 4.352e-09
 73.72312   -102.3 1.113e+04 4.047e-09
 73.74285   -103.8 1.097e+04 3.321e-09
 73.77403   -101.8 1.065e+04 2.529e-09
 73.81330    -99.5 1.038e+04 2.025e-09
 73.85256    -97.1 1.026e+04 1.799e-09
 73.89183    -94.7 1.022e+04 1.752e-09
 73.93110    -92.4 1.037e+04 1.852e-09
 73.97037    -90.4 1.070e+04 2.340e-09
 74.00132    -88.5 1.106e+04 3.281e-09
 74.02095    -87.8 1.126e+04 3.775e-09
 74.03027    -86.6 1.137e+04 4.592e-09
 74.03999    -87.3 1.120e+04 4.212e-09
 74.05853    -86.7 1.125e+04 4.601e-09
 74.07816    -85.9 1.140e+04 5.068e-09
 74.09779    -85.3 1.162e+04 5.772e-09
 74.11743    -84.9 1.187e+04 6.916e-09
 74.13706    -84.5 1.218e+04 8.556e-09
 74.15669    -84.2 1.251e+04 1.047e-08
 74.17633    -84.1 1.279e+04 1.215e-08
 74.19596    -84.1 1.301e+04 1.317e-08
 74.21560    -84.3 1.317e+04 1.371e-08
 74.23523    -84.8 1.331e+04 1.423e-08
 74.25283    -85.4 1.348e+04 1.471e-08
 74.26264    -85.2 1.309e+04 1.158e-08
 74.27450    -85.7 1.314e+04 1.111e-08
 74.29413    -86.4 1.298e+04 9.941e-09
 74.31377    -87.1 1.274e+04 8.753e-09
 74.32750    -87.5 1.258e+04 7.755e-09
 74.33732    -88.0 1.231e+04 5.999e-09
 74.35303    -87.9 1.233e+04 5.459e-09
 74.37267    -87.3 1.243e+04 5.215e-09
 74.39230    -86.5 1.253e+04 5.037e-09
 74.41194    -85.4 1.257e+04 4.696e-09
 74.43157    -84.3 1.264e+04 4.193e-09
 74.45120    -83.3 1.271e+04 3.635e-09
 74.48075    -82.2 1.271e+04 3.161e-09
 74.50473    -79.6 1.265e+04 2.770e-09
 74.52436    -79.4 1.251e+04 2.322e-09
 74.55938    -76.8 1.249e+04 1.982e-09
 74.59865    -74.3 1.262e+04 1.781e-09
 74.63792    -71.9 1.275e+04 1.681e-09
 74.67719    -69.7 1.281e+04 1.674e-09
 74.71646    -67.5 1.282e+04 1.694e-09
 74.75572    -65.4 1.288e+04 1.693e-09
 74.79499    -63.2 1.298e+04 1.616e-09
 74.83426    -61.0 1.298e+04 1.523e-09
 74.87353    -58.7 1.290e+04 1.483e-09
 74.91254    -56.3 1.289e+04 1.479e-09
 74.93217    -56.5 1.274e+04 1.425e-09
 74.95206    -54.1 1.274e+04 1.426e-09
 74.98850    -52.1 1.289e+04 1.694e-09
 75.00814    -51.9 1.263e+04 1.807e-09
 75.03060    -50.1 1.275e+04 2.948e-09
 75.06987    -48.2 1.288e+04 4.999e-09
 75.10913    -47.0 1.296e+04 7.173e-09
 75.14840    -46.4 1.295e+04 7.979e-09
 75.18767    -45.8 1.265e+04 7.643e-09
 75.22694    -44.5 1.221e+04 5.488e-09
 75.26620    -43.1 1.197e+04 3.725e-09
 75.30547    -41.5 1.180e+04 3.036e-09
 75.34474    -39.9 1.167e+04 2.882e-09
 75.38401    -38.2 1.150e+04 2.847e-09
 75.42328    -36.4 1.132e+04 2.967e-09
 75.46254    -34.5 1.121e+04 3.081e-09
 75.49192    -32.6 1.103e+04 3.087e-09
 75.51155    -32.9 1.105e+04 2.962e-09
 75.52684    -30.9 1.090e+04 2.916e-09
 75.54647    -31.1 1.089e+04 2.909e-09
 75.57043    -29.6 1.072e+04 3.057e-09
 75.58997    -29.1 1.070e+04 3.237e-09
 75.60960    -28.5 1.068e+04 3.634e-09
 75.62924    -27.9 1.073e+04 4.256e-09
 75.64887    -27.4 1.079e+04 5.108e-09
 75.66850    -26.9 1.088e+04 6.184e-09
 75.68814    -26.4 1.102e+04 7.283e-09
 75.70777    -26.0 1.109e+04 7.803e-09
 75.72741    -25.7 1.103e+04 7.659e-09
 75.74343    -25.5 1.085e+04 6.657e-09
 75.75324    -25.9 1.084e+04 6.960e-09
 75.77659    -25.7 1.049e+04 5.040e-09
 75.81595    -24.6 9.941e+03 2.952e-09
 75.85522    -23.8 9.600e+03 2.053e-09
 75.89449    -22.4 9.387e+03 1.825e-09
 75.93376    -20.6 9.284e+03 1.856e-09
 75.97303    -18.6 9.170e+03 1.931e-09
 75.99533    -16.5 9.074e+03 1.860e-09
 76.01496    -17.8 8.956e+03 1.710e-09
 76.05156    -15.7 8.763e+03 1.304e-09
 76.09083    -13.8 8.586e+03 1.004e-09
 76.12150    -11.8 8.394e+03 8.912e-10
 76.14113    -12.4 8.423e+03 8.765e-10
 76.16936    -10.2 8.377e+03 7.976e-10
 76.20863     -8.0 8.314e+03 7.588e-10
 76.24790     -6.1 8.237e+03 7.652e-10
 76.28717     -3.9 8.072e+03 8.805e-10
 76.32644     -1.4 8.075e+03 9.221e-10
 76.36570      0.9 8.126e+03 8.330e-10
 76.40497      2.7 8.164e+03 7.958e-10
 76.44424      3.9 8.209e+03 9.631e-10
 76.47910      5.3 8.298e+03 1.353e-09
 76.49874      4.1 8.346e+03 1.487e-09
 76.52277      5.2 8.539e+03 2.093e-09
 76.56204      6.0 8.699e+03 2.656e-09
 76.60131      6.4 8.772e+03 2.795e-09
 76.64058      6.3 8.718e+03 2.605e-09
 76.67985      6.2 8.593e+03 2.559e-09
 76.71616      6.5 8.439e+03 2.459e-09
 76.73579      6.1 8.524e+03 2.502e-09
 76.75838      6.6 8.402e+03 2.170e-09
 76.79765      6.7 8.371e+03 2.086e-09
 76.83692      6.6 8.366e+03 2.300e-09
 76.87618      7.0 8.378e+03 2.593e-09
 76.91545      7.5 8.350e+03 2.506e-09
 76.95472      7.6 8.330e+03 2.195e-09
 76.98251      7.6 8.337e+03 2.291e-09
 77.00215      7.2 8.396e+03 2.234e-09
 77.03326      7.5 8.530e+03 2.678e-09
 77.07252      8.0 8.714e+03 2.865e-09
 77.11179      8.1 8.863e+03 2.973e-09
 77.15106      8.1 8.996e+03 3.165e-09
 77.19033      8.2 9.015e+03 3.259e-09
 77.21968      8.5 9.045e+03 3.367e-09
 77.23402      8.5 9.121e+03 3.406e-09
 77.24384      8.2 9.070e+03 3.109e-09
 77.25885      8.2 9.097e+03 3.257e-09
 77.27848      8.0 9.236e+03 3.512e-09
 77.29812      7.7 9.450e+03 3.896e-09
 77.31775      7.3 9.581e+03 4.487e-09
 77.33026      6.9 9.791e+03 5.175e-09
 77.34008      6.5 9.868e+03 5.055e-09
 77.35702      5.5 1.017e+04 6.073e-09
 77.37665      4.6 1.038e+04 7.723e-09
 77.39629      3.8 1.065e+04 8.769e-09
 77.41592      2.7 1.074e+04 8.890e-09
 77.43555      2.2 1.052e+04 8.008e-09
 77.45519      1.6 1.053e+04 5.791e-09
 77.47482      0.2 1.042e+04 4.259e-09
 77.48583     -2.1 1.032e+04 2.907e-09
 77.50556     -1.0 1.020e+04 3.004e-09
 77.54374     -3.1 1.026e+04 2.854e-09
 77.57309     -4.6 1.052e+04 3.742e-09
 77.59263     -6.9 1.127e+04 5.090e-09
 77.61226     -9.6 1.168e+04 7.835e-09
 77.62759    -10.7 1.179e+04 1.242e-08
 77.63741    -10.3 1.149e+04 9.902e-09
 77.65153    -10.6 1.168e+04 1.178e-08
 77.67116    -11.3 1.181e+04 9.943e-09
 77.69080    -13.2 1.176e+04 6.965e-09
 77.71043    -15.2 1.160e+04 6.366e-09
 77.72762    -16.6 1.181e+04 7.064e-09
 77.73744    -16.5 1.167e+04 6.657e-09
 77.74970    -17.2 1.181e+04 9.188e-09
 77.76933    -17.2 1.212e+04 1.177e-08
 77.78896    -16.9 1.238e+04 1.288e-08
 77.80860    -17.1 1.250e+04 1.204e-08
 77.82823    -17.6 1.250e+04 9.972e-09
 77.84787    -18.2 1.239e+04 9.217e-09
 77.86750    -18.5 1.234e+04 9.287e-09
 77.88713    -18.6 1.238e+04 1.016e-08
 77.90677    -18.4 1.248e+04 1.033e-08
 77.92492    -18.4 1.249e+04 1.022e-08
 77.93474    -19.0 1.244e+04 8.271e-09
 77.94604    -19.1 1.237e+04 7.496e-09
 77.96567    -19.0 1.210e+04 6.320e-09
 77.97932    -18.8 1.184e+04 5.731e-09
 77.98914    -19.6 1.161e+04 5.125e-09
 78.00494    -19.2 1.145e+04 4.753e-09
 78.02457    -19.2 1.145e+04 4.725e-09
 78.04421    -19.1 1.160e+04 5.199e-09
 78.06384    -19.3 1.154e+04 6.251e-09
 78.08347    -18.9 1.170e+04 7.708e-09
 78.10311    -18.7 1.195e+04 8.961e-09
 78.12274    -18.8 1.214e+04 9.951e-09
 78.14237    -19.4 1.230e+04 1.101e-08
 78.16201    -19.8 1.245e+04 1.193e-08
 78.18164    -20.3 1.257e+04 1.215e-08
 78.20128    -20.9 1.268e+04 1.057e-08
 78.22091    -22.0 1.261e+04 7.906e-09
 78.23103    -23.1 1.219e+04 6.348e-09
 78.23237    -22.5 1.210e+04 6.128e-09
 78.24188    -23.0 1.197e+04 5.768e-09
 78.26018    -23.3 1.174e+04 4.831e-09
 78.27981    -23.4 1.159e+04 4.078e-09
 78.29945    -23.5 1.146e+04 3.486e-09
 78.31908    -23.6 1.137e+04 3.172e-09
 78.33871    -23.7 1.138e+04 3.119e-09
 78.35835    -24.1 1.154e+04 3.213e-09
 78.37798    -24.9 1.169e+04 4.057e-09
 78.39762    -25.5 1.177e+04 5.669e-09
 78.41725    -25.5 1.199e+04 7.577e-09
 78.43688    -25.4 1.229e+04 8.759e-09
 78.45652    -26.0 1.260e+04 8.506e-09
 78.47292    -27.4 1.252e+04 7.618e-09
 78.48273    -26.0 1.245e+04 7.668e-09
 78.49578    -27.5 1.236e+04 7.217e-09
 78.51542    -28.5 1.238e+04 7.276e-09
 78.52940    -29.3 1.254e+04 7.486e-09
 78.53921    -29.3 1.255e+04 7.292e-09
 78.55469    -30.3 1.253e+04 7.176e-09
 78.57432    -30.9 1.267e+04 7.617e-09
 78.59395    -31.7 1.263e+04 8.064e-09
 78.61359    -32.0 1.274e+04 8.805e-09
 78.63322    -32.3 1.282e+04 9.305e-09
 78.65286    -32.7 1.287e+04 9.496e-09
 78.67249    -33.0 1.284e+04 9.322e-09
 78.69212    -33.0 1.280e+04 8.060e-09
 78.71176    -32.9 1.258e+04 6.205e-09
 78.72462    -32.5 1.240e+04 4.385e-09
 78.73444    -31.5 1.223e+04 3.653e-09
 78.75103    -31.3 1.226e+04 2.570e-09
 78.77066    -31.3 1.231e+04 2.329e-09
 78.80021    -31.6 1.224e+04 1.913e-09
 78.83957    -30.2 1.223e+04 1.757e-09
 78.86893    -27.8 1.229e+04 1.708e-09
 78.88846    -27.7 1.235e+04 1.765e-09
 78.90810    -26.6 1.266e+04 2.188e-09
 78.92773    -27.0 1.297e+04 2.898e-09
 78.94736    -27.1 1.337e+04 5.550e-09
 78.96651    -27.6 1.379e+04 1.200e-08
 78.97633    -25.6 1.338e+04 5.921e-09
 78.98663    -26.0 1.391e+04 1.406e-08
 79.00627    -25.9 1.457e+04 3.170e-08
 79.02590    -25.3 1.540e+04 5.436e-08
 79.04553    -25.0 1.581e+04 6.205e-08
 79.06517    -25.4 1.576e+04 5.390e-08
 79.08480    -26.2 1.547e+04 3.654e-08
 79.10444    -27.3 1.497e+04 2.332e-08
 79.12406    -28.1 1.438e+04 1.706e-08
 79.14369    -29.1 1.402e+04 1.390e-08
 79.16334    -29.2 1.373e+04 1.027e-08
 79.18297    -29.3 1.355e+04 7.110e-09
 79.20260    -29.8 1.327e+04 5.373e-09
 79.21822    -30.2 1.294e+04 5.168e-09
 79.22803    -28.5 1.368e+04 6.583e-09
 79.24187    -29.1 1.315e+04 6.544e-09
 79.26151    -29.4 1.306e+04 8.375e-09
 79.28114    -29.4 1.327e+04 1.059e-08
 79.30077    -29.4 1.346e+04 1.250e-08
 79.32041    -29.5 1.352e+04 1.328e-08
 79.34004    -29.5 1.334e+04 1.234e-08
 79.35968    -29.3 1.313e+04 9.588e-09
 79.37931    -29.2 1.292e+04 7.075e-09
 79.39894    -29.0 1.269e+04 5.378e-09
 79.41858    -28.7 1.251e+04 4.437e-09
 79.43121    -28.1 1.241e+04 4.061e-09
 79.44102    -28.4 1.243e+04 3.791e-09
 79.45785    -27.6 1.239e+04 4.020e-09
 79.46992    -26.9 1.235e+04 4.101e-09
 79.47974    -26.6 1.244e+04 4.054e-09
 79.49711    -25.6 1.250e+04 4.172e-09
 79.51675    -25.0 1.240e+04 4.209e-09
 79.53638    -23.9 1.250e+04 4.589e-09
 79.55601    -23.1 1.252e+04 5.135e-09
 79.57565    -22.1 1.265e+04 6.049e-09
 79.59528    -21.3 1.262e+04 7.060e-09
 79.61492    -20.3 1.273e+04 8.603e-09
 79.63455    -19.8 1.284e+04 9.850e-09
 79.65418    -19.2 1.290e+04 1.111e-08
 79.67382    -18.8 1.287e+04 1.180e-08
 79.69345    -18.4 1.284e+04 1.218e-08
 79.71181    -18.2 1.275e+04 1.181e-08
 79.72163    -17.3 1.266e+04 1.178e-08
 79.72854    -16.9 1.264e+04 1.223e-08
 79.73835    -17.2 1.264e+04 1.225e-08
 79.75235    -16.9 1.258e+04 1.233e-08
 79.77199    -16.5 1.251e+04 1.180e-08
 79.79162    -16.1 1.247e+04 1.051e-08
 79.81126    -16.1 1.222e+04 8.801e-09
 79.83089    -16.0 1.211e+04 7.823e-09
 79.85052    -16.2 1.180e+04 7.134e-09
 79.87016    -15.7 1.171e+04 7.205e-09
 79.88979    -15.3 1.166e+04 7.538e-09
 79.90942    -15.4 1.205e+04 8.479e-09
 79.92906    -16.4 1.272e+04 1.174e-08
 79.94869    -17.3 1.334e+04 1.983e-08
 79.96352    -17.5 1.389e+04 3.303e-08
 79.97333    -16.7 1.310e+04 1.703e-08
 79.98796    -16.9 1.369e+04 2.945e-08
 80.00759    -16.5 1.444e+04 4.395e-08
 80.02587    -16.9 1.525e+04 5.430e-08
 80.03569    -17.7 1.567e+04 6.713e-08
 80.04686    -19.2 1.558e+04 5.839e-08
 80.06650    -21.1 1.515e+04 4.969e-08
 80.08613    -22.4 1.449e+04 4.113e-08
 80.10576    -23.3 1.381e+04 3.181e-08
 80.12540    -24.0 1.305e+04 2.200e-08
 80.14503    -24.6 1.218e+04 1.461e-08
 80.16467    -25.0 1.143e+04 1.029e-08
 80.18430    -25.2 1.077e+04 7.607e-09
 80.21385    -24.5 1.045e+04 6.103e-09
 80.25321    -23.4 9.425e+03 3.696e-09
 80.29248    -21.9 9.056e+03 3.039e-09
 80.32339    -20.0 8.947e+03 2.925e-09
 80.34303    -19.9 9.143e+03 3.810e-09
 80.37102    -17.8 9.141e+03 4.029e-09
 80.41028    -15.8 9.095e+03 4.086e-09
 80.44749    -14.0 9.044e+03 3.955e-09
 80.46712    -13.1 9.121e+03 3.888e-09
 80.48882    -11.6 9.057e+03 3.792e-09
 80.52809    -10.3 9.080e+03 3.868e-09
 80.56736     -9.3 9.371e+03 4.920e-09
 80.60662     -8.4 9.837e+03 6.905e-09
 80.64589     -7.5 1.019e+04 8.389e-09
 80.67524     -7.3 1.019e+04 8.905e-09
 80.69478     -6.5 1.002e+04 7.762e-09
 80.70882     -6.2 9.749e+03 6.291e-09
 80.71863     -6.0 9.504e+03 4.937e-09
 80.73405     -5.8 9.405e+03 4.172e-09
 80.75368     -6.2 9.161e+03 3.079e-09
 80.77332     -6.2 9.092e+03 2.880e-09
 80.79295     -6.6 8.888e+03 2.575e-09
 80.81258     -6.7 8.886e+03 2.671e-09
 80.83222     -6.8 8.945e+03 3.254e-09
 80.85185     -7.0 8.990e+03 3.438e-09
 80.87149     -7.5 9.145e+03 4.101e-09
 80.89112     -7.9 9.300e+03 4.628e-09
 80.91075     -8.5 9.456e+03 5.709e-09
 80.92768     -8.5 9.561e+03 6.338e-09
 80.93749     -9.0 9.070e+03 4.690e-09
 80.95002     -9.3 9.053e+03 4.626e-09
 80.96052     -9.6 9.098e+03 4.484e-09
 80.97044     -9.7 8.624e+03 3.214e-09
 80.99930    -11.7 8.664e+03 2.889e-09
 81.02865    -14.7 8.952e+03 3.751e-09
 81.04819    -15.4 9.208e+03 5.109e-09
 81.06782    -15.6 9.512e+03 6.383e-09
 81.08746    -15.7 9.723e+03 6.942e-09
 81.10709    -16.4 9.804e+03 7.073e-09
 81.12673    -17.2 9.887e+03 7.029e-09
 81.14636    -18.4 1.002e+04 7.241e-09
 81.16599    -19.8 1.018e+04 7.884e-09
 81.18563    -21.1 1.036e+04 8.968e-09
 81.20241    -22.4 1.055e+04 1.029e-08
 81.21223    -21.7 1.078e+04 1.177e-08
 81.22490    -23.0 1.107e+04 1.315e-08
 81.23482    -24.6 1.129e+04 1.402e-08
 81.24464    -24.9 1.113e+04 1.335e-08
 81.26416    -26.7 1.118e+04 1.331e-08
 81.28380    -28.6 1.109e+04 1.253e-08
 81.30343    -30.3 1.088e+04 1.091e-08
 81.32306    -32.0 1.061e+04 8.814e-09
 81.34270    -33.7 1.031e+04 7.028e-09
 81.36233    -35.2 1.013e+04 5.987e-09
 81.38197    -36.2 1.001e+04 5.630e-09
 81.40160    -36.5 9.937e+03 5.493e-09
 81.42123    -36.6 9.880e+03 5.265e-09
 81.44087    -36.4 9.856e+03 4.872e-09
 81.45412    -36.3 9.914e+03 4.419e-09
 81.46393    -35.9 9.954e+03 4.773e-09
 81.48014    -35.9 1.012e+04 5.007e-09
 81.49977    -36.0 1.038e+04 5.527e-09
 81.51940    -36.1 1.067e+04 6.420e-09
 81.53216    -36.1 1.093e+04 7.739e-09
 81.54197    -36.3 1.136e+04 1.138e-08
 81.55867    -36.0 1.162e+04 1.320e-08
 81.57831    -35.7 1.188e+04 1.498e-08
 81.59794    -35.4 1.212e+04 1.663e-08
 81.61757    -35.3 1.237e+04 1.801e-08
 81.63721    -35.5 1.275e+04 1.954e-08
 81.65684    -36.9 1.348e+04 2.381e-08
 81.67647    -39.0 1.446e+04 3.585e-08
 81.69600    -40.5 1.554e+04 6.292e-08
 81.70582    -39.4 1.455e+04 3.862e-08
 81.71574    -40.3 1.540e+04 5.827e-08
 81.73538    -40.7 1.621e+04 8.423e-08
 81.75501    -41.0 1.672e+04 1.035e-07
 81.77464    -41.1 1.687e+04 1.081e-07
 81.79428    -41.1 1.675e+04 9.364e-08
 81.81391    -41.3 1.657e+04 7.946e-08
 81.82949    -41.6 1.659e+04 7.569e-08
 81.83930    -42.3 1.604e+04 4.904e-08
 81.85318    -47.0 1.892e+04 5.983e-08
 81.86786    -53.8 2.015e+04 1.347e-07
 81.87762    -58.4 2.023e+04 3.571e-07
 81.88744    -63.6 1.969e+04 9.811e-07
 81.89726    -69.9 1.910e+04 1.868e-06
 81.90708    -76.9 1.880e+04 2.134e-06
 81.91689    -82.3 1.852e+04 1.637e-06
 81.92671    -86.0 1.875e+04 7.167e-07
 81.93653    -88.8 1.844e+04 3.000e-07
 81.94634    -90.9 1.765e+04 1.517e-07
 81.95252    -92.5 1.688e+04 9.129e-08
 81.95743    -91.7 1.739e+04 1.330e-07
 81.96598    -92.7 1.659e+04 8.526e-08
 81.97579    -93.4 1.592e+04 5.870e-08
 81.99057    -93.9 1.518e+04 4.146e-08
 82.01025    -94.4 1.402e+04 2.191e-08
 82.02988    -95.2 1.276e+04 1.124e-08
 82.04952    -95.5 1.212e+04 7.747e-09
 82.06915    -95.2 1.178e+04 6.424e-09
 82.08879    -94.4 1.153e+04 5.518e-09
 82.10842    -93.6 1.136e+04 4.835e-09
 82.12682    -92.9 1.118e+04 4.347e-09
 82.13663    -92.1 1.129e+04 4.685e-09
 82.14769    -91.4 1.108e+04 4.189e-09
 82.16732    -90.7 1.097e+04 3.916e-09
 82.18696    -89.9 1.096e+04 3.855e-09
 82.19942    -89.2 1.107e+04 3.874e-09
 82.20923    -89.3 1.102e+04 3.854e-09
 82.22622    -88.8 1.127e+04 4.022e-09
 82.24586    -88.4 1.140e+04 4.194e-09
 82.26549    -88.3 1.136e+04 4.171e-09
 82.28513    -87.9 1.130e+04 4.262e-09
 82.30476    -87.7 1.118e+04 4.443e-09
 82.32439    -87.5 1.128e+04 4.918e-09
 82.34403    -87.9 1.151e+04 5.464e-09
 82.36366    -89.8 1.240e+04 8.043e-09
 82.38329    -91.9 1.378e+04 1.972e-08
 82.40293    -93.1 1.508e+04 4.661e-08
 82.42256    -93.9 1.611e+04 8.110e-08
 82.43396    -95.4 1.664e+04 1.026e-07
 82.44289    -94.1 1.682e+04 1.049e-07
 82.45112    -93.9 1.750e+04 1.484e-07
 82.46183    -96.3 1.789e+04 1.722e-07
 82.48146    -99.2 1.749e+04 1.533e-07
 82.50110   -102.1 1.605e+04 7.564e-08
 82.52073   -105.7 1.495e+04 4.158e-08
 82.54037   -109.6 1.477e+04 3.696e-08
 82.56000   -113.3 1.569e+04 4.785e-08
 82.57963   -116.6 1.667e+04 7.950e-08
 82.59927   -120.0 1.703e+04 9.976e-08
 82.61890   -123.3 1.695e+04 1.027e-07
 82.63854   -125.3 1.606e+04 8.473e-08
 82.65817   -126.6 1.473e+04 5.373e-08
 82.67780   -127.4 1.340e+04 3.183e-08
 82.69301   -127.9 1.237e+04 1.971e-08
 82.70283   -128.0 1.260e+04 2.244e-08
 82.71707   -128.3 1.193e+04 1.578e-08
 82.73129   -128.3 1.144e+04 1.158e-08
 82.74111   -128.5 1.158e+04 1.203e-08
 82.75634   -128.6 1.115e+04 8.919e-09
 82.77597   -128.4 1.079e+04 6.856e-09
 82.79561   -128.1 1.049e+04 5.432e-09
 82.81524   -127.8 1.022e+04 4.436e-09
 82.83487   -127.5 9.994e+03 3.747e-09
 82.85451   -127.1 9.820e+03 3.321e-09
 82.87414   -126.7 9.708e+03 3.088e-09
 82.89378   -126.3 9.637e+03 2.979e-09
 82.91341   -125.9 9.607e+03 2.953e-09
 82.93304   -125.5 9.597e+03 2.960e-09
 82.94471   -125.1 9.600e+03 3.136e-09
 82.95453   -125.6 9.554e+03 3.082e-09
 82.97231   -125.2 9.575e+03 3.290e-09
 82.99195   -124.7 9.582e+03 3.471e-09
 83.01158   -124.2 9.586e+03 3.599e-09
 83.02863   -123.8 9.617e+03 3.703e-09
 83.03844   -124.0 9.592e+03 3.659e-09
 83.05085   -123.6 9.632e+03 3.736e-09
 83.07048   -123.4 9.693e+03 3.927e-09
 83.09011   -123.2 9.775e+03 4.307e-09
 83.10975   -123.1 9.873e+03 4.873e-09
 83.12938   -122.9 9.996e+03 5.586e-09
 83.14902   -122.6 1.015e+04 6.367e-09
 83.16865   -122.3 1.031e+04 7.123e-09
 83.18660   -122.1 1.044e+04 7.707e-09
 83.19642   -122.0 1.025e+04 7.507e-09
 83.20792   -121.8 1.037e+04 7.946e-09
 83.22755   -121.8 1.040e+04 8.075e-09
 83.24719   -121.7 1.040e+04 8.058e-09
 83.26682   -121.6 1.033e+04 7.680e-09
 83.28645   -121.3 1.023e+04 7.108e-09
 83.30609   -121.1 1.015e+04 6.525e-09
 83.32572   -120.9 1.007e+04 5.980e-09
 83.33577   -120.7 9.999e+03 5.528e-09
 83.34559   -120.7 1.010e+04 6.166e-09
 83.36499   -120.4 1.004e+04 5.812e-09
 83.38462   -119.9 1.002e+04 5.643e-09
 83.40426   -119.4 1.004e+04 5.557e-09
 83.42389   -118.9 1.006e+04 5.542e-09
 83.43831   -118.6 1.013e+04 5.768e-09
 83.44813   -118.9 1.027e+04 5.931e-09
 83.46316   -118.6 1.032e+04 6.127e-09
 83.48279   -118.2 1.038e+04 6.481e-09
 83.51234   -117.8 1.046e+04 6.947e-09
 83.55171   -116.9 1.034e+04 6.610e-09
 83.59097   -115.2 1.020e+04 5.798e-09
 83.63024   -113.0 1.002e+04 4.602e-09
 83.66951   -110.7 9.840e+03 3.512e-09
 83.70878   -108.4 9.770e+03 2.855e-09
 83.74805   -105.9 9.777e+03 2.645e-09
 83.78731   -103.1 9.810e+03 2.650e-09
 83.82658   -100.6 9.829e+03 2.711e-09
 83.86585    -98.4 9.796e+03 2.931e-09
 83.90512    -96.4 9.722e+03 3.191e-09
 83.93053    -94.9 9.725e+03 3.749e-09
 83.93778    -94.8 9.892e+03 4.304e-09
 83.94172    -94.4 1.032e+04 5.570e-09
 83.95401    -93.4 1.040e+04 6.095e-09
 83.98355    -92.0 1.052e+04 6.921e-09
 84.02292    -89.6 1.056e+04 7.926e-09
 84.06219    -87.8 1.048e+04 8.166e-09
 84.10146    -85.6 1.045e+04 8.391e-09
 84.13081    -84.1 1.017e+04 7.369e-09
 84.15034    -83.9 1.010e+04 7.310e-09
 84.16998    -83.1 9.798e+03 6.830e-09
 84.18361    -82.2 9.549e+03 6.233e-09
 84.19343    -81.7 9.821e+03 6.947e-09
 84.20925    -80.8 9.507e+03 6.145e-09
 84.22777    -80.1 9.247e+03 5.322e-09
 84.23758    -80.0 9.644e+03 7.241e-09
 84.24851    -79.2 9.414e+03 6.270e-09
 84.26815    -78.5 9.294e+03 5.408e-09
 84.28778    -78.0 9.200e+03 4.752e-09
 84.30742    -77.7 9.131e+03 4.392e-09
 84.32705    -77.5 9.107e+03 4.310e-09
 84.34668    -77.4 9.111e+03 4.380e-09
 84.36632    -77.4 9.177e+03 4.883e-09
 84.38595    -77.4 9.275e+03 5.598e-09
 84.40559    -77.4 9.335e+03 6.236e-09
 84.42522    -77.2 9.321e+03 6.574e-09
 84.43531    -76.9 9.298e+03 6.641e-09
 84.44513    -76.8 9.339e+03 7.920e-09
 84.46449    -76.2 9.139e+03 7.223e-09
 84.48412    -75.5 8.947e+03 6.351e-09
 84.50375    -74.9 8.787e+03 5.608e-09
 84.52339    -74.4 8.659e+03 5.089e-09
 84.53491    -73.9 8.547e+03 4.704e-09
 84.54473    -73.9 8.661e+03 5.105e-09
 84.56266    -73.3 8.582e+03 4.881e-09
 84.58229    -72.8 8.504e+03 4.704e-09
 84.60192    -72.2 8.425e+03 4.569e-09
 84.62156    -71.6 8.380e+03 4.530e-09
 84.64119    -71.1 8.360e+03 4.549e-09
 84.66083    -70.6 8.362e+03 4.613e-09
 84.67720    -70.1 8.384e+03 4.724e-09
 84.68702    -70.1 8.822e+03 5.583e-09
 84.70009    -69.8 8.989e+03 6.010e-09
 84.71973    -69.4 9.140e+03 6.370e-09
 84.73936    -69.2 9.256e+03 6.628e-09
 84.75900    -69.0 9.334e+03 6.840e-09
 84.77863    -68.8 9.396e+03 7.143e-09
 84.79826    -68.7 9.449e+03 7.624e-09
 84.81790    -68.4 9.497e+03 8.285e-09
 84.83224    -67.8 9.570e+03 9.098e-09
 84.84206    -68.5 9.821e+03 1.097e-08
 84.85717    -67.7 9.927e+03 1.177e-08
 84.87680    -66.9 1.006e+04 1.232e-08
 84.89643    -66.2 1.015e+04 1.253e-08
 84.91607    -65.4 1.025e+04 1.222e-08
 84.92891    -64.7 1.025e+04 1.176e-08
 84.93872    -65.2 1.023e+04 1.117e-08
 84.95533    -64.6 1.012e+04 1.026e-08
 84.97497    -63.9 1.003e+04 9.608e-09
 84.99460    -63.2 9.997e+03 9.338e-09
 85.01424    -62.9 1.006e+04 9.312e-09
 85.03387    -63.1 1.034e+04 1.032e-08
 85.05350    -63.5 1.116e+04 1.436e-08
 85.07314    -63.9 1.229e+04 2.354e-08
 85.09277    -63.7 1.354e+04 4.010e-08
 85.11241    -63.0 1.474e+04 6.640e-08
 85.12957    -62.2 1.569e+04 9.726e-08
 85.13939    -62.8 1.662e+04 1.283e-07
 85.15167    -62.8 1.684e+04 1.351e-07
 85.17080    -62.8 1.669e+04 1.254e-07
 85.18061    -62.6 1.527e+04 6.614e-08
 85.19094    -62.1 1.480e+04 5.192e-08
 85.21058    -61.7 1.440e+04 3.996e-08
 85.23021    -61.3 1.403e+04 3.128e-08
 85.24984    -60.7 1.368e+04 2.572e-08
 85.26948    -60.0 1.336e+04 2.233e-08
 85.28911    -59.0 1.303e+04 2.014e-08
 85.30874    -57.7 1.280e+04 1.889e-08
 85.32838    -56.4 1.266e+04 1.824e-08
 85.34801    -55.0 1.254e+04 1.780e-08
 85.36765    -53.6 1.241e+04 1.730e-08
 85.38728    -51.9 1.234e+04 1.747e-08
 85.40691    -50.6 1.217e+04 1.587e-08
 85.42260    -49.1 1.177e+04 1.278e-08
 85.44233    -48.2 1.147e+04 1.071e-08
 85.47583    -45.4 1.148e+04 1.091e-08
 85.51510    -42.7 1.147e+04 1.076e-08
 85.55436    -40.3 1.152e+04 1.094e-08
 85.59363    -38.0 1.167e+04 1.182e-08
 85.63290    -35.9 1.181e+04 1.286e-08
 85.67217    -34.1 1.180e+04 1.301e-08
 85.71143    -32.3 1.141e+04 1.060e-08
 85.73425    -30.6 1.072e+04 6.706e-09
 85.75388    -31.5 9.890e+03 3.811e-09
 85.78997    -29.8 9.254e+03 1.885e-09
 85.82924    -28.1 8.680e+03 9.923e-10
 85.86851    -26.0 8.443e+03 8.568e-10
 85.90647    -23.4 8.372e+03 8.401e-10
 85.92611    -23.6 8.709e+03 1.084e-09
 85.94704    -21.0 8.619e+03 1.198e-09
 85.98631    -18.3 8.555e+03 1.358e-09
 86.02558    -15.6 8.542e+03 1.416e-09
 86.06484    -13.0 8.408e+03 1.409e-09
 86.10411    -10.3 8.297e+03 1.326e-09
 86.14338     -7.8 8.151e+03 1.255e-09
 86.18265     -5.2 8.049e+03 1.227e-09
 86.22192     -2.3 7.954e+03 1.313e-09
 86.26118      0.5 7.931e+03 1.490e-09
 86.30045      3.3 7.919e+03 1.743e-09
 86.32891      6.4 7.916e+03 1.915e-09
 86.34854      7.0 7.973e+03 2.030e-09
 86.37899     10.1 7.847e+03 1.922e-09
 86.40989     13.4 7.651e+03 1.542e-09
 86.42952     13.6 7.944e+03 1.944e-09
 86.45752     16.7 7.807e+03 1.594e-09
 86.49679     19.6 7.719e+03 1.387e-09
 86.53606     22.8 7.689e+03 1.323e-09
 86.57533     26.1 7.675e+03 1.316e-09
 86.61459     29.4 7.732e+03 1.358e-09
 86.65386     32.3 7.895e+03 1.527e-09
 86.69313     35.4 8.008e+03 1.721e-09
 86.73240     38.6 8.209e+03 1.972e-09
 86.76175     40.1 8.157e+03 2.035e-09
 86.78129     41.1 8.141e+03 2.109e-09
 86.80092     41.9 8.149e+03 2.339e-09
 86.82055     42.7 8.288e+03 2.826e-09
 86.84019     43.5 8.564e+03 3.626e-09
 86.85982     43.7 9.488e+03 5.413e-09
 86.87946     43.5 1.101e+04 9.595e-09
 86.89909     43.4 1.229e+04 1.722e-08
 86.91310     43.5 1.327e+04 2.846e-08
 86.92292     42.6 1.449e+04 5.206e-08
 86.93319     42.9 1.524e+04 6.862e-08
 86.94301     43.7 1.366e+04 3.435e-08
 86.95799     43.5 1.455e+04 4.688e-08
 86.97763     43.0 1.516e+04 6.179e-08
 86.99726     43.0 1.540e+04 7.685e-08
 87.01689     43.5 1.539e+04 8.418e-08
 87.03653     44.1 1.510e+04 7.175e-08
 87.05616     44.4 1.460e+04 5.267e-08
 87.07579     43.8 1.393e+04 3.701e-08
 87.09543     42.6 1.300e+04 2.640e-08
 87.11506     41.9 1.205e+04 1.972e-08
 87.13470     42.0 1.134e+04 1.544e-08
 87.15433     42.4 1.073e+04 1.203e-08
 87.16481     43.1 1.018e+04 9.056e-09
 87.17462     43.3 1.001e+04 7.681e-09
 87.19360     43.6 9.570e+03 5.547e-09
 87.21323     43.8 9.201e+03 4.269e-09
 87.23052     43.9 8.904e+03 3.592e-09
 87.24034     43.3 8.770e+03 3.516e-09
 87.25250     43.5 8.507e+03 3.048e-09
 87.28205     44.0 8.450e+03 2.672e-09
 87.32141     44.1 8.504e+03 2.529e-09
 87.35077     43.5 8.579e+03 2.611e-09
 87.37030     42.2 9.116e+03 3.748e-09
 87.38994     40.3 1.017e+04 7.403e-09
 87.40670     38.7 1.151e+04 1.579e-08
 87.41651     38.6 1.172e+04 1.763e-08
 87.42920     38.5 1.269e+04 2.746e-08
 87.44884     38.0 1.284e+04 2.742e-08
 87.46847     36.6 1.288e+04 2.386e-08
 87.48811     33.0 1.287e+04 1.994e-08
 87.50774     29.0 1.280e+04 2.001e-08
 87.52737     26.2 1.266e+04 2.191e-08
 87.53767     24.9 1.259e+04 2.378e-08
 87.54749     24.1 1.289e+04 2.797e-08
 87.56664     23.1 1.284e+04 2.557e-08
 87.58628     21.4 1.267e+04 2.224e-08
 87.60591     19.6 1.249e+04 2.036e-08
 87.62554     18.3 1.232e+04 1.936e-08
 87.64518     17.5 1.218e+04 1.807e-08
 87.65840     17.0 1.192e+04 1.642e-08
 87.66822     18.5 1.202e+04 1.742e-08
 87.68445     18.4 1.163e+04 1.516e-08
 87.70408     17.9 1.136e+04 1.301e-08
 87.72371     17.7 1.090e+04 1.057e-08
 87.74335     17.6 1.061e+04 8.331e-09
 87.76298     17.1 1.054e+04 6.956e-09
 87.78261     16.8 1.043e+04 6.832e-09
 87.80225     17.0 1.028e+04 7.165e-09
 87.82188     17.6 1.018e+04 7.242e-09
 87.83500     17.9 1.033e+04 6.973e-09
 87.84482     17.1 1.020e+04 6.494e-09
 87.86115     16.7 1.018e+04 5.909e-09
 87.88078     15.9 1.018e+04 5.966e-09
 87.90029     14.6 1.027e+04 6.905e-09
 87.91011     15.5 1.037e+04 7.504e-09
 87.92005     14.3 1.058e+04 8.672e-09
 87.93969     13.7 1.059e+04 1.059e-08
 87.95932     13.7 1.076e+04 1.211e-08
 87.97895     13.4 1.111e+04 1.297e-08
 87.99859     12.1 1.206e+04 1.550e-08
 88.01822     10.4 1.302e+04 2.162e-08
 88.03786      8.5 1.393e+04 3.271e-08
 88.05749      6.9 1.445e+04 4.731e-08
 88.07712      6.9 1.521e+04 7.015e-08
 88.09676      5.6 1.690e+04 9.060e-08
 88.11639      0.7 1.891e+04 1.137e-07
 88.13233     -5.6 1.861e+04 1.513e-07
 88.14215     -9.2 1.832e+04 1.520e-07
 88.15199    -11.5 1.782e+04 1.625e-07
 88.16176    -10.8 1.791e+04 2.132e-07
 88.17524    -12.8 1.751e+04 1.145e-07
 88.19493    -16.0 1.629e+04 4.857e-08
 88.21456    -19.5 1.365e+04 2.076e-08
 88.23419    -21.5 1.150e+04 1.318e-08
 88.25383    -21.6 1.125e+04 1.117e-08
 88.27346    -21.5 1.101e+04 9.684e-09
 88.30301    -21.4 1.067e+04 7.455e-09
 88.34238    -20.2 9.755e+03 3.897e-09
 88.38164    -19.1 9.111e+03 2.484e-09
 88.40390    -18.0 8.947e+03 2.138e-09
 88.42353    -19.6 8.692e+03 1.967e-09
 88.46018    -18.2 8.715e+03 2.017e-09
 88.49945    -17.0 8.986e+03 2.298e-09
 88.53871    -15.8 9.415e+03 2.703e-09
 88.57798    -15.0 9.795e+03 3.071e-09
 88.61725    -16.1 1.047e+04 3.597e-09
 88.64569    -17.6 1.028e+04 3.186e-09
 88.65541    -20.7 1.188e+04 6.297e-09
 88.66614    -21.4 1.217e+04 8.179e-09
 88.68577    -22.0 1.267e+04 1.225e-08
 88.70541    -22.5 1.319e+04 1.864e-08
 88.72504    -22.7 1.368e+04 2.587e-08
 88.73681    -22.5 1.394e+04 3.098e-08
 88.74663    -22.9 1.340e+04 2.659e-08
 88.76431    -22.8 1.333e+04 2.519e-08
 88.78394    -23.1 1.303e+04 2.042e-08
 88.80358    -24.2 1.260e+04 1.684e-08
 88.82321    -25.2 1.231e+04 1.585e-08
 88.84284    -25.8 1.225e+04 1.612e-08
 88.86248    -26.1 1.229e+04 1.788e-08
 88.88211    -26.2 1.233e+04 1.951e-08
 88.89729    -26.2 1.228e+04 1.980e-08
 88.90711    -26.0 1.236e+04 2.110e-08
 88.92138    -26.0 1.210e+04 1.905e-08
 88.94101    -25.8 1.182e+04 1.706e-08
 88.97056    -25.4 1.141e+04 1.426e-08
 89.00993    -25.1 1.038e+04 8.897e-09
 89.04920    -24.7 9.455e+03 5.422e-09
 89.07855    -24.9 8.984e+03 3.977e-09
 89.09809    -24.3 8.866e+03 3.572e-09
 89.11772    -24.4 8.673e+03 3.196e-09
 89.13735    -24.1 8.676e+03 3.180e-09
 89.14900    -24.1 8.676e+03 3.347e-09
 89.15882    -22.5 8.664e+03 3.248e-09
 89.17662    -22.1 8.775e+03 3.595e-09
 89.19625    -21.8 8.860e+03 4.003e-09
 89.21589    -21.3 9.002e+03 4.529e-09
 89.23552    -20.6 9.195e+03 4.975e-09
 89.25516    -20.1 9.354e+03 5.148e-09
 89.28470    -20.8 9.336e+03 4.534e-09
 89.32185    -21.2 9.038e+03 3.264e-09
 89.34148    -21.2 9.210e+03 3.057e-09
 89.36334    -22.2 9.085e+03 2.283e-09
 89.39108    -23.0 9.061e+03 2.224e-09
 89.41072    -20.9 9.639e+03 3.964e-09
 89.44187    -23.2 1.021e+04 4.929e-09
 89.48114    -25.4 1.125e+04 9.747e-09
 89.52041    -27.8 1.218e+04 1.600e-08
 89.55968    -30.5 1.243e+04 1.792e-08
 89.59894    -33.2 1.170e+04 1.309e-08
 89.63821    -35.5 1.026e+04 6.494e-09
 89.67748    -37.2 8.925e+03 3.041e-09
 89.71675    -37.8 8.358e+03 2.179e-09
 89.75602    -37.7 8.195e+03 2.026e-09
 89.79528    -36.3 8.200e+03 2.112e-09
 89.83455    -35.4 8.517e+03 2.729e-09
 89.87382    -34.2 8.901e+03 3.579e-09
 89.89449    -33.0 9.243e+03 4.395e-09
 89.91413    -33.3 9.295e+03 4.682e-09
 89.93614    -32.0 9.690e+03 5.755e-09
 89.95578    -29.9 9.373e+03 5.088e-09
 89.98171    -29.6 9.724e+03 6.087e-09
 90.00124    -28.7 9.896e+03 6.391e-09
 90.02088    -28.4 1.003e+04 6.560e-09
 90.04051    -28.3 1.001e+04 6.451e-09
 90.06015    -27.6 9.995e+03 5.773e-09
 90.07978    -27.1 9.867e+03 5.175e-09
 90.09941    -26.5 9.688e+03 4.232e-09
 90.11905    -25.8 9.556e+03 3.552e-09
 90.13619    -25.2 9.381e+03 2.851e-09
 90.14600    -25.3 9.480e+03 2.946e-09
 90.15832    -24.7 9.379e+03 2.681e-09
 90.18786    -23.5 9.147e+03 2.133e-09
 90.22723    -22.2 8.641e+03 1.439e-09
 90.26650    -20.2 8.450e+03 1.290e-09
 90.30576    -18.2 8.395e+03 1.273e-09
 90.34503    -16.1 8.371e+03 1.356e-09
 90.37827    -14.1 8.439e+03 1.508e-09
 90.39791    -14.4 8.535e+03 2.272e-09
 90.42357    -12.2 8.651e+03 2.437e-09
 90.46284     -9.8 9.035e+03 2.790e-09
 90.49219     -8.5 9.330e+03 3.017e-09
 90.51173     -8.2 9.307e+03 3.056e-09
 90.53061     -7.2 9.660e+03 3.848e-09
 90.54043     -6.1 9.756e+03 4.287e-09
 90.55099     -6.0 9.750e+03 4.889e-09
 90.57063     -4.5 1.015e+04 6.283e-09
 90.59026     -4.2 1.012e+04 6.553e-09
 90.60989     -2.6 1.038e+04 7.625e-09
 90.62953     -2.0 1.034e+04 7.474e-09
 90.63960     -1.0 1.023e+04 7.010e-09
 90.64942     -1.2 1.024e+04 7.308e-09
 90.66880     -0.2 9.992e+03 6.481e-09
 90.68843      0.9 9.713e+03 5.407e-09
 90.70806      1.8 9.444e+03 4.842e-09
 90.72770      2.6 9.239e+03 4.222e-09
 90.74733      3.1 9.315e+03 4.003e-09
 90.76697      2.7 1.010e+04 5.001e-09
 90.78660      1.2 1.133e+04 9.490e-09
 90.80623     -0.8 1.315e+04 2.296e-08
 90.82587     -2.2 1.525e+04 5.939e-08
 90.83776     -2.5 1.702e+04 1.320e-07
 90.84758     -2.7 1.691e+04 1.226e-07
 90.86514     -3.0 1.790e+04 1.946e-07
 90.88149     -5.9 1.784e+04 1.813e-07
 90.89130     -6.1 1.787e+04 1.736e-07
 90.90440     -9.1 1.613e+04 6.446e-08
 90.92404    -13.4 1.351e+04 2.654e-08
 90.94367    -17.6 1.148e+04 1.324e-08
 90.96330    -21.1 1.049e+04 9.818e-09
 90.98294    -23.4 1.029e+04 9.177e-09
 91.00257    -26.3 1.090e+04 1.133e-08
 91.02221    -28.9 1.169e+04 1.700e-08
 91.04184    -30.5 1.236e+04 2.437e-08
 91.06147    -31.7 1.290e+04 3.005e-08
 91.08111    -33.7 1.345e+04 3.245e-08
 91.10074    -37.8 1.455e+04 3.426e-08
 91.12038    -44.1 1.604e+04 4.599e-08
 91.13319    -49.6 1.723e+04 8.546e-08
 91.13809    -53.0 1.821e+04 1.570e-07
 91.14486    -54.3 1.867e+04 1.979e-07
 91.15464    -56.0 1.898e+04 2.341e-07
 91.16445    -57.7 1.911e+04 2.360e-07
 91.17427    -59.4 1.916e+04 2.321e-07
 91.18409    -60.9 1.906e+04 2.051e-07
 91.19391    -62.6 1.890e+04 1.655e-07
 91.20372    -65.1 1.868e+04 1.166e-07
 91.21850    -70.1 1.758e+04 6.464e-08
 91.23818    -76.2 1.647e+04 4.432e-08
 91.25781    -82.5 1.530e+04 3.933e-08
 91.27745    -86.4 1.581e+04 5.672e-08
 91.28861    -87.8 1.623e+04 7.201e-08
 91.29347    -87.9 1.645e+04 8.066e-08
 91.30189    -88.8 1.721e+04 1.011e-07
 91.31171    -90.0 1.798e+04 1.331e-07
 91.32153    -91.1 1.848e+04 1.612e-07
 91.33134    -92.7 1.863e+04 1.899e-07
 91.34116    -93.8 1.855e+04 1.948e-07
 91.35098    -94.5 1.826e+04 1.832e-07
 91.36079    -94.9 1.784e+04 1.552e-07
 91.37061    -95.4 1.743e+04 1.247e-07
 91.37989    -95.9 1.699e+04 1.000e-07
 91.38485    -94.3 1.711e+04 1.056e-07
 91.39525    -94.9 1.630e+04 8.073e-08
 91.41488    -94.9 1.571e+04 6.405e-08
 91.43242    -94.9 1.517e+04 4.927e-08
 91.44224    -95.2 1.456e+04 3.759e-08
 91.45415    -95.1 1.430e+04 3.252e-08
 91.47379    -94.8 1.405e+04 2.689e-08
 91.49342    -94.6 1.382e+04 2.106e-08
 91.51305    -94.8 1.353e+04 1.654e-08
 91.53269    -95.2 1.322e+04 1.380e-08
 91.55232    -95.7 1.305e+04 1.250e-08
 91.57196    -96.3 1.298e+04 1.207e-08
 91.59159    -97.1 1.294e+04 1.175e-08
 91.61122    -98.0 1.286e+04 1.099e-08
 91.62679    -98.9 1.265e+04 9.416e-09
 91.63660    -97.9 1.311e+04 1.391e-08
 91.65049    -98.9 1.264e+04 1.023e-08
 91.67012   -100.0 1.214e+04 7.137e-09
 91.68976   -101.1 1.180e+04 5.344e-09
 91.70939   -102.6 1.176e+04 4.832e-09
 91.72903   -104.9 1.184e+04 4.802e-09
 91.73957   -108.8 1.299e+04 6.064e-09
 91.74938   -109.3 1.340e+04 8.529e-09
 91.76829   -112.6 1.414e+04 1.872e-08
 91.78793   -115.2 1.458e+04 3.179e-08
 91.80756   -117.9 1.468e+04 3.707e-08
 91.82720   -120.7 1.450e+04 3.650e-08
 91.84683   -123.3 1.350e+04 2.479e-08
 91.86646   -125.9 1.220e+04 1.429e-08
 91.87849   -127.9 1.129e+04 9.404e-09
 91.88831   -129.9 1.117e+04 8.754e-09
 91.90573   -130.7 1.087e+04 7.721e-09
 91.92537   -130.9 1.078e+04 7.498e-09
 91.94500   -130.9 1.075e+04 7.483e-09
 91.96463   -130.7 1.072e+04 7.512e-09
 91.98427   -130.4 1.067e+04 7.489e-09
 92.00390   -130.0 1.057e+04 7.214e-09
 92.02353   -129.4 1.036e+04 6.705e-09
 92.03690   -128.7 1.015e+04 6.017e-09
 92.04671   -127.8 1.047e+04 6.969e-09
 92.06280   -127.1 1.024e+04 6.289e-09
 92.08244   -126.0 1.000e+04 5.569e-09
 92.10207   -124.7 9.804e+03 4.892e-09
 92.12038   -123.3 9.628e+03 4.253e-09
 92.13020   -124.6 9.688e+03 4.529e-09
 92.14134   -123.1 9.544e+03 3.875e-09
 92.16097   -121.8 9.416e+03 3.404e-09
 92.19052   -120.6 9.221e+03 2.945e-09
 92.22989   -117.3 8.891e+03 2.370e-09
 92.26915   -114.3 8.679e+03 1.892e-09
 92.30842   -111.1 8.457e+03 1.473e-09
 92.33442   -108.0 8.349e+03 1.197e-09
 92.35406   -107.4 8.618e+03 1.294e-09
 92.37228   -104.5 8.603e+03 1.125e-09
 92.39192   -105.2 8.769e+03 1.375e-09
 92.42622   -102.3 8.819e+03 1.372e-09
 92.46549    -99.3 8.870e+03 1.374e-09
 92.50476    -96.3 8.990e+03 1.328e-09
 92.54403    -93.1 9.078e+03 1.264e-09
 92.58330    -89.8 9.173e+03 1.213e-09
 92.62256    -86.5 9.220e+03 1.198e-09
 92.66183    -83.4 9.483e+03 1.177e-09
 92.70110    -80.4 1.010e+04 1.295e-09
 92.74037    -77.5 1.042e+04 1.865e-09
 92.77963    -74.7 1.084e+04 2.883e-09
 92.80899    -73.3 1.123e+04 4.236e-09
 92.82852    -72.1 1.146e+04 5.462e-09
 92.84816    -70.6 1.177e+04 6.678e-09
 92.86568    -69.5 1.202e+04 7.689e-09
 92.87550    -69.4 1.177e+04 6.483e-09
 92.88743    -68.4 1.199e+04 7.144e-09
 92.90706    -67.3 1.221e+04 8.009e-09
 92.92669    -66.4 1.248e+04 9.207e-09
 92.93871    -65.6 1.276e+04 1.060e-08
 92.94852    -65.9 1.276e+04 9.732e-09
 92.96596    -65.0 1.305e+04 1.143e-08
 92.98560    -64.2 1.335e+04 1.281e-08
 93.00523    -63.4 1.357e+04 1.405e-08
 93.02486    -62.7 1.370e+04 1.489e-08
 93.04450    -62.0 1.376e+04 1.540e-08
 93.06413    -61.3 1.379e+04 1.571e-08
 93.08376    -60.7 1.379e+04 1.583e-08
 93.10340    -59.9 1.378e+04 1.598e-08
 93.11739    -59.1 1.377e+04 1.618e-08
 93.12720    -59.3 1.394e+04 1.795e-08
 93.14267    -58.6 1.396e+04 1.819e-08
 93.16230    -57.7 1.396e+04 1.825e-08
 93.18193    -56.9 1.392e+04 1.789e-08
 93.20157    -56.0 1.384e+04 1.698e-08
 93.22120    -55.0 1.378e+04 1.588e-08
 93.23604    -54.1 1.370e+04 1.463e-08
 93.24585    -54.0 1.382e+04 1.557e-08
 93.26047    -53.0 1.375e+04 1.471e-08
 93.28010    -52.0 1.369e+04 1.402e-08
 93.29974    -51.0 1.360e+04 1.330e-08
 93.31937    -49.8 1.353e+04 1.265e-08
 93.33901    -48.7 1.348e+04 1.194e-08
 93.35864    -47.6 1.338e+04 1.097e-08
 93.36909    -46.4 1.328e+04 9.880e-09
 93.37891    -46.5 1.349e+04 1.162e-08
 93.39791    -45.3 1.339e+04 1.005e-08
 93.41754    -44.2 1.321e+04 8.200e-09
 93.43717    -42.9 1.304e+04 6.630e-09
 93.45681    -41.6 1.291e+04 5.334e-09
 93.47644    -40.3 1.279e+04 4.179e-09
 93.49608    -38.9 1.272e+04 3.220e-09
 93.52365    -37.2 1.269e+04 2.770e-09
 93.54338    -37.9 1.253e+04 1.844e-09
 93.56499    -34.6 1.238e+04 1.069e-09
 93.60426    -31.7 1.260e+04 7.251e-10
 93.64353    -29.0 1.267e+04 5.985e-10
 93.68279    -26.3 1.267e+04 5.570e-10
 93.72206    -23.5 1.264e+04 5.486e-10
 93.76133    -20.7 1.262e+04 5.425e-10
 93.80060    -17.8 1.267e+04 5.070e-10
 93.83987    -15.1 1.275e+04 4.368e-10
 93.86288    -12.5 1.284e+04 3.697e-10
 93.88251    -12.0 1.286e+04 3.670e-10
 93.91840     -9.5 1.289e+04 3.299e-10
 93.95767     -7.0 1.293e+04 3.219e-10
 93.99694     -4.8 1.322e+04 3.417e-10
 94.03620     -3.3 1.309e+04 5.130e-10
 94.07547     -1.1 1.299e+04 8.791e-10
 94.11474      1.5 1.288e+04 1.387e-09
 94.13804      3.4 1.308e+04 1.395e-09
 94.15768      2.6 1.303e+04 1.543e-09
 94.19328      4.5 1.344e+04 1.137e-09
 94.23254      5.9 1.339e+04 9.325e-10
 94.27181      7.5 1.321e+04 9.490e-10
 94.31108      9.3 1.304e+04 9.765e-10
 94.34666     11.1 1.295e+04 1.034e-09
 94.36629     10.9 1.347e+04 1.274e-09
 94.38961     12.5 1.328e+04 1.648e-09
 94.42888     13.9 1.313e+04 2.515e-09
 94.46815     14.8 1.328e+04 5.018e-09
 94.50742     15.3 1.353e+04 9.731e-09
 94.54669     15.3 1.375e+04 1.413e-08
 94.58595     15.1 1.391e+04 1.227e-08
 94.62522     15.0 1.392e+04 6.149e-09
 94.66449     14.6 1.386e+04 2.820e-09
 94.70376     14.7 1.335e+04 2.259e-09
 94.73270     16.1 1.335e+04 2.291e-09
 94.75234     15.7 1.333e+04 2.428e-09
 94.78229     17.4 1.342e+04 2.488e-09
 94.82156     18.8 1.346e+04 2.722e-09
 94.85007     20.1 1.345e+04 3.044e-09
 94.86970     18.7 1.395e+04 4.348e-09
 94.90010     19.9 1.419e+04 5.973e-09
 94.92945     19.8 1.422e+04 6.675e-09
 94.94898     19.6 1.435e+04 8.987e-09
 94.96862     19.4 1.453e+04 1.320e-08
 94.98825     19.5 1.462e+04 2.177e-08
 95.00789     19.8 1.463e+04 2.668e-08
 95.02752     20.1 1.447e+04 2.526e-08
 95.03966     20.9 1.413e+04 1.969e-08
 95.04947     21.6 1.419e+04 2.047e-08
 95.06679     21.9 1.395e+04 1.616e-08
 95.08642     22.2 1.376e+04 1.180e-08
 95.10158     22.3 1.360e+04 9.922e-09
 95.11140     21.6 1.382e+04 1.045e-08
 95.12569     22.1 1.370e+04 9.796e-09
 95.14532     22.6 1.366e+04 9.884e-09
 95.16496     22.8 1.370e+04 1.083e-08
 95.18459     23.0 1.374e+04 1.302e-08
 95.20423     23.0 1.382e+04 1.726e-08
 95.22386     23.2 1.381e+04 2.034e-08
 95.24349     23.4 1.367e+04 1.910e-08
 95.26313     23.9 1.335e+04 1.476e-08
 95.28276     24.0 1.307e+04 9.789e-09
 95.30239     23.8 1.295e+04 6.011e-09
 95.32203     22.9 1.303e+04 4.112e-09
 95.33699     22.4 1.272e+04 3.602e-09
 95.34680     22.9 1.292e+04 4.032e-09
 95.35328     22.9 1.276e+04 4.025e-09
 95.36310     22.6 1.278e+04 3.920e-09
 95.38093     22.6 1.278e+04 4.212e-09
 95.40056     22.8 1.278e+04 4.832e-09
 95.42020     23.3 1.288e+04 5.385e-09
 95.43983     23.8 1.290e+04 5.481e-09
 95.45947     24.1 1.294e+04 5.312e-09
 95.47910     24.3 1.285e+04 4.729e-09
 95.49873     24.2 1.283e+04 4.634e-09
 95.52828     24.6 1.269e+04 4.548e-09
 95.55773     25.2 1.252e+04 4.395e-09
 95.57727     25.2 1.254e+04 4.345e-09
 95.60682     25.6 1.243e+04 5.380e-09
 95.64618     26.5 1.249e+04 5.995e-09
 95.68545     27.7 1.255e+04 5.795e-09
 95.72472     29.1 1.251e+04 5.170e-09
 95.76399     30.4 1.249e+04 4.833e-09
 95.80325     31.8 1.245e+04 4.782e-09
 95.83726     33.3 1.242e+04 4.776e-09
 95.85689     32.0 1.249e+04 4.505e-09
 95.88179     33.7 1.253e+04 4.373e-09
 95.92106     35.2 1.263e+04 4.334e-09
 95.94166     36.5 1.277e+04 4.475e-09
 95.96129     36.0 1.294e+04 6.279e-09
 95.99959     37.4 1.301e+04 6.216e-09
 96.03886     38.8 1.304e+04 5.947e-09
 96.07813     40.1 1.300e+04 5.679e-09
 96.11740     41.3 1.303e+04 5.788e-09
 96.15666     42.5 1.310e+04 6.195e-09
 96.19593     43.6 1.314e+04 6.813e-09
 96.23520     44.9 1.316e+04 7.678e-09
 96.26455     45.4 1.336e+04 8.359e-09
 96.28409     45.5 1.340e+04 8.763e-09
 96.30372     46.1 1.347e+04 9.101e-09
 96.32336     46.6 1.359e+04 9.012e-09
 96.34047     47.1 1.359e+04 8.688e-09
 96.35029     46.6 1.354e+04 7.449e-09
 96.36262     47.2 1.353e+04 7.105e-09
 96.38226     47.7 1.350e+04 6.252e-09
 96.40189     47.9 1.349e+04 5.640e-09
 96.42153     48.3 1.341e+04 5.078e-09
 96.44116     48.8 1.337e+04 4.508e-09
 96.46079     49.2 1.339e+04 4.006e-09
 96.48043     49.6 1.342e+04 3.630e-09
 96.50006     50.1 1.339e+04 3.317e-09
 96.51970     50.5 1.334e+04 3.148e-09
 96.53613     51.1 1.330e+04 3.015e-09
 96.54594     50.9 1.340e+04 3.788e-09
 96.55896     51.4 1.331e+04 3.534e-09
 96.57860     52.0 1.327e+04 2.985e-09
 96.59218     52.1 1.328e+04 2.695e-09
 96.60199     51.7 1.325e+04 2.495e-09
 96.62778     52.7 1.322e+04 2.271e-09
 96.66715     54.1 1.311e+04 1.823e-09
 96.70641     55.8 1.281e+04 1.702e-09
 96.74568     57.9 1.269e+04 1.728e-09
 96.78495     59.3 1.262e+04 2.077e-09
 96.82422     60.4 1.264e+04 3.418e-09
 96.84408     61.2 1.269e+04 6.069e-09
 96.86371     60.7 1.244e+04 5.097e-09
 96.90275     61.4 1.254e+04 5.989e-09
 96.94202     61.7 1.253e+04 5.895e-09
 96.98129     61.9 1.240e+04 5.326e-09
 97.02056     62.1 1.226e+04 4.747e-09
 97.05982     62.3 1.217e+04 4.548e-09
 97.09909     62.4 1.210e+04 4.467e-09
 97.13098     62.5 1.191e+04 4.088e-09
 97.15062     61.7 1.171e+04 2.924e-09
 97.17763     62.1 1.153e+04 2.083e-09
 97.21689     62.4 1.138e+04 1.324e-09
 97.25616     62.7 1.113e+04 1.054e-09
 97.29543     63.4 1.103e+04 1.058e-09
 97.32786     64.5 1.100e+04 1.090e-09
 97.34749     64.7 1.094e+04 1.074e-09
 97.37397     65.8 1.092e+04 1.170e-09
 97.41323     66.8 1.091e+04 1.233e-09
 97.45250     67.8 1.089e+04 1.231e-09
 97.49177     68.8 1.082e+04 1.193e-09
 97.53104     69.9 1.079e+04 1.165e-09
 97.57030     70.9 1.079e+04 1.199e-09
 97.60957     72.0 1.075e+04 1.319e-09
 97.64884     73.0 1.074e+04 1.459e-09
 97.68811     74.1 1.075e+04 1.553e-09
 97.72564     75.1 1.072e+04 1.615e-09
 97.74528     75.8 1.068e+04 1.543e-09
 97.76664     76.9 1.073e+04 1.670e-09
 97.80591     77.9 1.078e+04 1.792e-09
 97.83127     78.7 1.084e+04 1.866e-09
 97.85090     78.4 1.077e+04 1.646e-09
 97.88445     78.9 1.090e+04 1.834e-09
 97.92371     79.0 1.117e+04 2.228e-09
 97.96298     78.7 1.144e+04 2.753e-09
 97.99234     78.2 1.166e+04 3.746e-09
 98.01187     77.7 1.187e+04 5.101e-09
 98.03151     77.2 1.211e+04 6.683e-09
 98.04241     76.6 1.223e+04 7.534e-09
 98.05223     76.5 1.222e+04 7.338e-09
 98.07077     75.6 1.218e+04 7.204e-09
 98.08278     74.6 1.201e+04 6.690e-09
 98.09259     73.8 1.180e+04 5.823e-09
 98.11004     72.9 1.155e+04 4.521e-09
 98.12967     72.5 1.139e+04 3.992e-09
 98.15922     72.8 1.115e+04 2.775e-09
 98.19859     72.3 1.102e+04 1.355e-09
 98.23786     71.6 1.078e+04 7.732e-10
 98.27712     71.6 1.064e+04 7.124e-10
 98.31504     72.1 1.061e+04 7.479e-10
 98.33468     71.1 1.047e+04 8.590e-10
 98.33994     71.6 1.052e+04 1.069e-09
 98.35957     73.2 1.044e+04 1.032e-09
 98.39493     73.9 1.042e+04 1.266e-09
 98.43420     74.6 1.046e+04 1.603e-09
 98.47346     75.3 1.064e+04 2.171e-09
 98.51273     75.9 1.084e+04 2.714e-09
 98.54208     76.1 1.093e+04 2.985e-09
 98.56162     76.1 1.097e+04 3.174e-09
 98.57637     76.0 1.111e+04 3.414e-09
 98.58619     75.4 1.111e+04 3.399e-09
 98.60089     75.1 1.138e+04 3.800e-09
 98.62052     74.6 1.160e+04 4.390e-09
 98.63707     74.1 1.175e+04 5.068e-09
 98.64689     75.1 1.181e+04 5.631e-09
 98.65979     74.6 1.194e+04 6.679e-09
 98.67942     74.1 1.209e+04 7.665e-09
 98.69906     73.5 1.226e+04 8.534e-09
 98.71869     72.9 1.241e+04 9.283e-09
 98.73833     72.2 1.256e+04 9.887e-09
 98.75796     71.5 1.269e+04 1.058e-08
 98.77759     70.8 1.284e+04 1.129e-08
 98.79723     69.9 1.293e+04 1.147e-08
 98.81686     69.1 1.288e+04 1.125e-08
 98.82808     68.4 1.267e+04 1.013e-08
 98.83789     68.3 1.267e+04 1.051e-08
 98.85613     68.0 1.230e+04 8.235e-09
 98.87576     67.9 1.195e+04 5.884e-09
 98.89540     67.9 1.171e+04 3.803e-09
 98.91503     67.6 1.161e+04 2.703e-09
 98.93450     68.0 1.147e+04 1.826e-09
 98.94432     68.1 1.171e+04 2.265e-09
 98.95430     68.0 1.164e+04 1.926e-09
 98.98385     68.7 1.172e+04 1.832e-09
 99.02321     69.1 1.156e+04 1.618e-09
 99.06248     69.5 1.146e+04 1.779e-09
 99.10175     70.5 1.123e+04 1.969e-09
 99.14102     71.7 1.112e+04 1.980e-09
 99.18028     72.9 1.105e+04 2.098e-09
 99.21955     74.1 1.103e+04 2.351e-09
 99.25882     75.5 1.114e+04 2.732e-09
 99.29809     76.7 1.130e+04 3.242e-09
 99.32177     76.5 1.135e+04 3.711e-09
 99.33149     75.7 1.132e+04 3.666e-09
 99.34698     76.1 1.126e+04 3.851e-09
 99.36661     76.6 1.126e+04 3.971e-09
 99.38624     77.1 1.128e+04 3.986e-09
 99.40588     77.6 1.130e+04 3.991e-09
 99.42551     77.9 1.130e+04 3.968e-09
 99.44515     78.5 1.133e+04 4.005e-09
 99.46478     79.0 1.136e+04 4.061e-09
 99.48441     79.5 1.136e+04 4.121e-09
 99.50405     80.1 1.138e+04 4.251e-09
 99.52368     80.7 1.142e+04 4.457e-09
 99.53888     81.4 1.146e+04 4.611e-09
 99.54870     80.9 1.128e+04 3.718e-09
 99.56295     81.8 1.130e+04 4.092e-09
 99.57338     82.7 1.136e+04 4.389e-09
 99.58319     81.6 1.120e+04 3.747e-09
 99.60222     82.5 1.124e+04 3.885e-09
 99.62185     83.3 1.127e+04 4.081e-09
 99.64148     84.0 1.128e+04 4.416e-09
 99.66112     84.7 1.128e+04 4.851e-09
 99.68075     85.5 1.130e+04 5.252e-09
 99.70039     86.2 1.131e+04 5.401e-09
 99.72002     86.9 1.130e+04 5.275e-09
 99.73965     87.5 1.125e+04 4.841e-09
 99.75929     88.0 1.117e+04 4.131e-09
 99.77892     88.4 1.106e+04 3.419e-09
 99.79856     88.8 1.094e+04 2.852e-09
 99.81526     89.1 1.088e+04 2.520e-09
 99.82518     87.4 1.072e+04 2.280e-09
 99.84784     89.3 1.071e+04 2.264e-09
 99.88710     91.7 1.078e+04 2.529e-09
 99.92637     94.3 1.089e+04 3.141e-09
 99.95572     95.7 1.104e+04 4.002e-09
 99.97526     96.7 1.121e+04 4.829e-09
 99.99489     97.6 1.138e+04 5.610e-09
