# Columns:
#   distance along LOS (in CHIMPs)
#   peculiar velocity  (in km/s)
#   temperature (K)
#   HI number density
# pos=(62.6088,181.806,48.4476), angles=(1.43587,4.88264)
  0.00466    -14.0 9.953e+03 9.508e-10
  0.02932    -13.0 1.011e+04 1.093e-09
  0.05527    -11.9 1.018e+04 1.402e-09
  0.07527    -11.7 1.030e+04 1.630e-09
  0.10932    -10.4 1.040e+04 1.832e-09
  0.13055     -9.3 1.052e+04 1.921e-09
  0.15055    -10.0 1.072e+04 2.154e-09
  0.18932     -9.1 1.081e+04 2.427e-09
  0.22932     -8.0 1.092e+04 2.496e-09
  0.26931     -7.1 1.113e+04 2.345e-09
  0.30931     -6.4 1.122e+04 2.235e-09
  0.34046     -5.9 1.125e+04 2.380e-09
  0.35803     -4.9 1.119e+04 2.314e-09
  0.36688     -5.8 1.144e+04 3.282e-09
  0.38931     -5.9 1.164e+04 3.594e-09
  0.42931     -6.8 1.209e+04 4.340e-09
  0.46931     -7.6 1.207e+04 5.684e-09
  0.50931     -7.8 1.207e+04 4.540e-09
  0.53921     -7.9 1.226e+04 2.696e-09
  0.55911     -8.0 1.222e+04 2.635e-09
  0.58312     -7.7 1.217e+04 1.628e-09
  0.60321     -8.7 1.226e+04 1.678e-09
  0.62566     -8.7 1.239e+04 1.191e-09
  0.64566     -8.0 1.235e+04 1.162e-09
  0.66931     -7.4 1.223e+04 1.175e-09
  0.70930     -7.0 1.215e+04 1.275e-09
  0.74930     -6.6 1.211e+04 1.539e-09
  0.78930     -6.3 1.200e+04 1.902e-09
  0.81955     -6.1 1.186e+04 2.298e-09
  0.83955     -6.8 1.183e+04 2.193e-09
  0.86930     -6.6 1.169e+04 2.216e-09
  0.90930     -5.5 1.144e+04 1.656e-09
  0.93086     -5.1 1.174e+04 8.479e-10
  0.95086     -5.1 1.170e+04 8.767e-10
  0.98930     -5.5 1.164e+04 7.847e-10
  1.02930     -5.5 1.146e+04 1.032e-09
  1.05588     -4.3 1.133e+04 1.314e-09
  1.07588     -4.9 1.132e+04 2.063e-09
  1.10929     -3.4 1.140e+04 1.664e-09
  1.14929     -2.9 1.158e+04 1.153e-09
  1.18929     -2.4 1.154e+04 1.130e-09
  1.21605     -1.7 1.141e+04 1.426e-09
  1.23605     -1.4 1.133e+04 1.468e-09
  1.26929     -0.1 1.128e+04 1.490e-09
  1.29221      2.0 1.125e+04 1.176e-09
  1.31221      1.5 1.146e+04 1.069e-09
  1.34929      2.5 1.176e+04 7.241e-10
  1.38929      3.3 1.184e+04 7.210e-10
  1.42929      3.9 1.183e+04 9.930e-10
  1.46929      5.0 1.187e+04 1.747e-09
  1.50125      6.1 1.205e+04 2.694e-09
  1.52051      6.5 1.206e+04 3.646e-09
  1.52855      6.0 1.223e+04 4.000e-09
  1.54928      6.5 1.231e+04 4.147e-09
  1.58928      7.2 1.218e+04 3.729e-09
  1.62928      8.2 1.200e+04 2.822e-09
  1.66928      9.3 1.186e+04 2.112e-09
  1.70928     10.6 1.193e+04 1.642e-09
  1.74488     11.9 1.213e+04 1.332e-09
  1.76488     11.3 1.212e+04 1.204e-09
  1.78644     12.7 1.212e+04 1.285e-09
  1.80644     13.1 1.203e+04 1.679e-09
  1.82928     14.7 1.213e+04 1.687e-09
  1.86928     16.2 1.224e+04 1.702e-09
  1.90928     17.5 1.229e+04 1.675e-09
  1.94927     18.8 1.240e+04 1.601e-09
  1.98121     19.8 1.244e+04 1.575e-09
  2.00121     19.2 1.252e+04 1.746e-09
  2.02927     20.0 1.255e+04 1.855e-09
  2.06927     20.7 1.244e+04 2.226e-09
  2.09164     21.4 1.232e+04 3.224e-09
  2.11164     20.8 1.251e+04 4.390e-09
  2.14927     21.3 1.244e+04 6.300e-09
  2.18927     21.6 1.240e+04 7.230e-09
  2.21754     22.2 1.229e+04 6.456e-09
  2.23754     21.2 1.250e+04 5.042e-09
  2.26927     22.1 1.248e+04 2.857e-09
  2.30927     22.8 1.258e+04 1.904e-09
  2.34927     24.0 1.250e+04 1.404e-09
  2.37684     25.4 1.246e+04 1.329e-09
  2.39683     25.0 1.240e+04 1.040e-09
  2.42926     26.3 1.244e+04 1.212e-09
  2.45388     27.3 1.245e+04 1.628e-09
  2.47388     26.5 1.243e+04 2.483e-09
  2.50926     27.7 1.247e+04 3.166e-09
  2.54926     28.6 1.250e+04 3.032e-09
  2.58926     29.8 1.252e+04 2.343e-09
  2.62926     31.1 1.267e+04 1.527e-09
  2.66203     32.3 1.278e+04 1.116e-09
  2.68203     32.2 1.275e+04 1.073e-09
  2.69021     34.0 1.281e+04 1.016e-09
  2.71021     33.5 1.308e+04 8.517e-10
  2.74926     35.6 1.311e+04 8.423e-10
  2.78925     37.6 1.310e+04 8.413e-10
  2.82925     39.6 1.303e+04 8.296e-10
  2.86925     41.6 1.291e+04 7.829e-10
  2.90654     43.5 1.281e+04 6.903e-10
  2.92654     43.3 1.280e+04 6.783e-10
  2.94723     45.4 1.272e+04 5.939e-10
  2.96723     46.2 1.273e+04 5.943e-10
  2.98925     48.4 1.266e+04 5.218e-10
  3.02925     50.7 1.249e+04 5.019e-10
  3.06925     53.2 1.244e+04 5.071e-10
  3.10925     55.6 1.236e+04 5.321e-10
  3.14287     58.0 1.229e+04 5.726e-10
  3.16287     57.8 1.233e+04 4.482e-10
  3.18924     60.0 1.222e+04 4.864e-10
  3.22924     62.1 1.209e+04 5.516e-10
  3.25242     64.3 1.198e+04 6.401e-10
  3.27242     65.5 1.214e+04 7.107e-10
  3.30924     67.8 1.200e+04 8.476e-10
  3.34924     70.0 1.183e+04 9.041e-10
  3.37921     72.1 1.180e+04 8.973e-10
  3.39921     71.3 1.179e+04 7.800e-10
  3.42924     73.4 1.164e+04 7.614e-10
  3.46924     75.5 1.147e+04 7.274e-10
  3.50924     77.5 1.132e+04 7.130e-10
  3.53762     79.6 1.125e+04 7.255e-10
  3.55762     80.3 1.132e+04 8.360e-10
  3.58924     82.3 1.118e+04 8.514e-10
  3.61554     84.4 1.089e+04 9.828e-10
  3.63554     83.9 1.078e+04 1.273e-09
  3.66923     86.1 1.057e+04 1.525e-09
  3.70923     88.2 1.047e+04 1.789e-09
  3.74923     90.3 1.043e+04 1.980e-09
  3.78923     92.1 1.038e+04 2.063e-09
  3.82281     93.6 1.036e+04 2.063e-09
  3.84281     94.2 1.035e+04 2.085e-09
  3.85187     95.6 1.028e+04 2.130e-09
  3.87187     95.0 1.009e+04 1.626e-09
  3.90923     96.5 1.001e+04 1.658e-09
  3.94923     98.0 9.914e+03 1.638e-09
  3.98923     99.7 9.748e+03 1.538e-09
  4.02922    101.5 9.606e+03 1.366e-09
  4.06821    103.4 9.466e+03 1.216e-09
  4.08821    103.7 9.412e+03 1.160e-09
  4.10801    105.9 9.365e+03 1.158e-09
  4.12801    106.5 9.260e+03 1.060e-09
  4.14922    108.9 9.227e+03 1.102e-09
  4.18922    111.3 9.202e+03 1.263e-09
  4.22922    113.6 9.327e+03 1.571e-09
  4.26922    116.1 9.566e+03 2.056e-09
  4.30454    118.3 9.828e+03 2.732e-09
  4.32454    118.5 9.834e+03 2.697e-09
  4.33912    119.2 9.904e+03 3.060e-09
  4.35902    119.8 9.915e+03 3.444e-09
  4.37902    120.7 1.004e+04 4.472e-09
  4.39902    121.7 1.028e+04 6.102e-09
  4.41301    122.7 1.060e+04 8.055e-09
  4.42301    123.2 1.036e+04 6.635e-09
  4.43251    124.0 1.068e+04 8.395e-09
  4.44251    124.1 1.079e+04 8.921e-09
  4.45902    124.7 1.122e+04 1.140e-08
  4.47902    125.1 1.169e+04 1.464e-08
  4.49902    125.1 1.222e+04 1.908e-08
  4.51902    125.1 1.281e+04 2.540e-08
  4.53902    124.9 1.344e+04 3.431e-08
  4.55068    124.8 1.405e+04 4.483e-08
  4.55727    124.2 1.438e+04 5.101e-08
  4.56561    124.7 1.450e+04 5.407e-08
  4.57902    124.4 1.489e+04 6.172e-08
  4.59902    123.9 1.494e+04 6.130e-08
  4.61902    123.5 1.485e+04 5.687e-08
  4.63901    122.9 1.470e+04 4.809e-08
  4.65884    122.3 1.466e+04 3.922e-08
  4.66884    120.5 1.401e+04 2.032e-08
  4.67901    119.4 1.394e+04 1.474e-08
  4.69821    118.1 1.360e+04 1.239e-08
  4.70821    118.7 1.550e+04 4.863e-08
  4.71901    117.4 1.545e+04 4.587e-08
  4.73901    115.7 1.526e+04 4.476e-08
  4.75901    113.9 1.509e+04 4.762e-08
  4.77701    112.6 1.500e+04 5.725e-08
  4.78701    111.5 1.438e+04 4.963e-08
  4.79901    110.9 1.469e+04 5.885e-08
  4.81901    109.9 1.468e+04 5.801e-08
  4.83901    109.1 1.430e+04 4.944e-08
  4.85080    108.5 1.352e+04 3.431e-08
  4.86080    108.4 1.337e+04 3.274e-08
  4.87901    107.8 1.218e+04 1.808e-08
  4.89517    106.6 1.104e+04 9.950e-09
  4.90517    106.1 1.081e+04 8.814e-09
  4.91901    105.3 1.005e+04 5.709e-09
  4.93901    105.2 9.706e+03 4.183e-09
  4.95901    105.3 9.576e+03 3.400e-09
  4.97901    105.7 9.503e+03 2.859e-09
  4.99340    106.0 9.446e+03 2.541e-09
  5.00340    106.7 9.438e+03 2.544e-09
  5.01334    107.3 9.441e+03 2.335e-09
  5.03344    107.7 9.336e+03 2.091e-09
  5.06920    108.9 9.387e+03 2.144e-09
  5.10920    110.0 9.536e+03 2.379e-09
  5.14920    110.7 9.644e+03 2.651e-09
  5.17910    111.4 9.709e+03 2.643e-09
  5.19900    111.8 9.750e+03 2.768e-09
  5.21900    112.1 9.812e+03 2.966e-09
  5.23900    112.3 9.936e+03 3.370e-09
  5.24967    112.2 1.011e+04 3.985e-09
  5.25967    111.9 9.977e+03 3.454e-09
  5.27860    111.9 1.017e+04 4.133e-09
  5.28860    112.0 1.009e+04 3.966e-09
  5.29900    112.0 1.031e+04 4.326e-09
  5.31900    111.8 1.041e+04 4.334e-09
  5.33900    111.3 1.043e+04 4.245e-09
  5.35784    110.8 1.045e+04 4.141e-09
  5.36784    110.9 1.037e+04 3.658e-09
  5.37900    110.4 1.040e+04 3.686e-09
  5.39900    109.5 1.054e+04 3.969e-09
  5.41900    108.2 1.092e+04 5.330e-09
  5.43120    106.6 1.174e+04 9.686e-09
  5.44120    106.4 1.205e+04 1.174e-08
  5.45900    104.6 1.346e+04 2.667e-08
  5.47601    102.7 1.479e+04 5.217e-08
  5.48601    103.1 1.406e+04 3.735e-08
  5.49899    100.9 1.478e+04 4.349e-08
  5.51899     98.2 1.484e+04 4.218e-08
  5.53899     95.5 1.468e+04 3.590e-08
  5.55899     92.9 1.425e+04 2.729e-08
  5.57379     90.4 1.401e+04 2.394e-08
  5.58379     90.0 1.375e+04 2.017e-08
  5.59417     87.9 1.379e+04 2.119e-08
  5.60417     87.4 1.406e+04 2.772e-08
  5.61899     85.7 1.464e+04 3.833e-08
  5.63899     84.2 1.514e+04 5.084e-08
  5.65899     82.9 1.559e+04 6.052e-08
  5.67899     81.5 1.564e+04 5.665e-08
  5.69899     79.9 1.550e+04 4.147e-08
  5.71234     77.8 1.505e+04 2.338e-08
  5.71974     75.5 1.359e+04 6.520e-09
  5.72639     75.7 1.401e+04 8.780e-09
  5.73899     72.7 1.325e+04 6.108e-09
  5.75899     71.3 1.265e+04 5.321e-09
  5.77899     71.1 1.237e+04 5.301e-09
  5.79899     71.1 1.222e+04 5.382e-09
  5.81899     71.3 1.214e+04 5.545e-09
  5.83051     71.3 1.211e+04 5.895e-09
  5.84051     71.6 1.193e+04 5.511e-09
  5.85899     71.5 1.195e+04 6.260e-09
  5.87899     70.4 1.204e+04 7.859e-09
  5.89898     69.4 1.270e+04 1.312e-08
  5.91898     68.4 1.360e+04 2.425e-08
  5.93867     67.7 1.435e+04 3.959e-08
  5.94867     69.1 1.334e+04 2.345e-08
  5.95898     68.5 1.377e+04 3.209e-08
  5.97898     68.0 1.377e+04 3.409e-08
  5.99898     67.8 1.359e+04 3.199e-08
  6.01159     67.8 1.312e+04 2.525e-08
  6.02159     67.7 1.267e+04 1.941e-08
  6.03898     67.4 1.211e+04 1.386e-08
  6.05684     67.2 1.161e+04 1.022e-08
  6.06684     68.6 1.204e+04 1.417e-08
  6.07898     68.7 1.168e+04 1.180e-08
  6.09898     69.1 1.134e+04 9.978e-09
  6.11898     69.7 1.105e+04 8.538e-09
  6.13898     70.4 1.084e+04 7.425e-09
  6.15419     71.1 1.070e+04 6.612e-09
  6.16419     71.5 1.048e+04 5.590e-09
  6.17500     72.1 1.041e+04 5.297e-09
  6.18500     73.1 1.097e+04 8.303e-09
  6.19898     73.7 1.108e+04 7.866e-09
  6.21898     74.2 1.112e+04 7.863e-09
  6.23898     74.4 1.117e+04 8.283e-09
  6.25898     74.5 1.130e+04 1.017e-08
  6.27898     74.5 1.174e+04 1.423e-08
  6.29317     74.6 1.247e+04 2.109e-08
  6.30098     75.8 1.269e+04 2.025e-08
  6.30678     76.0 1.221e+04 1.751e-08
  6.31897     76.1 1.275e+04 2.371e-08
  6.33897     76.2 1.326e+04 3.093e-08
  6.35897     75.8 1.416e+04 4.255e-08
  6.37897     74.6 1.518e+04 5.813e-08
  6.39897     72.5 1.593e+04 7.300e-08
  6.41134     69.2 1.660e+04 9.269e-08
  6.42134     70.5 1.729e+04 1.093e-07
  6.43897     66.8 1.772e+04 1.347e-07
  6.44938     63.1 1.762e+04 1.347e-07
  6.45938     65.5 1.701e+04 1.109e-07
  6.47897     62.7 1.694e+04 1.113e-07
  6.49897     60.5 1.653e+04 9.365e-08
  6.51897     58.6 1.597e+04 5.933e-08
  6.52950     55.6 1.526e+04 3.331e-08
  6.53950     55.1 1.506e+04 3.569e-08
  6.55897     51.7 1.439e+04 3.077e-08
  6.57897     48.5 1.434e+04 3.165e-08
  6.59198     44.4 1.472e+04 3.511e-08
  6.60198     46.1 1.558e+04 4.429e-08
  6.61897     38.7 1.698e+04 5.917e-08
  6.63767     29.9 1.727e+04 7.288e-08
  6.64767     32.3 1.734e+04 7.067e-08
  6.65897     24.6 1.673e+04 8.661e-08
  6.67897     19.9 1.585e+04 7.906e-08
  6.69897     17.2 1.478e+04 5.699e-08
  6.71896     14.9 1.378e+04 3.649e-08
  6.73458     12.7 1.272e+04 2.418e-08
  6.74458     11.4 1.272e+04 2.375e-08
  6.75584     10.5 1.184e+04 1.838e-08
  6.76584     11.6 1.226e+04 2.263e-08
  6.77896     11.3 1.177e+04 1.868e-08
  6.79896     11.3 1.142e+04 1.625e-08
  6.82906     10.6 1.135e+04 1.362e-08
  6.86420     11.2 1.153e+04 1.310e-08
  6.88420     11.8 1.122e+04 1.151e-08
  6.90916     12.5 1.145e+04 1.431e-08
  6.94915     13.7 1.177e+04 1.595e-08
  6.98915     14.9 1.185e+04 1.450e-08
  7.01997     15.4 1.173e+04 1.247e-08
  7.03997     12.7 1.183e+04 1.427e-08
  7.06915     13.4 1.138e+04 1.165e-08
  7.10053     14.7 1.087e+04 8.415e-09
  7.12053     16.3 1.075e+04 7.614e-09
  7.14915     17.7 1.051e+04 6.274e-09
  7.18915     18.9 1.031e+04 4.521e-09
  7.22915     19.7 1.013e+04 3.548e-09
  7.26915     20.7 9.927e+03 2.984e-09
  7.30516     21.9 9.771e+03 2.656e-09
  7.32516     20.3 9.578e+03 2.471e-09
  7.33686     21.8 9.517e+03 2.459e-09
  7.35686     23.0 9.383e+03 1.773e-09
  7.38914     24.5 9.354e+03 1.828e-09
  7.42914     26.2 9.367e+03 1.963e-09
  7.46914     28.1 9.383e+03 1.945e-09
  7.50914     30.1 9.343e+03 1.722e-09
  7.54914     32.0 9.269e+03 1.287e-09
  7.57320     33.7 9.217e+03 8.861e-10
  7.59320     34.8 9.302e+03 1.207e-09
  7.61036     36.5 9.281e+03 8.410e-10
  7.63036     35.8 9.180e+03 5.696e-10
  7.66914     37.4 9.193e+03 4.690e-10
  7.70914     39.2 9.188e+03 4.600e-10
  7.74914     41.0 9.231e+03 4.684e-10
  7.78913     42.7 9.336e+03 5.128e-10
  7.80953     44.2 9.432e+03 6.335e-10
  7.82953     45.7 9.495e+03 7.127e-10
  7.86913     47.3 9.631e+03 9.255e-10
  7.89556     48.7 9.852e+03 1.272e-09
  7.91556     48.5 9.845e+03 1.256e-09
  7.94913     48.9 1.011e+04 1.740e-09
  7.98913     48.8 1.047e+04 2.403e-09
  8.01903     48.8 1.066e+04 2.889e-09
  8.03567     48.3 1.080e+04 3.635e-09
  8.04576     50.8 1.062e+04 2.794e-09
  8.05903     48.9 1.088e+04 3.923e-09
  8.07893     47.5 1.096e+04 4.768e-09
  8.09893     46.0 1.099e+04 5.369e-09
  8.11893     44.0 1.104e+04 5.844e-09
  8.13893     41.8 1.102e+04 6.692e-09
  8.15383     40.2 1.077e+04 7.921e-09
  8.16383     41.9 1.100e+04 8.486e-09
  8.17893     40.5 1.076e+04 8.766e-09
  8.19056     39.6 1.044e+04 8.260e-09
  8.20056     39.8 1.007e+04 6.520e-09
  8.21893     38.9 9.735e+03 4.983e-09
  8.23893     37.3 9.434e+03 3.487e-09
  8.25893     35.0 9.243e+03 3.030e-09
  8.27200     32.5 9.269e+03 3.218e-09
  8.28200     33.4 9.356e+03 3.378e-09
  8.29893     30.7 9.491e+03 4.400e-09
  8.31893     29.0 9.671e+03 6.394e-09
  8.33315     28.0 9.787e+03 7.530e-09
  8.34315     28.5 9.597e+03 6.725e-09
  8.35893     27.5 9.583e+03 6.658e-09
  8.37893     26.5 9.384e+03 5.828e-09
  8.39017     25.4 9.065e+03 4.529e-09
  8.40017     25.5 9.047e+03 4.555e-09
  8.41892     23.6 8.664e+03 3.120e-09
  8.43892     22.6 8.476e+03 2.792e-09
  8.45892     20.9 8.402e+03 2.751e-09
  8.47575     20.3 8.444e+03 2.879e-09
  8.48585     21.5 8.400e+03 2.617e-09
  8.49843     19.3 8.661e+03 3.285e-09
  8.50833     19.1 8.541e+03 3.053e-09
  8.51892     17.8 8.940e+03 4.457e-09
  8.53892     16.6 9.647e+03 7.220e-09
  8.55892     16.0 1.037e+04 1.113e-08
  8.57892     15.4 1.112e+04 1.582e-08
  8.59892     15.0 1.163e+04 1.886e-08
  8.61650     14.3 1.164e+04 1.851e-08
  8.62593     14.2 1.155e+04 1.805e-08
  8.62835     14.7 1.114e+04 1.513e-08
  8.63892     14.2 1.094e+04 1.358e-08
  8.65892     13.9 1.046e+04 1.024e-08
  8.67892     13.2 1.005e+04 7.189e-09
  8.69892     12.4 9.582e+03 5.018e-09
  8.71892     12.0 9.209e+03 3.689e-09
  8.73466     11.6 9.010e+03 2.764e-09
  8.74466     11.2 9.313e+03 3.795e-09
  8.75892     11.0 9.378e+03 3.740e-09
  8.77095     10.7 9.550e+03 4.002e-09
  8.78095     11.6 9.293e+03 3.293e-09
  8.79892     11.3 9.553e+03 3.782e-09
  8.81891     10.7 9.971e+03 5.184e-09
  8.83891     10.8 1.032e+04 7.115e-09
  8.85283     11.2 1.069e+04 9.037e-09
  8.86283     11.2 1.111e+04 1.184e-08
  8.87891     11.6 1.118e+04 1.190e-08
  8.89891     12.0 1.094e+04 1.001e-08
  8.91355     12.0 1.067e+04 7.564e-09
  8.92355     12.8 1.096e+04 9.765e-09
  8.93891     12.6 1.074e+04 7.571e-09
  8.95891     11.8 1.058e+04 6.136e-09
  8.97100     11.1 1.059e+04 6.347e-09
  8.98100     10.8 1.044e+04 5.787e-09
  8.99891     10.4 1.063e+04 7.052e-09
  9.01891     10.3 1.107e+04 9.637e-09
  9.03891     10.4 1.155e+04 1.308e-08
  9.05614     10.4 1.206e+04 1.759e-08
  9.06614     11.0 1.227e+04 1.863e-08
  9.07891     11.0 1.275e+04 2.426e-08
  9.08916     10.9 1.307e+04 2.621e-08
  9.09916     10.6 1.321e+04 2.761e-08
  9.11891      9.4 1.369e+04 2.915e-08
  9.13891      6.4 1.453e+04 3.413e-08
  9.15891      4.0 1.475e+04 4.589e-08
  9.17891      3.3 1.406e+04 5.067e-08
  9.19733      5.7 1.302e+04 3.241e-08
  9.20717      5.1 1.289e+04 3.045e-08
  9.20874      5.2 1.315e+04 3.376e-08
  9.21891      5.6 1.232e+04 1.486e-08
  9.23890      3.4 1.167e+04 6.770e-09
  9.25890      0.7 1.062e+04 3.771e-09
  9.27890      0.1 1.013e+04 3.706e-09
  9.30900      0.2 9.952e+03 4.573e-09
  9.34154      1.5 9.749e+03 4.619e-09
  9.36153      3.3 9.541e+03 3.402e-09
  9.38910      4.4 9.399e+03 3.650e-09
  9.42386      5.7 9.224e+03 3.362e-09
  9.44386      5.4 9.493e+03 4.583e-09
  9.46909      6.1 9.356e+03 3.817e-09
  9.50909      5.8 9.191e+03 3.865e-09
  9.54909      5.7 9.101e+03 4.740e-09
  9.58909      6.2 8.879e+03 5.131e-09
  9.62673      8.0 8.164e+03 3.465e-09
  9.64673      9.1 8.311e+03 3.907e-09
  9.66019     10.6 7.496e+03 1.607e-09
  9.68019     10.4 7.382e+03 1.340e-09
  9.70909      9.8 6.921e+03 8.190e-10
  9.74909     10.6 6.596e+03 7.531e-10
  9.78909     12.0 6.591e+03 7.895e-10
  9.82909     13.3 6.652e+03 8.605e-10
  9.86908     14.2 6.777e+03 1.032e-09
  9.89652     14.4 7.150e+03 1.542e-09
  9.91652     14.4 7.297e+03 1.822e-09
  9.93193     14.2 7.821e+03 2.865e-09
  9.95193     13.3 7.846e+03 3.020e-09
  9.98908     11.9 8.304e+03 4.166e-09
 10.01459     11.3 8.503e+03 5.229e-09
 10.02449     11.1 8.388e+03 4.695e-09
 10.03889     10.4 8.347e+03 4.753e-09
 10.05888      9.7 8.262e+03 4.573e-09
 10.07433      9.0 8.083e+03 4.137e-09
 10.08433      7.6 7.818e+03 3.504e-09
 10.09888      6.6 7.739e+03 3.323e-09
 10.11888      6.1 7.727e+03 3.336e-09
 10.13266      2.9 8.600e+03 4.142e-09
 10.14266      0.3 1.066e+04 5.920e-09
 10.15888    -10.3 1.489e+04 2.562e-08
 10.17888    -15.2 1.657e+04 1.017e-07
 10.19170    -15.7 1.728e+04 1.581e-07
 10.19665    -17.1 1.783e+04 2.210e-07
 10.20378    -17.7 1.827e+04 2.731e-07
 10.21378    -18.6 1.790e+04 2.453e-07
 10.22183    -18.9 1.786e+04 1.456e-07
 10.22683    -20.4 1.774e+04 1.048e-07
 10.23378    -26.0 1.541e+04 4.739e-08
 10.24378    -29.1 1.355e+04 3.108e-08
 10.25078    -31.3 1.220e+04 2.122e-08
 10.26083    -34.2 1.155e+04 1.688e-08
 10.27888    -35.5 1.056e+04 1.122e-08
 10.29888    -35.6 1.032e+04 9.860e-09
 10.31888    -35.1 1.028e+04 9.306e-09
 10.33888    -34.4 1.029e+04 9.170e-09
 10.35888    -33.7 1.059e+04 9.896e-09
 10.36909    -33.1 1.097e+04 1.173e-08
 10.38919    -34.3 1.068e+04 9.172e-09
 10.41897    -33.8 1.110e+04 1.280e-08
 10.43888    -33.3 1.157e+04 1.613e-08
 10.45888    -33.0 1.231e+04 2.319e-08
 10.47716    -32.9 1.328e+04 3.418e-08
 10.48716    -33.2 1.330e+04 3.345e-08
 10.49887    -33.7 1.467e+04 5.372e-08
 10.51212    -34.5 1.649e+04 9.690e-08
 10.52212    -36.2 1.572e+04 9.140e-08
 10.53887    -36.1 1.622e+04 1.182e-07
 10.55382    -36.0 1.648e+04 1.393e-07
 10.56378    -36.0 1.648e+04 1.330e-07
 10.57377    -36.4 1.658e+04 1.121e-07
 10.58332    -37.8 1.672e+04 8.576e-08
 10.58832    -39.8 1.562e+04 5.580e-08
 10.59377    -42.5 1.472e+04 4.147e-08
 10.60023    -44.6 1.397e+04 3.379e-08
 10.60523    -47.2 1.399e+04 3.489e-08
 10.61377    -50.0 1.362e+04 3.039e-08
 10.62377    -51.1 1.372e+04 2.989e-08
 10.63882    -54.9 1.351e+04 2.781e-08
 10.65472    -57.6 1.292e+04 2.495e-08
 10.66472    -54.9 1.191e+04 1.761e-08
 10.67887    -56.4 1.185e+04 1.737e-08
 10.69887    -57.1 1.212e+04 1.936e-08
 10.71349    -57.1 1.251e+04 2.163e-08
 10.72349    -59.3 1.272e+04 2.201e-08
 10.73887    -59.1 1.263e+04 2.177e-08
 10.75887    -59.0 1.242e+04 2.070e-08
 10.77887    -58.8 1.218e+04 1.986e-08
 10.79732    -58.6 1.208e+04 1.956e-08
 10.80732    -58.0 1.223e+04 2.174e-08
 10.81887    -57.8 1.215e+04 2.133e-08
 10.83166    -57.3 1.208e+04 2.095e-08
 10.84166    -58.0 1.211e+04 2.136e-08
 10.85887    -57.4 1.222e+04 2.148e-08
 10.87887    -56.8 1.227e+04 1.982e-08
 10.89886    -56.1 1.211e+04 1.754e-08
 10.91886    -55.5 1.190e+04 1.504e-08
 10.93886    -54.8 1.161e+04 1.266e-08
 10.94983    -54.0 1.127e+04 1.058e-08
 10.95983    -54.3 1.123e+04 1.317e-08
 10.97886    -53.2 1.105e+04 1.071e-08
 10.99886    -52.4 1.089e+04 8.733e-09
 11.01886    -51.6 1.070e+04 7.371e-09
 11.03886    -50.6 1.063e+04 6.850e-09
 11.05799    -49.5 1.063e+04 6.778e-09
 11.06799    -50.4 1.082e+04 7.287e-09
 11.07886    -49.5 1.080e+04 7.249e-09
 11.09251    -48.5 1.084e+04 7.600e-09
 11.10251    -47.7 1.049e+04 5.960e-09
 11.11886    -46.7 1.060e+04 6.356e-09
 11.13886    -45.7 1.077e+04 7.007e-09
 11.15886    -44.5 1.092e+04 7.483e-09
 11.18896    -43.5 1.097e+04 7.154e-09
 11.22905    -41.8 1.096e+04 6.821e-09
 11.26905    -40.5 1.118e+04 7.249e-09
 11.29452    -39.7 1.158e+04 9.012e-09
 11.31452    -42.0 1.187e+04 1.084e-08
 11.33895    -41.6 1.226e+04 1.473e-08
 11.35885    -41.9 1.251e+04 1.766e-08
 11.37771    -42.1 1.280e+04 2.152e-08
 11.38771    -41.7 1.309e+04 2.452e-08
 11.39885    -42.0 1.322e+04 2.660e-08
 11.41249    -42.4 1.325e+04 2.725e-08
 11.42249    -43.2 1.312e+04 2.585e-08
 11.43885    -43.4 1.293e+04 2.289e-08
 11.45885    -44.3 1.272e+04 2.044e-08
 11.47885    -45.7 1.272e+04 1.972e-08
 11.49885    -47.9 1.304e+04 2.211e-08
 11.51885    -50.5 1.375e+04 2.771e-08
 11.53031    -52.7 1.437e+04 3.741e-08
 11.53212    -53.0 1.452e+04 4.108e-08
 11.54066    -55.3 1.525e+04 6.008e-08
 11.55885    -56.2 1.543e+04 6.735e-08
 11.57885    -57.1 1.506e+04 5.924e-08
 11.59885    -57.7 1.432e+04 4.245e-08
 11.61885    -58.6 1.348e+04 2.763e-08
 11.63882    -59.5 1.277e+04 1.935e-08
 11.65882    -62.7 1.213e+04 1.282e-08
 11.67291    -63.2 1.224e+04 1.322e-08
 11.68291    -64.1 1.268e+04 1.653e-08
 11.69885    -64.6 1.295e+04 1.989e-08
 11.71885    -65.0 1.313e+04 2.256e-08
 11.73884    -65.5 1.320e+04 2.337e-08
 11.75699    -66.1 1.310e+04 2.199e-08
 11.76699    -67.7 1.283e+04 1.828e-08
 11.77884    -68.3 1.257e+04 1.598e-08
 11.79884    -68.7 1.238e+04 1.367e-08
 11.81550    -69.0 1.222e+04 1.150e-08
 11.82550    -69.7 1.204e+04 9.448e-09
 11.83884    -70.0 1.172e+04 7.347e-09
 11.85884    -70.3 1.136e+04 5.829e-09
 11.87516    -70.6 1.103e+04 4.860e-09
 11.88516    -71.1 1.081e+04 3.815e-09
 11.89884    -71.0 1.061e+04 3.325e-09
 11.91884    -70.8 1.049e+04 3.038e-09
 11.93884    -70.6 1.043e+04 2.852e-09
 11.95810    -70.5 1.038e+04 2.747e-09
 11.96820    -70.9 1.027e+04 2.504e-09
 11.98352    -70.8 1.018e+04 2.255e-09
 12.00352    -70.9 1.027e+04 2.125e-09
 12.02903    -71.0 1.026e+04 2.092e-09
 12.05893    -71.7 1.049e+04 2.503e-09
 12.07884    -72.4 1.071e+04 3.288e-09
 12.09884    -73.0 1.103e+04 4.789e-09
 12.11070    -73.2 1.140e+04 6.313e-09
 12.11335    -73.2 1.121e+04 5.389e-09
 12.12149    -73.1 1.128e+04 5.290e-09
 12.13884    -73.3 1.164e+04 6.596e-09
 12.15883    -73.9 1.183e+04 7.189e-09
 12.17883    -74.8 1.188e+04 7.322e-09
 12.19883    -75.7 1.186e+04 7.269e-09
 12.21883    -76.6 1.196e+04 7.605e-09
 12.22966    -77.4 1.212e+04 8.896e-09
 12.23966    -77.3 1.234e+04 9.148e-09
 12.25340    -78.4 1.272e+04 1.185e-08
 12.26340    -78.2 1.259e+04 1.109e-08
 12.27883    -79.0 1.284e+04 1.294e-08
 12.30893    -80.3 1.300e+04 1.404e-08
 12.34903    -82.9 1.285e+04 1.359e-08
 12.38902    -84.3 1.217e+04 7.880e-09
 12.42902    -85.7 1.186e+04 5.003e-09
 12.45618    -86.7 1.184e+04 4.358e-09
 12.47618    -86.8 1.227e+04 6.169e-09
 12.50902    -87.8 1.230e+04 5.687e-09
 12.53869    -88.6 1.239e+04 5.486e-09
 12.55869    -88.4 1.262e+04 7.616e-09
 12.58902    -89.3 1.274e+04 7.853e-09
 12.62902    -90.2 1.285e+04 7.719e-09
 12.66902    -91.4 1.297e+04 8.046e-09
 12.69252    -93.0 1.308e+04 8.814e-09
 12.71252    -94.1 1.309e+04 9.310e-09
 12.74902    -95.9 1.301e+04 9.226e-09
 12.78901    -97.3 1.263e+04 7.212e-09
 12.82389    -98.4 1.225e+04 4.844e-09
 12.84388    -98.9 1.206e+04 3.586e-09
 12.85892    -99.8 1.188e+04 3.096e-09
 12.87882   -100.0 1.186e+04 3.071e-09
 12.89882   -100.4 1.188e+04 3.209e-09
 12.91865   -100.9 1.201e+04 3.915e-09
 12.92875   -101.1 1.186e+04 2.860e-09
 12.94901   -102.0 1.199e+04 4.010e-09
 12.97639   -102.5 1.232e+04 6.247e-09
 12.98629   -102.0 1.204e+04 5.245e-09
 12.99881   -102.3 1.212e+04 5.884e-09
 13.01881   -102.9 1.211e+04 6.762e-09
 13.03682   -103.4 1.191e+04 6.829e-09
 13.04682   -102.8 1.167e+04 5.752e-09
 13.05881   -103.1 1.130e+04 5.639e-09
 13.07881   -103.3 1.114e+04 5.326e-09
 13.09881   -103.6 1.114e+04 5.265e-09
 13.11881   -104.5 1.136e+04 5.399e-09
 13.13881   -104.4 1.150e+04 5.696e-09
 13.15499   -106.6 1.255e+04 1.050e-08
 13.16499   -105.3 1.206e+04 9.702e-09
 13.17881   -107.1 1.326e+04 1.959e-08
 13.19881   -108.2 1.432e+04 3.496e-08
 13.21881   -109.3 1.498e+04 4.493e-08
 13.23881   -111.0 1.513e+04 4.621e-08
 13.25881   -113.1 1.498e+04 3.334e-08
 13.27148   -115.6 1.450e+04 1.849e-08
 13.27583   -113.3 1.496e+04 3.045e-08
 13.28315   -112.6 1.573e+04 4.873e-08
 13.29881   -115.6 1.526e+04 3.371e-08
 13.31881   -118.6 1.473e+04 2.598e-08
 13.33881   -121.2 1.420e+04 2.353e-08
 13.35881   -123.2 1.376e+04 2.278e-08
 13.37881   -125.0 1.335e+04 2.225e-08
 13.39132   -126.4 1.296e+04 2.114e-08
 13.40132   -127.2 1.325e+04 2.589e-08
 13.41408   -128.7 1.265e+04 2.002e-08
 13.42408   -126.9 1.318e+04 2.537e-08
 13.43880   -128.5 1.263e+04 1.959e-08
 13.45880   -130.0 1.209e+04 1.550e-08
 13.47880   -131.5 1.162e+04 1.283e-08
 13.49880   -132.7 1.133e+04 1.151e-08
 13.50949   -133.7 1.120e+04 1.102e-08
 13.51949   -134.7 1.119e+04 1.151e-08
 13.53880   -135.4 1.114e+04 1.123e-08
 13.55668   -136.1 1.106e+04 1.071e-08
 13.56668   -136.1 1.123e+04 1.171e-08
 13.57880   -136.9 1.099e+04 1.073e-08
 13.59880   -137.4 1.074e+04 9.637e-09
 13.61765   -137.6 1.056e+04 8.661e-09
 13.63775   -138.8 1.027e+04 7.903e-09
 13.66899   -139.3 9.928e+03 6.067e-09
 13.69947   -139.5 9.940e+03 5.330e-09
 13.71947   -140.3 1.012e+04 6.607e-09
 13.74899   -140.3 1.017e+04 6.420e-09
 13.78899   -140.2 1.034e+04 6.366e-09
 13.82899   -140.1 1.058e+04 6.591e-09
 13.85197   -139.7 1.068e+04 6.765e-09
 13.85707   -139.9 1.076e+04 7.275e-09
 13.87408   -140.8 1.071e+04 7.436e-09
 13.90899   -140.5 1.098e+04 8.384e-09
 13.93889   -140.3 1.122e+04 9.516e-09
 13.95879   -140.2 1.135e+04 1.020e-08
 13.97215   -140.2 1.151e+04 1.110e-08
 13.98215   -140.9 1.158e+04 1.148e-08
 13.99447   -141.0 1.169e+04 1.215e-08
 14.00447   -142.0 1.174e+04 1.205e-08
 14.01879   -142.2 1.196e+04 1.323e-08
 14.03879   -142.6 1.214e+04 1.425e-08
 14.05879   -143.0 1.233e+04 1.516e-08
 14.07879   -143.5 1.252e+04 1.597e-08
 14.09032   -144.1 1.279e+04 1.720e-08
 14.10032   -145.2 1.281e+04 1.700e-08
 14.11879   -145.9 1.315e+04 1.946e-08
 14.13707   -146.5 1.360e+04 2.363e-08
 14.14707   -147.4 1.374e+04 2.447e-08
 14.15879   -148.2 1.411e+04 2.993e-08
 14.17879   -149.0 1.436e+04 3.436e-08
 14.19848   -149.8 1.442e+04 3.585e-08
 14.20848   -151.0 1.379e+04 2.423e-08
 14.21879   -151.8 1.370e+04 2.356e-08
 14.23878   -152.5 1.359e+04 2.319e-08
 14.25878   -153.1 1.355e+04 2.333e-08
 14.27878   -153.6 1.359e+04 2.460e-08
 14.28967   -153.9 1.367e+04 2.591e-08
 14.29967   -153.8 1.306e+04 1.813e-08
 14.31665   -153.9 1.307e+04 1.834e-08
 14.32665   -154.6 1.273e+04 1.350e-08
 14.33878   -154.5 1.268e+04 1.320e-08
 14.35878   -154.1 1.264e+04 1.292e-08
 14.37878   -153.8 1.265e+04 1.283e-08
 14.39878   -153.7 1.276e+04 1.292e-08
 14.41878   -155.0 1.343e+04 1.387e-08
 14.43227   -159.5 1.638e+04 3.697e-08
 14.43830   -158.0 1.586e+04 2.091e-08
 14.44482   -160.2 1.594e+04 2.631e-08
 14.45878   -163.9 1.760e+04 1.119e-07
 14.47373   -165.9 1.830e+04 2.466e-07
 14.48368   -168.3 1.867e+04 3.301e-07
 14.49368   -171.7 1.878e+04 3.654e-07
 14.49880   -175.3 1.864e+04 3.407e-07
 14.50359   -175.3 1.849e+04 2.882e-07
 14.50847   -175.1 1.862e+04 3.255e-07
 14.51368   -178.1 1.811e+04 2.128e-07
 14.52368   -181.2 1.732e+04 1.003e-07
 14.53368   -184.5 1.612e+04 4.748e-08
 14.54368   -186.7 1.513e+04 3.074e-08
 14.55293   -188.0 1.463e+04 2.472e-08
 14.56298   -186.3 1.447e+04 2.224e-08
 14.57486   -187.1 1.370e+04 1.318e-08
 14.58486   -187.1 1.378e+04 1.416e-08
 14.59878   -187.1 1.328e+04 9.160e-09
 14.61878   -186.9 1.313e+04 6.843e-09
 14.63878   -186.1 1.303e+04 5.435e-09
 14.65877   -185.3 1.294e+04 4.501e-09
 14.67115   -184.4 1.284e+04 3.949e-09
 14.68115   -183.3 1.279e+04 3.176e-09
 14.69877   -182.1 1.282e+04 2.906e-09
 14.71746   -180.9 1.285e+04 2.842e-09
 14.72746   -181.0 1.274e+04 3.014e-09
 14.73877   -179.9 1.279e+04 2.972e-09
 14.75877   -179.2 1.284e+04 2.970e-09
 14.77941   -178.5 1.282e+04 2.963e-09
 14.79951   -177.4 1.295e+04 2.610e-09
 14.82897   -175.9 1.294e+04 2.534e-09
 14.86026   -174.6 1.291e+04 2.432e-09
 14.88026   -174.8 1.309e+04 3.069e-09
 14.90896   -174.1 1.313e+04 2.929e-09
 14.94896   -173.6 1.300e+04 2.669e-09
 14.98896   -173.5 1.290e+04 2.211e-09
 15.01584   -173.4 1.289e+04 1.632e-09
 15.03584   -172.3 1.312e+04 2.846e-09
 15.06896   -172.5 1.305e+04 1.971e-09
 15.10896   -172.6 1.311e+04 1.232e-09
 15.14545   -172.4 1.312e+04 8.816e-10
 15.16545   -173.1 1.311e+04 8.149e-10
 15.18896   -172.4 1.310e+04 6.986e-10
 15.22896   -171.2 1.333e+04 5.856e-10
 15.25218   -169.8 1.356e+04 5.067e-10
 15.27218   -169.3 1.359e+04 5.066e-10
 15.30895   -167.6 1.373e+04 4.681e-10
 15.34895   -165.6 1.376e+04 4.577e-10
 15.38895   -163.7 1.377e+04 4.562e-10
 15.42895   -161.7 1.375e+04 4.576e-10
 15.45065   -159.7 1.369e+04 4.674e-10
 15.47021   -159.9 1.393e+04 4.714e-10
 15.48851   -159.1 1.405e+04 4.820e-10
 15.50895   -157.3 1.411e+04 5.096e-10
 15.54895   -155.5 1.411e+04 5.339e-10
 15.58895   -153.9 1.405e+04 5.582e-10
 15.62895   -152.3 1.397e+04 5.940e-10
 15.66895   -150.7 1.397e+04 6.364e-10
 15.70484   -149.0 1.396e+04 7.182e-10
 15.72484   -148.3 1.400e+04 7.252e-10
 15.73584   -146.6 1.395e+04 8.573e-10
 15.75584   -146.6 1.407e+04 7.553e-10
 15.78894   -144.9 1.405e+04 9.416e-10
 15.82894   -143.3 1.405e+04 1.210e-09
 15.86894   -141.9 1.407e+04 1.520e-09
 15.90894   -140.7 1.410e+04 1.794e-09
 15.94117   -139.6 1.413e+04 1.940e-09
 15.96117   -139.1 1.414e+04 1.977e-09
 15.98894   -138.2 1.414e+04 2.002e-09
 16.02104   -137.3 1.411e+04 1.953e-09
 16.04104   -137.5 1.416e+04 2.122e-09
 16.06894   -136.5 1.417e+04 1.905e-09
 16.10894   -135.4 1.423e+04 1.633e-09
 16.14893   -134.4 1.430e+04 1.419e-09
 16.17751   -133.4 1.439e+04 1.283e-09
 16.19751   -132.4 1.441e+04 1.284e-09
 16.22893   -131.5 1.449e+04 1.143e-09
 16.26893   -130.6 1.454e+04 1.008e-09
 16.30624   -129.5 1.460e+04 8.826e-10
 16.32623   -129.9 1.457e+04 1.126e-09
 16.34893   -128.5 1.459e+04 9.103e-10
 16.38893   -126.7 1.467e+04 7.310e-10
 16.41384   -124.7 1.477e+04 6.043e-10
 16.43384   -124.1 1.480e+04 5.370e-10
 16.46893   -122.0 1.487e+04 4.796e-10
 16.50893   -119.8 1.490e+04 4.586e-10
 16.54892   -117.5 1.495e+04 4.500e-10
 16.58892   -115.2 1.503e+04 4.440e-10
 16.61143   -112.9 1.512e+04 4.396e-10
 16.63143   -113.1 1.520e+04 4.731e-10
 16.65017   -110.8 1.526e+04 4.856e-10
 16.67017   -110.0 1.525e+04 4.724e-10
 16.70892   -107.6 1.533e+04 4.802e-10
 16.74892   -105.3 1.544e+04 4.973e-10
 16.78892   -103.1 1.554e+04 5.440e-10
 16.82892   -101.2 1.552e+04 6.593e-10
 16.86651    -99.6 1.551e+04 8.934e-10
 16.88651    -99.3 1.544e+04 1.327e-09
 16.89663    -98.2 1.538e+04 2.448e-09
 16.91663    -98.8 1.533e+04 3.268e-09
 16.94892    -98.1 1.534e+04 4.855e-09
 16.98891    -98.0 1.533e+04 5.730e-09
 17.02891    -98.1 1.531e+04 5.853e-09
 17.06891    -97.8 1.524e+04 5.026e-09
 17.10284    -97.3 1.519e+04 4.157e-09
 17.12284    -98.3 1.522e+04 5.615e-09
 17.14891    -97.4 1.512e+04 4.479e-09
 17.18182    -96.4 1.510e+04 4.090e-09
 17.20182    -97.1 1.516e+04 3.651e-09
 17.22891    -95.7 1.514e+04 3.406e-09
 17.26891    -94.3 1.511e+04 3.401e-09
 17.30891    -92.9 1.507e+04 3.421e-09
 17.33917    -91.3 1.476e+04 3.332e-09
 17.35917    -91.1 1.513e+04 1.946e-09
 17.38890    -89.3 1.506e+04 1.781e-09
 17.42890    -87.4 1.517e+04 1.513e-09
 17.46702    -85.5 1.533e+04 1.295e-09
 17.48702    -85.4 1.537e+04 1.405e-09
 17.50890    -83.6 1.550e+04 1.372e-09
 17.54890    -81.8 1.554e+04 1.349e-09
 17.57550    -80.1 1.552e+04 1.330e-09
 17.59550    -79.4 1.564e+04 1.488e-09
 17.62890    -77.8 1.565e+04 1.605e-09
 17.66890    -76.3 1.556e+04 1.828e-09
 17.70890    -74.8 1.542e+04 2.113e-09
 17.74890    -73.2 1.526e+04 2.360e-09
 17.77221    -71.5 1.518e+04 2.413e-09
 17.79221    -71.6 1.498e+04 2.590e-09
 17.81184    -69.5 1.505e+04 2.015e-09
 17.83184    -68.9 1.495e+04 4.165e-09
 17.86889    -66.7 1.502e+04 2.968e-09
 17.90889    -64.2 1.520e+04 1.847e-09
 17.94889    -61.5 1.567e+04 1.059e-09
 17.98889    -59.0 1.566e+04 7.546e-10
 18.02817    -56.3 1.567e+04 6.676e-10
 18.04817    -55.6 1.529e+04 2.016e-09
 18.05741    -52.8 1.547e+04 1.776e-09
 18.07741    -52.7 1.548e+04 1.634e-09
 18.10889    -49.9 1.560e+04 1.606e-09
 18.14889    -47.3 1.549e+04 2.120e-09
 18.18889    -44.7 1.535e+04 3.171e-09
 18.22888    -42.2 1.545e+04 4.416e-09
 18.26450    -40.4 1.542e+04 5.397e-09
 18.28440    -38.2 1.545e+04 7.254e-09
 18.29869    -37.4 1.543e+04 8.476e-09
 18.31869    -37.1 1.549e+04 8.940e-09
 18.33869    -37.1 1.555e+04 9.672e-09
 18.35241    -37.7 1.549e+04 1.109e-08
 18.36241    -37.7 1.544e+04 1.085e-08
 18.37869    -39.1 1.520e+04 1.257e-08
 18.39247    -40.3 1.512e+04 1.607e-08
 18.40247    -40.8 1.566e+04 1.992e-08
 18.41868    -42.0 1.564e+04 2.520e-08
 18.43868    -43.1 1.564e+04 2.674e-08
 18.45868    -43.9 1.569e+04 2.759e-08
 18.47868    -44.2 1.575e+04 2.817e-08
 18.49501    -44.1 1.578e+04 2.686e-08
 18.50501    -44.1 1.574e+04 2.483e-08
 18.51064    -43.8 1.578e+04 2.081e-08
 18.52064    -45.3 1.606e+04 4.013e-08
 18.53868    -44.7 1.601e+04 3.510e-08
 18.55868    -44.1 1.590e+04 3.243e-08
 18.57868    -43.1 1.568e+04 2.868e-08
 18.59868    -41.8 1.568e+04 2.605e-08
 18.61868    -40.7 1.564e+04 2.367e-08
 18.62881    -39.6 1.553e+04 2.153e-08
 18.63773    -40.0 1.557e+04 2.427e-08
 18.64761    -39.6 1.554e+04 2.231e-08
 18.66878    -38.0 1.541e+04 1.879e-08
 18.70887    -35.8 1.539e+04 1.802e-08
 18.73717    -33.5 1.549e+04 1.848e-08
 18.75717    -34.5 1.517e+04 1.579e-08
 18.78887    -32.4 1.526e+04 1.849e-08
 18.81877    -30.9 1.553e+04 2.294e-08
 18.83867    -30.5 1.560e+04 2.511e-08
 18.85514    -29.8 1.565e+04 3.081e-08
 18.86514    -29.8 1.558e+04 2.477e-08
 18.87867    -29.6 1.564e+04 2.623e-08
 18.89867    -29.0 1.561e+04 2.906e-08
 18.91867    -28.7 1.563e+04 2.924e-08
 18.93280    -28.4 1.560e+04 2.669e-08
 18.94280    -28.2 1.568e+04 3.260e-08
 18.95867    -28.0 1.556e+04 2.991e-08
 18.97330    -27.8 1.541e+04 2.529e-08
 18.98330    -27.3 1.531e+04 2.341e-08
 18.99867    -26.4 1.509e+04 2.090e-08
 19.02877    -25.6 1.511e+04 1.132e-08
 19.06886    -24.2 1.518e+04 4.454e-09
 19.10886    -23.5 1.521e+04 2.742e-09
 19.14886    -22.0 1.517e+04 2.942e-09
 19.18886    -20.6 1.502e+04 3.458e-09
 19.20983    -19.5 1.538e+04 3.400e-09
 19.21917    -19.2 1.512e+04 4.010e-09
 19.23819    -19.2 1.509e+04 5.327e-09
 19.26886    -18.3 1.508e+04 4.942e-09
 19.30886    -16.9 1.521e+04 3.294e-09
 19.34886    -16.0 1.560e+04 1.709e-09
 19.38886    -15.2 1.545e+04 1.486e-09
 19.42617    -14.2 1.539e+04 1.666e-09
 19.44617    -14.2 1.540e+04 1.800e-09
 19.46885    -13.4 1.521e+04 2.254e-09
 19.50339    -12.7 1.491e+04 2.806e-09
 19.52339    -12.5 1.481e+04 3.684e-09
 19.53876    -12.2 1.469e+04 3.679e-09
 19.55414    -12.1 1.467e+04 3.666e-09
 19.56414    -12.2 1.468e+04 3.562e-09
 19.58875    -11.9 1.448e+04 3.825e-09
 19.62885    -11.7 1.433e+04 3.874e-09
 19.66250    -11.4 1.413e+04 4.164e-09
 19.68250    -11.4 1.416e+04 3.948e-09
 19.70885    -10.7 1.370e+04 4.971e-09
 19.74885     -9.8 1.353e+04 4.827e-09
 19.77875     -8.5 1.343e+04 3.805e-09
 19.79047     -8.5 1.345e+04 3.616e-09
 19.80021     -8.6 1.338e+04 3.723e-09
 19.80849     -8.0 1.365e+04 3.846e-09
 19.82885     -7.3 1.375e+04 3.446e-09
 19.86885     -7.4 1.376e+04 4.643e-09
 19.89883     -8.2 1.379e+04 1.067e-08
 19.91883     -9.7 1.375e+04 1.496e-08
 19.93875     -9.5 1.373e+04 1.978e-08
 19.95099     -9.6 1.368e+04 2.074e-08
 19.96099     -9.4 1.382e+04 2.248e-08
 19.97865     -9.6 1.369e+04 1.826e-08
 19.99865     -9.8 1.356e+04 1.613e-08
 20.02874    -10.6 1.318e+04 1.279e-08
 20.06884    -10.8 1.298e+04 1.280e-08
 20.09368    -11.3 1.303e+04 1.473e-08
 20.10359    -11.4 1.314e+04 1.567e-08
 20.11864    -11.3 1.303e+04 1.742e-08
 20.13497    -11.3 1.296e+04 1.801e-08
 20.14497    -11.4 1.294e+04 1.721e-08
 20.15864    -11.4 1.287e+04 1.695e-08
 20.17864    -11.5 1.268e+04 1.606e-08
 20.19864    -11.7 1.256e+04 1.535e-08
 20.22874    -12.2 1.255e+04 1.487e-08
 20.26884    -12.5 1.211e+04 1.151e-08
 20.30883    -12.6 1.176e+04 8.433e-09
 20.33874    -12.6 1.153e+04 8.225e-09
 20.35864    -12.6 1.154e+04 8.216e-09
 20.37130    -12.6 1.148e+04 8.965e-09
 20.38154    -12.0 1.164e+04 9.423e-09
 20.39888    -11.5 1.159e+04 8.812e-09
 20.41864    -12.1 1.190e+04 1.119e-08
 20.43864    -14.2 1.259e+04 1.669e-08
 20.45864    -15.8 1.307e+04 2.896e-08
 20.47864    -16.6 1.322e+04 3.355e-08
 20.48947    -16.3 1.299e+04 1.738e-08
 20.49947    -16.3 1.397e+04 4.307e-08
 20.51863    -15.8 1.304e+04 1.289e-08
 20.54873    -19.4 1.139e+04 3.039e-09
 20.58783    -24.1 9.403e+03 8.269e-10
 20.60783    -24.6 1.036e+04 1.330e-09
 20.62883    -26.6 9.614e+03 1.115e-09
 20.66417    -26.5 9.741e+03 2.530e-09
 20.68417    -25.9 9.740e+03 2.083e-09
 20.70883    -24.4 9.790e+03 3.498e-09
 20.74882    -23.4 1.015e+04 4.676e-09
 20.78882    -22.8 1.033e+04 5.916e-09
 20.82416    -22.1 1.033e+04 6.272e-09
 20.84416    -23.3 1.061e+04 7.153e-09
 20.86882    -22.9 1.040e+04 5.393e-09
 20.90882    -23.1 1.032e+04 4.585e-09
 20.93872    -22.8 1.018e+04 4.951e-09
 20.95213    -22.5 1.020e+04 5.065e-09
 20.96213    -22.8 1.010e+04 4.470e-09
 20.96917    -22.5 1.006e+04 3.904e-09
 20.97917    -22.2 1.010e+04 4.837e-09
 20.99862    -21.8 9.966e+03 4.568e-09
 21.01862    -21.6 1.004e+04 3.726e-09
 21.03862    -21.4 9.810e+03 3.458e-09
 21.05862    -21.2 9.840e+03 2.926e-09
 21.07030    -21.1 9.777e+03 2.849e-09
 21.08040    -21.4 9.764e+03 2.939e-09
 21.10882    -21.1 9.734e+03 2.706e-09
 21.14881    -21.4 9.936e+03 3.265e-09
 21.18881    -21.3 1.019e+04 5.322e-09
 21.22881    -20.8 1.036e+04 6.643e-09
 21.25456    -20.6 1.033e+04 6.382e-09
 21.27456    -20.2 1.030e+04 5.903e-09
 21.29683    -20.0 1.025e+04 6.261e-09
 21.31683    -20.2 1.026e+04 5.889e-09
 21.34881    -19.2 1.005e+04 5.201e-09
 21.38881    -18.0 9.927e+03 3.675e-09
 21.42881    -17.6 9.863e+03 3.077e-09
 21.46881    -16.7 9.831e+03 3.249e-09
 21.50881    -15.5 9.888e+03 3.557e-09
 21.53316    -14.2 1.003e+04 3.693e-09
 21.54411    -13.8 9.920e+03 2.846e-09
 21.55976    -13.7 9.875e+03 2.832e-09
 21.58880    -12.8 9.915e+03 2.909e-09
 21.62880    -11.9 9.970e+03 3.292e-09
 21.66880    -10.7 9.992e+03 3.941e-09
 21.70880     -9.4 1.018e+04 4.073e-09
 21.74880     -8.0 1.013e+04 3.714e-09
 21.76949     -6.5 1.002e+04 2.982e-09
 21.78949     -6.3 1.001e+04 2.420e-09
 21.82496     -5.1 1.000e+04 1.913e-09
 21.84496     -4.5 9.926e+03 2.033e-09
 21.86880     -3.0 1.002e+04 1.891e-09
 21.90880     -2.0 1.016e+04 2.093e-09
 21.94880     -1.1 1.032e+04 3.066e-09
 21.98583     -0.3 1.054e+04 4.858e-09
 22.00583     -1.1 1.049e+04 4.824e-09
 22.02879     -0.5 1.069e+04 6.965e-09
 22.06879     -0.5 1.073e+04 7.982e-09
 22.10879     -0.4 1.058e+04 7.803e-09
 22.13015     -0.0 1.021e+04 6.472e-09
 22.15015      0.3 1.018e+04 6.478e-09
 22.18879      0.9 9.827e+03 4.960e-09
 22.22216      1.7 9.504e+03 3.733e-09
 22.24216      1.4 9.370e+03 3.016e-09
 22.26879      2.6 9.151e+03 2.437e-09
 22.30879      3.9 8.966e+03 2.013e-09
 22.34879      5.4 8.801e+03 1.728e-09
 22.38878      7.1 8.691e+03 1.584e-09
 22.41535      8.9 8.589e+03 1.474e-09
 22.43535      9.5 8.496e+03 1.290e-09
 22.45849     11.4 8.412e+03 1.066e-09
 22.47849     11.2 8.621e+03 1.523e-09
 22.50878     12.7 8.655e+03 1.536e-09
 22.54878     13.9 8.745e+03 1.670e-09
 22.58878     15.0 8.870e+03 1.924e-09
 22.62878     16.0 8.963e+03 2.222e-09
 22.66878     16.8 9.021e+03 2.550e-09
 22.69482     17.6 9.081e+03 2.890e-09
 22.70659     16.8 9.390e+03 3.717e-09
 22.72054     18.0 9.225e+03 3.342e-09
 22.74878     18.7 9.270e+03 3.312e-09
 22.78878     19.2 9.349e+03 3.402e-09
 22.82877     19.7 9.421e+03 3.544e-09
 22.86877     20.1 9.314e+03 3.274e-09
 22.90877     20.6 9.126e+03 2.800e-09
 22.93116     20.9 8.943e+03 2.310e-09
 22.95116     20.2 8.873e+03 1.926e-09
 22.98574     20.6 8.748e+03 1.573e-09
 23.00574     21.9 8.760e+03 1.643e-09
 23.02877     22.3 8.687e+03 1.401e-09
 23.06877     22.7 8.694e+03 1.363e-09
 23.10877     23.2 8.725e+03 1.441e-09
 23.14749     23.6 8.883e+03 1.703e-09
 23.16749     23.4 8.929e+03 1.752e-09
 23.18877     23.9 9.171e+03 2.123e-09
 23.21867     24.2 9.242e+03 2.314e-09
 23.23857     24.2 9.324e+03 2.473e-09
 23.25857     23.8 9.676e+03 2.899e-09
 23.27546     18.8 1.237e+04 7.407e-09
 23.28546     21.5 1.115e+04 4.579e-09
 23.29074     13.6 1.505e+04 3.330e-08
 23.30074     13.9 1.493e+04 3.199e-08
 23.31857     10.5 1.605e+04 1.134e-07
 23.33857      9.9 1.586e+04 1.078e-07
 23.35857      8.5 1.580e+04 5.774e-08
 23.37857      2.2 1.583e+04 1.739e-08
 23.39363     -5.5 1.223e+04 9.297e-09
 23.40363     -2.5 1.384e+04 9.593e-09
 23.41856     -6.5 1.136e+04 7.279e-09
 23.43334     -6.4 1.113e+04 5.726e-09
 23.44334     -5.3 1.114e+04 6.370e-09
 23.45856     -5.7 1.146e+04 4.195e-09
 23.47856     -8.2 1.200e+04 3.037e-09
 23.49856    -12.2 1.236e+04 3.546e-09
 23.51179    -14.2 1.174e+04 5.881e-09
 23.52179    -13.9 1.174e+04 5.251e-09
 23.53856    -12.9 1.069e+04 9.530e-09
 23.55856    -11.5 1.099e+04 7.620e-09
 23.57594    -11.4 1.254e+04 2.940e-09
 23.58594     -9.3 1.212e+04 4.471e-09
 23.59856    -13.1 1.308e+04 2.503e-09
 23.61856    -17.1 1.160e+04 2.215e-09
 23.62996    -18.4 1.061e+04 3.010e-09
 23.63996    -17.9 1.065e+04 2.684e-09
 23.65856    -17.5 1.081e+04 3.531e-09
 23.67856    -17.4 1.127e+04 3.505e-09
 23.69856    -18.3 1.181e+04 2.923e-09
 23.71853    -20.0 1.178e+04 2.782e-09
 23.73810    -20.8 1.184e+04 3.482e-09
 23.74813    -20.5 1.193e+04 3.578e-09
 23.75856    -21.3 1.171e+04 4.193e-09
 23.78865    -21.4 1.159e+04 4.893e-09
 23.82875    -21.4 1.145e+04 4.840e-09
 23.85639    -20.6 1.150e+04 3.645e-09
 23.86897    -20.5 1.150e+04 3.659e-09
 23.88133    -19.8 1.147e+04 3.249e-09
 23.90875    -19.2 1.155e+04 3.024e-09
 23.94875    -19.5 1.194e+04 5.284e-09
 23.97456    -20.0 1.236e+04 9.195e-09
 23.98446    -20.2 1.246e+04 1.036e-08
 23.99855    -21.3 1.337e+04 1.563e-08
 24.01373    -23.1 1.445e+04 3.098e-08
 24.02373    -22.6 1.445e+04 2.611e-08
 24.03855    -24.0 1.521e+04 5.637e-08
 24.05855    -24.2 1.570e+04 8.247e-08
 24.07855    -26.0 1.550e+04 7.472e-08
 24.09262    -27.9 1.459e+04 5.051e-08
 24.10262    -28.8 1.357e+04 2.847e-08
 24.11855    -30.1 1.310e+04 2.437e-08
 24.13855    -30.9 1.303e+04 2.173e-08
 24.15633    -32.1 1.296e+04 1.953e-08
 24.16633    -32.3 1.312e+04 1.220e-08
 24.17855    -33.9 1.302e+04 1.079e-08
 24.19855    -35.1 1.288e+04 1.050e-08
 24.21079    -35.7 1.268e+04 1.061e-08
 24.22079    -35.1 1.264e+04 9.266e-09
 24.23855    -35.5 1.232e+04 9.034e-09
 24.25854    -35.8 1.201e+04 7.938e-09
 24.27854    -35.7 1.198e+04 7.656e-09
 24.29854    -35.8 1.180e+04 5.680e-09
 24.30893    -35.4 1.192e+04 4.252e-09
 24.31892    -35.4 1.147e+04 4.017e-09
 24.32896    -36.1 1.140e+04 2.942e-09
 24.33896    -35.3 1.138e+04 2.600e-09
 24.35854    -35.5 1.152e+04 2.311e-09
 24.37854    -36.1 1.149e+04 2.118e-09
 24.39854    -36.7 1.188e+04 2.569e-09
 24.41854    -37.2 1.192e+04 3.856e-09
 24.43712    -37.2 1.205e+04 5.793e-09
 24.44712    -36.4 1.191e+04 3.826e-09
 24.45152    -36.2 1.202e+04 5.632e-09
 24.46152    -36.3 1.196e+04 4.966e-09
 24.47854    -35.9 1.212e+04 5.514e-09
 24.49854    -35.8 1.214e+04 5.626e-09
 24.51854    -35.8 1.214e+04 4.957e-09
 24.53854    -35.9 1.217e+04 4.390e-09
 24.55529    -36.1 1.204e+04 3.808e-09
 24.56529    -35.4 1.211e+04 4.446e-09
 24.57854    -35.6 1.192e+04 4.177e-09
 24.59412    -35.4 1.187e+04 4.096e-09
 24.60412    -35.5 1.168e+04 3.930e-09
 24.62863    -34.8 1.168e+04 4.158e-09
 24.66873    -33.5 1.152e+04 3.423e-09
 24.70873    -32.0 1.148e+04 2.370e-09
 24.73691    -30.4 1.150e+04 1.613e-09
 24.75691    -30.1 1.154e+04 1.451e-09
 24.78182    -28.7 1.158e+04 1.168e-09
 24.80182    -28.1 1.170e+04 1.248e-09
 24.82873    -26.6 1.169e+04 1.139e-09
 24.86873    -25.4 1.202e+04 1.264e-09
 24.90872    -25.1 1.187e+04 2.342e-09
 24.94872    -24.1 1.202e+04 4.813e-09
 24.98872    -23.1 1.248e+04 7.573e-09
 25.01815    -22.9 1.261e+04 8.172e-09
 25.03154    -22.8 1.270e+04 7.685e-09
 25.04211    -23.1 1.256e+04 4.774e-09
 25.06872    -22.9 1.275e+04 4.348e-09
 25.10872    -23.1 1.315e+04 3.874e-09
 25.14872    -23.2 1.337e+04 5.687e-09
 25.18872    -22.6 1.334e+04 8.754e-09
 25.22872    -21.9 1.347e+04 9.842e-09
 25.25448    -21.2 1.339e+04 8.045e-09
 25.27448    -21.8 1.396e+04 1.316e-08
 25.30731    -20.7 1.389e+04 8.302e-09
 25.32721    -19.3 1.393e+04 8.219e-09
 25.34862    -18.2 1.424e+04 8.509e-09
 25.38871    -17.1 1.423e+04 6.961e-09
 25.42871    -15.5 1.403e+04 6.722e-09
 25.46871    -13.9 1.407e+04 6.409e-09
 25.49082    -12.7 1.423e+04 6.199e-09
 25.51082    -12.6 1.452e+04 6.293e-09
 25.54871    -11.5 1.463e+04 5.480e-09
 25.57861    -10.9 1.444e+04 6.082e-09
 25.59851    -10.9 1.452e+04 6.341e-09
 25.60879    -10.3 1.384e+04 8.225e-09
 25.61258     -9.7 1.408e+04 7.891e-09
 25.63240     -9.8 1.410e+04 9.972e-09
 25.65861     -9.3 1.399e+04 1.097e-08
 25.67851     -9.4 1.394e+04 1.144e-08
 25.69851     -9.8 1.381e+04 1.207e-08
 25.71695    -10.3 1.381e+04 1.128e-08
 25.72695     -9.4 1.385e+04 1.557e-08
 25.73851    -10.3 1.425e+04 1.301e-08
 25.75490    -12.2 1.403e+04 1.131e-08
 25.76490    -11.7 1.423e+04 1.240e-08
 25.77851    -12.9 1.379e+04 1.149e-08
 25.79851    -13.7 1.320e+04 1.235e-08
 25.82860    -13.9 1.280e+04 1.162e-08
 25.86870    -13.9 1.243e+04 6.358e-09
 25.89770    -13.7 1.227e+04 2.939e-09
 25.91770    -12.7 1.230e+04 3.616e-09
 25.94348    -12.6 1.200e+04 1.762e-09
 25.96348    -11.9 1.226e+04 2.131e-09
 25.98870    -11.5 1.212e+04 1.553e-09
 26.02870    -10.2 1.199e+04 1.581e-09
 26.06870     -8.8 1.199e+04 1.628e-09
 26.10870     -7.0 1.205e+04 1.371e-09
 26.14869     -5.3 1.212e+04 1.040e-09
 26.17981     -3.6 1.226e+04 8.924e-10
 26.19401     -3.5 1.256e+04 1.156e-09
 26.20289     -3.3 1.242e+04 1.801e-09
 26.22869     -1.6 1.231e+04 2.001e-09
 26.26869      0.5 1.213e+04 2.305e-09
 26.30869      2.8 1.214e+04 2.278e-09
 26.34869      4.7 1.221e+04 2.291e-09
 26.38869      6.6 1.218e+04 2.447e-09
 26.41615      8.5 1.222e+04 2.752e-09
 26.43615      8.8 1.236e+04 2.339e-09
 26.46809     10.8 1.250e+04 2.391e-09
 26.48809     11.4 1.252e+04 2.716e-09
 26.50869     13.3 1.262e+04 3.062e-09
 26.54869     15.1 1.267e+04 4.313e-09
 26.58868     16.9 1.271e+04 7.645e-09
 26.62868     18.8 1.303e+04 1.274e-08
 26.65248     20.1 1.305e+04 1.409e-08
 26.67248     20.5 1.315e+04 1.406e-08
 26.70868     22.0 1.294e+04 1.226e-08
 26.74868     23.4 1.256e+04 8.663e-09
 26.77329     24.8 1.230e+04 6.030e-09
 26.79328     25.5 1.247e+04 8.438e-09
 26.82868     27.1 1.215e+04 5.844e-09
 26.86868     29.0 1.193e+04 4.065e-09
 26.90868     31.7 1.183e+04 3.140e-09
 26.94868     33.9 1.170e+04 2.125e-09
 26.98867     36.1 1.172e+04 1.428e-09
 27.02867     38.3 1.164e+04 1.109e-09
 27.05848     40.5 1.138e+04 1.041e-09
 27.07848     41.3 1.156e+04 1.899e-09
 27.10515     43.3 1.139e+04 1.668e-09
 27.12515     44.0 1.151e+04 2.946e-09
 27.14867     45.9 1.141e+04 2.964e-09
 27.18867     47.8 1.133e+04 3.085e-09
 27.22867     49.7 1.124e+04 3.506e-09
 27.26867     51.6 1.125e+04 4.166e-09
 27.30867     53.3 1.125e+04 5.093e-09
 27.34148     55.0 1.132e+04 6.442e-09
 27.35649     55.3 1.126e+04 5.577e-09
 27.36368     55.8 1.123e+04 5.185e-09
 27.38866     57.3 1.120e+04 5.854e-09
 27.42866     58.7 1.109e+04 6.336e-09
 27.46866     60.0 1.094e+04 6.566e-09
 27.50866     61.2 1.079e+04 6.506e-09
 27.54866     62.3 1.056e+04 6.135e-09
 27.57781     63.5 1.032e+04 5.554e-09
 27.59781     64.5 1.036e+04 5.666e-09
 27.62866     65.7 1.027e+04 5.573e-09
 27.64887     66.7 1.003e+04 5.186e-09
 27.66887     67.3 1.040e+04 6.796e-09
 27.70866     68.2 1.001e+04 5.389e-09
 27.74866     68.6 9.623e+03 3.303e-09
 27.78866     68.5 9.225e+03 1.933e-09
 27.81414     68.3 8.997e+03 1.741e-09
 27.83414     68.2 9.576e+03 4.275e-09
 27.86865     67.6 9.356e+03 4.232e-09
 27.90865     67.4 9.202e+03 4.128e-09
 27.93407     67.3 9.063e+03 3.788e-09
 27.95407     67.5 9.014e+03 3.603e-09
 27.98865     67.5 8.758e+03 2.916e-09
 28.02865     67.8 8.515e+03 2.372e-09
 28.05048     68.5 8.323e+03 2.079e-09
 28.07048     67.5 8.274e+03 1.961e-09
 28.10865     68.9 8.135e+03 1.895e-09
 28.14865     70.5 8.059e+03 1.877e-09
 28.18865     72.3 7.996e+03 1.882e-09
 28.21926     74.0 7.991e+03 1.901e-09
 28.23926     73.8 8.022e+03 1.948e-09
 28.26681     75.5 8.050e+03 2.073e-09
 28.28681     76.0 8.103e+03 2.268e-09
 28.30864     77.8 8.201e+03 2.646e-09
 28.34864     79.6 8.459e+03 3.422e-09
 28.38864     80.9 8.857e+03 4.778e-09
 28.42864     81.3 9.285e+03 6.370e-09
 28.46864     81.5 9.606e+03 6.910e-09
 28.50314     80.9 9.656e+03 6.585e-09
 28.51887     82.8 9.943e+03 7.857e-09
 28.52426     82.6 9.954e+03 7.620e-09
 28.53844     81.7 9.871e+03 6.699e-09
 28.55844     80.3 9.790e+03 5.943e-09
 28.57844     78.3 9.835e+03 6.016e-09
 28.59844     77.1 9.865e+03 6.182e-09
 28.61844     74.2 1.019e+04 7.160e-09
 28.63111     72.2 1.044e+04 8.470e-09
 28.64111     72.4 1.034e+04 8.222e-09
 28.66854     67.3 1.110e+04 1.204e-08
 28.70863     61.6 1.135e+04 1.423e-08
 28.73947     57.1 1.098e+04 1.247e-08
 28.75947     54.9 1.080e+04 1.061e-08
 28.78863     53.5 9.534e+03 5.550e-09
 28.80966     52.7 8.427e+03 2.266e-09
 28.82966     51.8 8.575e+03 2.315e-09
 28.86863     51.2 7.950e+03 1.144e-09
 28.90863     51.6 7.869e+03 1.046e-09
 28.94863     52.8 7.904e+03 1.082e-09
 28.97581     53.9 8.085e+03 1.206e-09
 28.99581     53.8 8.003e+03 1.235e-09
 29.02863     54.6 8.308e+03 1.627e-09
 29.06862     55.0 8.777e+03 2.497e-09
 29.09485     55.1 9.395e+03 4.120e-09
 29.11485     54.1 9.854e+03 6.233e-09
 29.14862     54.4 1.040e+04 8.442e-09
 29.18862     54.7 1.081e+04 9.632e-09
 29.21214     55.1 1.092e+04 9.556e-09
 29.23214     55.5 1.148e+04 1.291e-08
 29.26862     56.0 1.167e+04 1.407e-08
 29.30862     56.4 1.168e+04 1.458e-08
 29.34862     56.8 1.144e+04 1.326e-08
 29.38005     57.4 1.085e+04 9.592e-09
 29.40005     56.8 1.068e+04 7.807e-09
 29.42847     57.5 1.007e+04 5.006e-09
 29.46847     59.1 1.006e+04 5.906e-09
 29.50861     60.2 9.524e+03 4.228e-09
 29.54861     61.7 9.248e+03 3.915e-09
 29.58861     63.4 9.200e+03 3.809e-09
 29.62861     65.0 9.193e+03 3.634e-09
 29.66481     66.5 9.182e+03 3.322e-09
 29.68144     66.8 9.138e+03 3.469e-09
 29.68524     66.1 9.265e+03 3.582e-09
 29.70861     67.1 9.106e+03 3.417e-09
 29.74861     68.1 9.062e+03 3.439e-09
 29.78861     69.3 9.045e+03 3.620e-09
 29.82861     70.6 9.118e+03 3.971e-09
 29.86861     71.9 9.194e+03 4.307e-09
 29.90114     73.2 9.230e+03 4.523e-09
 29.92114     74.2 9.144e+03 4.325e-09
 29.94860     75.6 9.061e+03 4.274e-09
 29.97044     77.2 9.019e+03 4.111e-09
 29.99044     76.0 8.741e+03 2.706e-09
 30.02860     77.8 8.822e+03 2.556e-09
 30.06860     78.4 8.952e+03 2.679e-09
 30.10860     78.2 9.424e+03 3.491e-09
 30.13747     77.7 9.966e+03 5.606e-09
 30.15747     80.3 1.006e+04 6.291e-09
 30.18860     79.0 1.078e+04 8.432e-09
 30.22860     74.9 1.088e+04 7.483e-09
 30.25554     72.3 1.060e+04 6.245e-09
 30.27554     69.7 1.004e+04 4.623e-09
 30.30860     64.8 9.832e+03 4.574e-09
 30.34859     57.2 1.040e+04 6.490e-09
 30.37371     53.7 1.084e+04 8.646e-09
 30.38361     53.4 1.054e+04 8.359e-09
 30.39804     50.1 1.105e+04 1.033e-08
 30.40804     49.9 1.111e+04 1.066e-08
 30.41840     46.3 1.153e+04 1.204e-08
 30.43840     42.4 1.188e+04 1.319e-08
 30.45840     39.0 1.203e+04 1.448e-08
 30.47840     36.5 1.187e+04 1.546e-08
 30.49177     34.5 1.221e+04 1.763e-08
 30.50177     29.6 1.501e+04 3.052e-08
 30.51839     24.1 1.630e+04 5.176e-08
 30.53839     21.8 1.564e+04 8.230e-08
 30.55064     22.4 1.512e+04 8.075e-08
 30.56064     22.5 1.480e+04 7.780e-08
 30.57839     23.5 1.459e+04 5.339e-08
 30.59839     21.4 1.473e+04 2.637e-08
 30.60994     16.5 1.295e+04 1.233e-08
 30.61994     12.2 1.139e+04 1.018e-08
 30.63839     11.6 1.039e+04 8.583e-09
 30.65839     11.8 9.921e+03 6.730e-09
 30.67839     12.0 9.385e+03 4.908e-09
 30.70849     13.2 9.961e+03 4.026e-09
 30.74858     14.8 9.325e+03 2.058e-09
 30.78858     16.5 8.767e+03 1.241e-09
 30.82603     18.7 8.468e+03 1.001e-09
 30.84391     17.8 8.719e+03 1.828e-09
 30.84647     18.0 9.348e+03 5.101e-09
 30.86858     20.8 9.395e+03 4.771e-09
 30.90858     23.5 9.480e+03 4.993e-09
 30.94858     26.3 9.658e+03 5.817e-09
 30.98858     29.6 1.007e+04 7.153e-09
 31.01848     31.4 1.023e+04 7.371e-09
 31.03838     32.2 1.037e+04 7.576e-09
 31.05838     33.5 1.031e+04 7.323e-09
 31.07261     34.4 1.031e+04 7.004e-09
 31.08270     34.0 1.042e+04 7.779e-09
 31.10858     36.0 1.041e+04 7.036e-09
 31.13122     37.8 1.033e+04 5.814e-09
 31.15122     37.3 1.040e+04 6.944e-09
 31.18857     39.3 1.032e+04 5.885e-09
 31.22857     41.4 1.026e+04 4.980e-09
 31.26857     43.4 1.036e+04 4.532e-09
 31.29913     45.1 1.047e+04 4.475e-09
 31.31913     45.3 1.035e+04 4.274e-09
 31.34857     46.6 1.018e+04 3.308e-09
 31.38857     47.6 9.971e+03 3.005e-09
 31.41642     48.5 9.858e+03 3.074e-09
 31.42505     48.5 1.058e+04 5.613e-09
 31.42711     49.1 1.026e+04 4.720e-09
 31.43837     49.5 1.015e+04 4.567e-09
 31.45837     50.0 1.010e+04 4.440e-09
 31.47837     50.4 1.010e+04 4.459e-09
 31.49837     50.9 1.007e+04 4.600e-09
 31.51837     51.4 1.003e+04 4.956e-09
 31.53527     52.0 1.008e+04 5.575e-09
 31.54527     53.0 9.635e+03 3.956e-09
 31.55837     53.4 9.796e+03 4.417e-09
 31.56882     53.2 1.033e+04 5.610e-09
 31.57882     51.7 1.101e+04 8.550e-09
 31.59837     50.3 1.198e+04 1.544e-08
 31.61837     50.2 1.315e+04 3.181e-08
 31.63837     50.8 1.412e+04 5.723e-08
 31.65344     51.6 1.459e+04 7.421e-08
 31.66344     52.0 1.381e+04 4.960e-08
 31.67837     52.9 1.405e+04 5.803e-08
 31.69837     53.9 1.390e+04 5.406e-08
 31.71142     54.6 1.337e+04 3.980e-08
 31.72142     53.3 1.267e+04 2.330e-08
 31.73837     51.6 1.266e+04 1.914e-08
 31.75836     48.0 1.388e+04 2.355e-08
 31.77160     43.4 1.622e+04 4.860e-08
 31.78160     45.2 1.536e+04 4.012e-08
 31.79332     41.0 1.719e+04 8.114e-08
 31.80327     37.8 1.817e+04 1.719e-07
 31.81327     35.8 1.853e+04 3.933e-07
 31.82327     34.6 1.841e+04 8.118e-07
 31.83059     33.5 1.826e+04 1.303e-06
 31.83559     34.4 1.859e+04 8.371e-07
 31.84327     32.6 1.874e+04 9.642e-07
 31.85327     30.9 1.891e+04 8.368e-07
 31.85892     28.7 1.932e+04 5.769e-07
 31.86392     25.4 1.922e+04 2.885e-07
 31.87326     22.5 1.836e+04 2.367e-07
 31.88326     21.3 1.750e+04 2.082e-07
 31.88967     20.9 1.755e+04 2.069e-07
 31.89467     21.7 1.743e+04 1.780e-07
 31.90326     21.1 1.747e+04 1.915e-07
 31.91326     20.1 1.776e+04 2.068e-07
 31.92326     19.4 1.793e+04 2.258e-07
 31.93022     18.5 1.827e+04 2.466e-07
 31.93522     18.4 1.811e+04 2.384e-07
 31.94326     17.8 1.815e+04 2.565e-07
 31.94876     16.3 1.844e+04 2.799e-07
 31.95376     17.1 1.867e+04 3.033e-07
 31.96326     16.0 1.855e+04 2.997e-07
 31.97326     14.8 1.843e+04 2.792e-07
 31.98326     13.7 1.830e+04 2.523e-07
 31.99326     12.0 1.835e+04 2.114e-07
 32.00152      9.9 1.833e+04 1.818e-07
 32.00610      9.4 1.845e+04 1.937e-07
 32.00784      9.5 1.876e+04 2.363e-07
 32.01326      6.4 1.866e+04 2.023e-07
 32.02326      4.8 1.831e+04 1.806e-07
 32.03831      2.0 1.770e+04 1.439e-07
 32.05836      0.5 1.659e+04 7.759e-08
 32.07836     -1.2 1.535e+04 4.298e-08
 32.09836     -2.6 1.395e+04 2.758e-08
 32.11610     -2.9 1.288e+04 2.113e-08
 32.12610     -4.8 1.294e+04 2.170e-08
 32.13836     -4.1 1.278e+04 1.729e-08
 32.14921     -3.4 1.222e+04 1.488e-08
 32.15921     -3.5 1.197e+04 1.158e-08
 32.18845     -1.7 1.161e+04 1.043e-08
 32.22447      0.2 1.102e+04 7.487e-09
 32.24447     -0.2 1.089e+04 4.899e-09
 32.26855      1.6 1.081e+04 2.695e-09
 32.29201      3.6 1.066e+04 2.160e-09
 32.31201      4.3 1.052e+04 1.489e-09
 32.34855      6.5 1.052e+04 1.579e-09
 32.38855      8.5 1.054e+04 2.100e-09
 32.42854     10.7 1.059e+04 3.455e-09
 32.46080     13.2 1.074e+04 5.500e-09
 32.48070     13.6 1.117e+04 5.246e-09
 32.49835     14.7 1.160e+04 6.583e-09
 32.51835     13.9 1.290e+04 9.996e-09
 32.53835     12.8 1.366e+04 1.897e-08
 32.55835     12.7 1.407e+04 3.784e-08
 32.57701     14.0 1.422e+04 5.249e-08
 32.58701     13.8 1.415e+04 5.344e-08
 32.58877     15.6 1.393e+04 4.919e-08
 32.59877     16.8 1.372e+04 4.761e-08
 32.61834     18.4 1.347e+04 2.146e-08
 32.63834     17.4 1.344e+04 9.114e-09
 32.65834     16.5 1.281e+04 4.477e-09
 32.67834     15.7 1.174e+04 3.365e-09
 32.69694     16.3 1.109e+04 2.990e-09
 32.71703     16.5 1.084e+04 2.045e-09
 32.74854     19.4 1.104e+04 2.071e-09
 32.77844     21.2 1.125e+04 2.011e-09
 32.79834     21.5 1.141e+04 1.937e-09
 32.81510     22.4 1.150e+04 2.058e-09
 32.82510     22.2 1.142e+04 1.817e-09
 32.83834     22.7 1.145e+04 1.845e-09
 32.85834     23.1 1.153e+04 1.995e-09
 32.87220     23.2 1.160e+04 2.445e-09
 32.88220     23.0 1.156e+04 2.371e-09
 32.89834     23.4 1.161e+04 3.031e-09
 32.91834     23.9 1.182e+04 3.635e-09
 32.93327     24.0 1.208e+04 4.015e-09
 32.94327     23.2 1.212e+04 3.882e-09
 32.95834     23.0 1.237e+04 4.254e-09
 32.97834     22.6 1.242e+04 4.656e-09
 32.99834     22.0 1.232e+04 5.115e-09
 33.01480     21.4 1.218e+04 5.724e-09
 33.02480     21.5 1.210e+04 5.301e-09
 33.03833     21.0 1.201e+04 6.021e-09
 33.05143     20.6 1.195e+04 6.770e-09
 33.06143     20.2 1.182e+04 6.514e-09
 33.07833     19.8 1.179e+04 6.588e-09
 33.09833     19.4 1.185e+04 6.616e-09
 33.11833     18.7 1.192e+04 6.578e-09
 33.13833     17.8 1.199e+04 6.387e-09
 33.15740     16.6 1.210e+04 6.152e-09
 33.16740     14.4 1.285e+04 7.147e-09
 33.16960     11.9 1.320e+04 1.060e-08
 33.17960     11.3 1.283e+04 1.018e-08
 33.19833      9.9 1.305e+04 1.574e-08
 33.21833      9.0 1.320e+04 2.043e-08
 33.23833      8.0 1.351e+04 2.180e-08
 33.25833      6.2 1.401e+04 2.258e-08
 33.27777      4.2 1.425e+04 2.349e-08
 33.28777      5.4 1.276e+04 1.290e-08
 33.29833      4.2 1.288e+04 1.326e-08
 33.31000      3.3 1.276e+04 1.406e-08
 33.32000      2.1 1.222e+04 1.226e-08
 33.33833      1.8 1.211e+04 1.122e-08
 33.35833      1.2 1.204e+04 1.013e-08
 33.37833      0.5 1.207e+04 1.008e-08
 33.39593     -0.6 1.214e+04 1.072e-08
 33.40593      0.6 1.201e+04 1.066e-08
 33.41833     -0.3 1.196e+04 1.191e-08
 33.43832     -0.7 1.170e+04 1.271e-08
 33.45259     -0.4 1.139e+04 1.170e-08
 33.46259     -0.8 1.107e+04 9.198e-09
 33.47832     -0.4 1.079e+04 7.387e-09
 33.49832      0.1 1.052e+04 5.040e-09
 33.51410     -0.5 1.053e+04 3.498e-09
 33.52410     -0.3 1.033e+04 3.153e-09
 33.54842     -0.7 1.009e+04 2.171e-09
 33.58852     -0.1 9.699e+03 1.926e-09
 33.62246      1.0 9.740e+03 2.090e-09
 33.64246      2.1 9.678e+03 1.971e-09
 33.66851      3.3 9.918e+03 2.521e-09
 33.69842      3.5 1.003e+04 2.862e-09
 33.71832      3.4 1.019e+04 3.385e-09
 33.73779      3.3 1.046e+04 4.286e-09
 33.74779      3.0 1.054e+04 4.575e-09
 33.75043      3.0 1.093e+04 6.158e-09
 33.76043      3.8 1.102e+04 6.679e-09
 33.77832      3.8 1.141e+04 8.933e-09
 33.79832      3.3 1.208e+04 1.306e-08
 33.81832      1.4 1.307e+04 2.376e-08
 33.83832     -1.8 1.510e+04 5.143e-08
 33.85831     -6.6 1.715e+04 9.963e-08
 33.86855    -12.2 1.873e+04 1.783e-07
 33.87350    -11.8 1.967e+04 3.191e-07
 33.88322    -17.7 2.077e+04 5.534e-07
 33.89029    -25.9 2.120e+04 6.269e-07
 33.89529    -26.2 2.067e+04 8.590e-07
 33.90322    -35.5 2.092e+04 4.115e-07
 33.91322    -43.4 1.964e+04 2.194e-07
 33.92258    -48.6 1.996e+04 1.406e-07
 33.92758    -50.7 1.992e+04 1.266e-07
 33.93826    -57.4 1.992e+04 7.618e-08
 33.95831    -73.9 1.554e+04 3.195e-08
 33.97677    -80.3 1.368e+04 2.554e-08
 33.98677    -80.8 1.375e+04 3.031e-08
 33.99831    -82.6 1.341e+04 2.714e-08
 34.01831    -84.3 1.287e+04 2.155e-08
 34.03299    -85.6 1.228e+04 1.620e-08
 34.04299    -85.3 1.204e+04 1.346e-08
 34.05831    -86.2 1.158e+04 1.045e-08
 34.07831    -86.9 1.119e+04 8.379e-09
 34.09493    -87.4 1.086e+04 7.089e-09
 34.10493    -87.7 1.095e+04 7.335e-09
 34.11831    -88.1 1.070e+04 6.250e-09
 34.13831    -88.5 1.054e+04 5.709e-09
 34.15831    -88.8 1.050e+04 5.593e-09
 34.17558    -89.3 1.052e+04 5.666e-09
 34.18558    -88.9 1.053e+04 5.486e-09
 34.19831    -89.6 1.071e+04 6.372e-09
 34.21310    -90.2 1.094e+04 7.600e-09
 34.22310    -90.3 1.094e+04 6.487e-09
 34.23831    -90.8 1.108e+04 7.228e-09
 34.25831    -91.5 1.112e+04 7.433e-09
 34.27830    -92.2 1.108e+04 7.383e-09
 34.29830    -92.9 1.092e+04 6.819e-09
 34.31818    -93.6 1.076e+04 6.213e-09
 34.32818    -93.1 1.060e+04 5.556e-09
 34.33126    -93.8 1.046e+04 5.151e-09
 34.34126    -93.7 1.046e+04 4.707e-09
 34.35830    -94.3 1.041e+04 4.677e-09
 34.37830    -94.9 1.037e+04 4.839e-09
 34.39830    -95.5 1.037e+04 5.140e-09
 34.41830    -96.1 1.036e+04 5.468e-09
 34.43830    -96.6 1.033e+04 5.700e-09
 34.44943    -96.9 1.031e+04 5.756e-09
 34.45943    -96.8 1.031e+04 5.729e-09
 34.47078    -96.8 1.021e+04 5.753e-09
 34.48078    -95.9 9.897e+03 4.290e-09
 34.49830    -95.7 9.704e+03 4.117e-09
 34.51830    -95.4 9.578e+03 3.735e-09
 34.54770    -95.5 9.505e+03 3.400e-09
 34.56770    -94.7 9.556e+03 3.291e-09
 34.58839    -94.5 9.513e+03 3.102e-09
 34.61357    -93.5 9.295e+03 2.572e-09
 34.63357    -92.1 9.019e+03 2.162e-09
 34.66849    -90.8 8.903e+03 1.939e-09
 34.70849    -89.4 8.884e+03 1.869e-09
 34.74849    -88.1 8.910e+03 1.868e-09
 34.78413    -87.4 9.118e+03 2.061e-09
 34.80413    -87.1 9.630e+03 3.311e-09
 34.81839    -86.2 9.698e+03 3.237e-09
 34.83829    -86.4 9.840e+03 3.671e-09
 34.86839    -86.5 1.009e+04 4.553e-09
 34.89877    -86.7 1.045e+04 6.521e-09
 34.91877    -85.8 9.955e+03 4.463e-09
 34.94848    -86.5 1.029e+04 6.048e-09
 34.98848    -87.4 1.063e+04 7.870e-09
 35.02046    -88.4 1.072e+04 8.538e-09
 35.04046    -87.5 1.122e+04 1.005e-08
 35.05127    -88.6 1.131e+04 1.069e-08
 35.06117    -87.7 1.109e+04 9.652e-09
 35.07829    -88.2 1.111e+04 9.614e-09
 35.09828    -88.8 1.090e+04 8.759e-09
 35.11828    -89.1 1.074e+04 7.765e-09
 35.14838    -89.9 1.037e+04 6.007e-09
 35.18396    -90.0 9.966e+03 4.210e-09
 35.20396    -88.3 1.003e+04 4.434e-09
 35.22848    -88.3 9.758e+03 3.202e-09
 35.25679    -88.1 9.526e+03 2.331e-09
 35.27679    -87.8 9.742e+03 2.677e-09
 35.30848    -87.4 9.597e+03 2.174e-09
 35.34847    -86.7 9.507e+03 1.893e-09
 35.38847    -85.9 9.496e+03 1.850e-09
 35.42847    -85.4 9.632e+03 1.928e-09
 35.46847    -85.2 9.861e+03 2.300e-09
 35.48916    -85.2 1.012e+04 2.827e-09
 35.49381    -84.3 1.027e+04 3.267e-09
 35.51312    -84.2 1.025e+04 2.954e-09
 35.54847    -85.0 1.063e+04 3.888e-09
 35.58847    -86.3 1.090e+04 4.573e-09
 35.62847    -88.1 1.094e+04 4.863e-09
 35.66847    -90.1 1.087e+04 5.149e-09
 35.70847    -91.8 1.079e+04 5.549e-09
 35.72946    -93.4 1.077e+04 5.722e-09
 35.74946    -93.2 1.074e+04 5.384e-09
 35.77436    -94.7 1.051e+04 4.881e-09
 35.79436    -94.7 1.092e+04 7.583e-09
 35.82846    -96.3 1.065e+04 6.570e-09
 35.86846    -97.6 1.053e+04 6.006e-09
 35.90846    -98.5 1.051e+04 6.012e-09
 35.94579    -99.0 1.042e+04 6.406e-09
 35.96579    -97.4 1.041e+04 6.435e-09
 35.98846    -97.7 1.054e+04 8.041e-09
 36.02846    -97.8 1.051e+04 8.339e-09
 36.05955    -97.8 1.011e+04 6.539e-09
 36.07955    -99.0 9.898e+03 5.536e-09
 36.10846    -98.9 9.368e+03 3.617e-09
 36.14846    -98.2 8.991e+03 2.758e-09
 36.18212    -96.8 8.843e+03 2.523e-09
 36.20212    -95.8 8.890e+03 2.261e-09
 36.22845    -94.4 8.768e+03 2.064e-09
 36.26845    -92.7 8.721e+03 1.998e-09
 36.30845    -90.9 8.712e+03 1.978e-09
 36.34475    -89.0 8.709e+03 1.972e-09
 36.36475    -89.0 8.701e+03 2.008e-09
 36.38845    -86.9 8.703e+03 2.009e-09
 36.41845    -84.8 8.825e+03 2.084e-09
 36.43845    -84.0 8.887e+03 1.719e-09
 36.46845    -82.1 9.081e+03 1.936e-09
 36.50845    -80.3 9.221e+03 2.445e-09
 36.54845    -78.5 9.436e+03 3.234e-09
 36.58844    -76.7 9.692e+03 4.308e-09
 36.62844    -75.0 9.951e+03 5.665e-09
 36.64994    -73.4 1.018e+04 6.977e-09
 36.65629    -72.9 9.871e+03 5.172e-09
 36.67479    -72.0 1.018e+04 7.473e-09
 36.70844    -70.6 1.031e+04 7.930e-09
 36.74844    -69.2 1.032e+04 7.962e-09
 36.78844    -67.7 1.019e+04 7.042e-09
 36.82844    -66.0 9.999e+03 5.499e-09
 36.86844    -64.2 9.859e+03 4.085e-09
 36.89112    -62.3 9.769e+03 2.964e-09
 36.91112    -61.6 1.024e+04 4.751e-09
 36.93514    -59.7 1.020e+04 3.976e-09
 36.95514    -59.5 1.003e+04 3.513e-09
 36.98843    -57.5 1.005e+04 3.071e-09
 37.02843    -55.5 1.006e+04 2.682e-09
 37.06843    -53.3 1.006e+04 2.370e-09
 37.10745    -51.1 1.008e+04 2.192e-09
 37.12736    -49.8 1.042e+04 3.147e-09
 37.13824    -48.8 1.040e+04 2.919e-09
 37.15824    -48.1 1.033e+04 2.823e-09
 37.17824    -47.0 1.042e+04 2.835e-09
 37.19823    -46.3 1.040e+04 2.836e-09
 37.21823    -45.2 1.061e+04 3.143e-09
 37.23014    -44.5 1.059e+04 3.364e-09
 37.23733    -44.3 1.056e+04 2.923e-09
 37.24542    -43.7 1.086e+04 3.671e-09
 37.25823    -42.6 1.099e+04 3.974e-09
 37.27823    -41.6 1.103e+04 4.234e-09
 37.29823    -40.5 1.115e+04 4.609e-09
 37.31823    -39.5 1.119e+04 4.957e-09
 37.33823    -38.4 1.130e+04 5.442e-09
 37.35359    -37.5 1.136e+04 5.798e-09
 37.36359    -36.1 1.157e+04 5.993e-09
 37.37274    -35.1 1.169e+04 6.496e-09
 37.38274    -35.1 1.167e+04 6.234e-09
 37.39823    -34.3 1.179e+04 6.993e-09
 37.41823    -33.5 1.196e+04 7.993e-09
 37.43823    -32.8 1.213e+04 9.027e-09
 37.45823    -32.3 1.243e+04 1.020e-08
 37.47176    -32.6 1.283e+04 1.186e-08
 37.48176    -30.7 1.344e+04 1.622e-08
 37.49823    -31.9 1.410e+04 2.083e-08
 37.51534    -35.4 1.548e+04 3.620e-08
 37.52534    -34.5 1.490e+04 3.111e-08
 37.53823    -37.7 1.606e+04 5.358e-08
 37.55318    -40.0 1.673e+04 8.584e-08
 37.56313    -42.6 1.759e+04 1.200e-07
 37.57313    -45.4 1.850e+04 1.822e-07
 37.58313    -48.0 1.886e+04 2.529e-07
 37.58983    -50.0 1.886e+04 2.884e-07
 37.59323    -53.0 1.926e+04 4.901e-07
 37.59654    -53.2 1.959e+04 4.460e-07
 37.60313    -54.7 1.928e+04 5.564e-07
 37.61313    -55.6 1.914e+04 5.681e-07
 37.62313    -56.2 1.889e+04 3.839e-07
 37.63313    -56.8 1.893e+04 1.932e-07
 37.64313    -57.9 1.853e+04 9.716e-08
 37.64891    -59.0 1.739e+04 5.526e-08
 37.65391    -60.2 1.702e+04 7.630e-08
 37.66284    -60.3 1.570e+04 4.763e-08
 37.66784    -59.1 1.580e+04 6.623e-08
 37.67313    -59.2 1.482e+04 4.432e-08
 37.68313    -58.7 1.424e+04 3.562e-08
 37.69804    -57.7 1.389e+04 3.051e-08
 37.70809    -57.9 1.433e+04 3.717e-08
 37.71822    -55.9 1.366e+04 2.808e-08
 37.73822    -53.9 1.322e+04 2.220e-08
 37.75822    -52.5 1.301e+04 2.030e-08
 37.77822    -50.7 1.281e+04 1.907e-08
 37.79822    -49.2 1.271e+04 1.832e-08
 37.81053    -47.8 1.255e+04 1.760e-08
 37.81857    -47.1 1.180e+04 1.086e-08
 37.82626    -47.3 1.204e+04 1.036e-08
 37.83822    -45.7 1.190e+04 1.037e-08
 37.85822    -44.1 1.184e+04 1.037e-08
 37.87822    -42.5 1.181e+04 1.054e-08
 37.89822    -41.0 1.179e+04 1.077e-08
 37.91822    -39.4 1.172e+04 1.101e-08
 37.93442    -37.9 1.167e+04 1.150e-08
 37.94442    -38.0 1.238e+04 1.396e-08
 37.95313    -36.6 1.255e+04 1.509e-08
 37.96313    -35.9 1.197e+04 1.053e-08
 37.97822    -34.8 1.228e+04 1.234e-08
 37.99822    -34.1 1.269e+04 1.516e-08
 38.01821    -33.7 1.325e+04 2.030e-08
 38.03821    -33.3 1.382e+04 2.908e-08
 38.05259    -32.5 1.422e+04 3.991e-08
 38.06259    -32.3 1.483e+04 6.885e-08
 38.07821    -31.4 1.475e+04 6.996e-08
 38.09573    -30.4 1.425e+04 6.025e-08
 38.10573    -29.9 1.442e+04 6.490e-08
 38.11821    -28.9 1.364e+04 4.780e-08
 38.13821    -27.9 1.269e+04 3.284e-08
 38.15821    -27.4 1.176e+04 2.111e-08
 38.17075    -27.3 1.096e+04 1.394e-08
 38.18075    -27.6 1.064e+04 1.156e-08
 38.19821    -27.2 1.035e+04 1.012e-08
 38.22831    -26.6 1.022e+04 9.689e-09
 38.26840    -25.8 1.023e+04 1.023e-08
 38.28912    -24.7 1.031e+04 1.119e-08
 38.30912    -23.9 1.052e+04 1.200e-08
 38.33830    -22.0 1.063e+04 1.378e-08
 38.35821    -21.4 1.059e+04 1.371e-08
 38.37821    -20.0 1.044e+04 1.286e-08
 38.39092    -19.4 1.026e+04 1.042e-08
 38.40102    -18.3 1.044e+04 1.260e-08
 38.41830    -17.0 9.986e+03 1.119e-08
 38.43820    -15.7 9.821e+03 8.509e-09
 38.45820    -15.6 9.166e+03 5.933e-09
 38.47820    -14.6 8.839e+03 5.013e-09
 38.50535    -13.6 8.623e+03 4.424e-09
 38.52545    -11.3 8.931e+03 5.760e-09
 38.54840     -9.6 8.310e+03 3.599e-09
 38.58840     -7.7 8.481e+03 3.412e-09
 38.61830     -6.8 9.282e+03 4.924e-09
 38.63342     -6.7 1.045e+04 7.832e-09
 38.64342     -5.3 9.285e+03 6.081e-09
 38.65820     -5.0 1.022e+04 1.047e-08
 38.67612     -5.4 1.266e+04 2.174e-08
 38.68612     -2.5 1.120e+04 1.666e-08
 38.69820     -3.0 1.387e+04 3.366e-08
 38.71820     -3.5 1.628e+04 7.488e-08
 38.73820     -3.7 1.736e+04 1.464e-07
 38.75159     -4.1 1.779e+04 2.085e-07
 38.76159     -2.9 1.745e+04 1.716e-07
 38.77820     -4.3 1.807e+04 2.040e-07
 38.79820     -8.3 1.882e+04 1.762e-07
 38.81820    -14.1 1.769e+04 1.341e-07
 38.82872    -17.8 1.589e+04 1.063e-07
 38.83872    -15.4 1.755e+04 1.691e-07
 38.85819    -17.9 1.623e+04 1.138e-07
 38.86975    -19.9 1.449e+04 4.684e-08
 38.87975    -18.2 1.566e+04 8.026e-08
 38.89819    -21.1 1.334e+04 2.672e-08
 38.91819    -24.9 1.111e+04 1.270e-08
 38.93819    -26.2 1.025e+04 1.011e-08
 38.95819    -26.5 1.008e+04 9.681e-09
 38.97131    -26.3 1.005e+04 9.644e-09
 38.98104    -26.6 1.023e+04 1.054e-08
 38.98792    -26.3 1.073e+04 1.239e-08
 38.99819    -25.9 1.072e+04 1.287e-08
 39.01819    -25.4 1.083e+04 1.353e-08
 39.03819    -25.0 1.091e+04 1.402e-08
 39.05819    -24.4 1.098e+04 1.450e-08
 39.07819    -24.0 1.102e+04 1.489e-08
 39.09609    -23.5 1.103e+04 1.502e-08
 39.10609    -23.3 1.146e+04 1.740e-08
 39.11391    -23.1 1.155e+04 1.817e-08
 39.12391    -23.6 1.191e+04 2.099e-08
 39.13819    -23.8 1.207e+04 2.205e-08
 39.15819    -24.5 1.240e+04 2.465e-08
 39.17819    -25.1 1.270e+04 2.890e-08
 39.19819    -25.2 1.292e+04 3.358e-08
 39.21425    -25.0 1.293e+04 3.497e-08
 39.22425    -25.3 1.324e+04 3.641e-08
 39.23819    -24.8 1.300e+04 3.505e-08
 39.25651    -24.4 1.227e+04 2.599e-08
 39.26651    -25.4 1.181e+04 2.115e-08
 39.27818    -25.8 1.080e+04 1.425e-08
 39.29818    -26.1 9.868e+03 1.001e-08
 39.31818    -25.6 9.119e+03 7.453e-09
 39.33242    -24.5 8.633e+03 5.869e-09
 39.34242    -25.1 8.778e+03 6.486e-09
 39.35818    -24.1 8.359e+03 5.095e-09
 39.37818    -23.0 8.006e+03 4.029e-09
 39.39818    -21.8 7.836e+03 3.423e-09
 39.42828    -20.5 7.757e+03 3.056e-09
 39.45078    -17.7 7.440e+03 2.541e-09
 39.47078    -18.8 7.545e+03 2.904e-09
 39.50837    -15.6 7.246e+03 2.407e-09
 39.54190    -12.5 7.111e+03 2.130e-09
 39.56190    -12.9 7.266e+03 2.605e-09
 39.58837     -9.7 7.264e+03 2.575e-09
 39.62837     -6.6 7.307e+03 2.596e-09
 39.66711     -3.4 7.322e+03 2.576e-09
 39.68711     -3.9 7.455e+03 2.930e-09
 39.70837     -0.7 7.459e+03 2.843e-09
 39.74837      2.4 7.451e+03 2.586e-09
 39.78837      5.4 7.490e+03 2.522e-09
 39.82710      7.9 7.725e+03 2.901e-09
 39.84710      7.6 8.148e+03 4.139e-09
 39.86837     10.7 8.278e+03 4.382e-09
 39.90345     13.7 8.237e+03 4.142e-09
 39.92345     13.1 8.593e+03 6.023e-09
 39.94836     16.0 8.432e+03 5.287e-09
 39.98836     18.7 8.375e+03 4.920e-09
 40.02836     21.4 8.437e+03 5.015e-09
 40.06836     24.3 8.608e+03 5.363e-09
 40.10836     27.2 8.805e+03 5.788e-09
 40.13229     30.1 8.983e+03 6.137e-09
 40.14371     29.7 8.818e+03 5.770e-09
 40.15978     29.2 8.797e+03 5.815e-09
 40.18836     31.8 9.020e+03 6.232e-09
 40.22836     34.5 9.369e+03 7.270e-09
 40.26836     37.2 1.000e+04 9.416e-09
 40.29826     38.1 1.010e+04 1.017e-08
 40.31816     38.8 1.030e+04 1.117e-08
 40.33816     39.1 1.073e+04 1.359e-08
 40.35816     39.6 1.133e+04 1.763e-08
 40.37592     40.2 1.202e+04 2.226e-08
 40.38592     39.3 1.108e+04 1.536e-08
 40.39816     39.5 1.134e+04 1.567e-08
 40.41729     39.4 1.128e+04 1.520e-08
 40.42729     38.1 1.082e+04 1.206e-08
 40.43816     38.2 1.090e+04 1.169e-08
 40.45816     38.1 1.104e+04 1.051e-08
 40.47816     38.0 1.114e+04 9.452e-09
 40.49408     37.8 1.129e+04 8.655e-09
 40.50408     37.7 1.086e+04 5.766e-09
 40.51816     37.4 1.094e+04 5.134e-09
 40.53815     36.9 1.086e+04 4.959e-09
 40.55815     36.5 1.071e+04 4.785e-09
 40.56989     35.7 1.072e+04 5.141e-09
 40.57989     35.3 1.116e+04 6.691e-09
 40.59815     35.1 1.102e+04 7.941e-09
 40.61225     34.8 1.097e+04 9.787e-09
 40.62225     34.6 1.083e+04 8.353e-09
 40.63815     34.7 1.100e+04 1.096e-08
 40.65815     34.8 1.124e+04 1.285e-08
 40.67815     34.8 1.124e+04 1.271e-08
 40.69815     34.9 1.114e+04 1.137e-08
 40.71249     35.0 1.098e+04 9.095e-09
 40.72249     35.1 1.086e+04 7.030e-09
 40.73041     35.1 1.074e+04 5.563e-09
 40.74041     35.1 1.088e+04 6.609e-09
 40.75815     34.9 1.087e+04 5.336e-09
 40.77815     34.9 1.090e+04 5.064e-09
 40.79815     35.0 1.097e+04 5.203e-09
 40.81815     34.9 1.123e+04 5.976e-09
 40.83815     34.8 1.155e+04 7.786e-09
 40.84858     34.7 1.184e+04 1.075e-08
 40.85552     34.2 1.254e+04 1.462e-08
 40.86509     35.2 1.201e+04 1.173e-08
 40.87815     35.1 1.254e+04 1.560e-08
 40.89815     35.1 1.292e+04 2.039e-08
 40.91815     35.3 1.292e+04 2.218e-08
 40.93814     35.5 1.274e+04 2.051e-08
 40.95675     35.6 1.244e+04 1.645e-08
 40.96675     35.1 1.380e+04 2.273e-08
 40.97814     34.2 1.311e+04 1.442e-08
 40.99769     32.9 1.187e+04 1.066e-08
 41.00769     34.6 1.327e+04 1.532e-08
 41.01814     33.6 1.201e+04 1.074e-08
 41.03814     33.5 1.118e+04 9.137e-09
 41.06501     35.3 1.087e+04 8.262e-09
 41.08511     34.0 1.119e+04 1.039e-08
 41.10834     35.4 1.074e+04 8.008e-09
 41.13824     36.5 1.060e+04 7.135e-09
 41.15028     37.4 1.048e+04 6.643e-09
 41.16028     37.4 1.055e+04 7.279e-09
 41.17814     38.4 1.042e+04 6.900e-09
 41.19308     39.4 1.030e+04 6.487e-09
 41.20308     38.5 1.046e+04 7.392e-09
 41.21814     39.4 1.042e+04 7.054e-09
 41.23814     40.2 1.036e+04 6.699e-09
 41.25814     41.0 1.027e+04 6.531e-09
 41.27814     42.0 1.027e+04 6.619e-09
 41.29288     42.8 1.035e+04 7.082e-09
 41.30288     43.2 1.056e+04 8.586e-09
 41.31125     44.1 1.066e+04 9.461e-09
 41.32125     42.8 1.114e+04 1.247e-08
 41.33814     43.8 1.133e+04 1.368e-08
 41.35813     44.7 1.177e+04 1.556e-08
 41.37813     45.1 1.257e+04 1.861e-08
 41.39813     44.9 1.442e+04 3.042e-08
 41.41308     44.1 1.550e+04 4.507e-08
 41.42304     44.0 1.579e+04 6.019e-08
 41.42932     43.6 1.649e+04 8.791e-08
 41.43671     44.0 1.577e+04 1.168e-07
 41.44548     42.8 1.604e+04 1.012e-07
 41.45813     44.1 1.698e+04 1.135e-07
 41.47813     45.1 1.788e+04 1.087e-07
 41.48845     46.5 1.905e+04 1.456e-07
 41.49340     45.4 1.862e+04 8.328e-08
 41.50303     45.2 1.958e+04 6.740e-08
 41.51168     43.4 2.162e+04 5.909e-08
 41.51668     41.3 2.037e+04 3.939e-08
 41.52303     39.8 2.106e+04 2.946e-08
 41.53303     33.6 2.081e+04 2.844e-08
 41.54248     29.6 1.837e+04 2.580e-08
 41.54753     25.5 1.534e+04 2.405e-08
 41.55813     20.7 1.447e+04 3.457e-08
 41.57808     15.2 1.482e+04 3.610e-08
 41.59808      7.6 1.421e+04 2.737e-08
 41.61813      2.6 1.332e+04 2.568e-08
 41.63813      1.9 1.201e+04 2.085e-08
 41.65575      2.6 1.129e+04 1.179e-08
 41.66575      4.3 1.161e+04 1.528e-08
 41.67813      4.3 1.093e+04 7.346e-09
 41.70822      2.7 1.032e+04 2.201e-09
 41.74832      1.4 8.965e+03 1.025e-09
 41.77411      2.7 8.418e+03 8.687e-10
 41.79411      3.5 8.604e+03 6.691e-10
 41.82832      4.8 8.548e+03 7.312e-10
 41.86347      6.0 8.496e+03 9.834e-10
 41.88347      5.3 8.810e+03 1.476e-09
 41.90832      6.8 9.016e+03 1.875e-09
 41.94832      8.0 9.163e+03 1.932e-09
 41.98832      9.0 9.064e+03 1.816e-09
 42.01044      9.9 9.046e+03 1.738e-09
 42.03044     10.8 9.207e+03 2.124e-09
 42.06831     11.4 9.174e+03 2.518e-09
 42.10831     13.0 9.239e+03 3.287e-09
 42.14831     14.7 9.277e+03 3.234e-09
 42.16866     16.4 9.332e+03 2.547e-09
 42.18866     15.9 9.515e+03 2.557e-09
 42.22677     16.7 9.537e+03 2.055e-09
 42.24677     17.7 9.620e+03 2.105e-09
 42.26831     18.3 9.695e+03 2.276e-09
 42.30831     19.2 9.822e+03 3.255e-09
 42.34831     20.6 9.971e+03 4.184e-09
 42.38831     22.1 9.898e+03 3.888e-09
 42.42830     23.9 9.652e+03 2.686e-09
 42.45386     25.4 9.418e+03 1.595e-09
 42.46866     25.2 9.447e+03 2.043e-09
 42.48311     26.2 9.628e+03 1.940e-09
 42.50830     27.8 9.439e+03 1.370e-09
 42.54830     29.7 9.339e+03 1.029e-09
 42.58830     31.7 9.320e+03 8.153e-10
 42.62830     33.9 9.354e+03 6.657e-10
 42.66830     36.0 9.428e+03 5.595e-10
 42.69944     38.3 9.462e+03 5.387e-10
 42.71944     38.6 9.509e+03 4.542e-10
 42.73906     40.9 9.515e+03 4.704e-10
 42.75906     40.5 9.509e+03 6.377e-10
 42.78830     42.9 9.529e+03 7.477e-10
 42.82829     45.4 9.620e+03 8.576e-10
 42.86829     47.9 9.792e+03 9.330e-10
 42.90829     50.3 9.956e+03 9.949e-10
 42.93577     52.6 1.009e+04 1.100e-09
 42.95577     52.5 1.002e+04 1.141e-09
 42.98829     54.7 1.015e+04 1.267e-09
 43.02425     56.8 1.027e+04 1.385e-09
 43.04425     55.3 1.032e+04 1.195e-09
 43.06829     57.1 1.047e+04 1.427e-09
 43.10829     58.5 1.075e+04 1.877e-09
 43.13819     58.8 1.092e+04 2.340e-09
 43.15809     58.9 1.091e+04 3.269e-09
 43.17191     59.1 1.091e+04 5.033e-09
 43.18047     58.4 1.074e+04 6.000e-09
 43.18665     57.6 1.074e+04 5.468e-09
 43.19809     57.9 1.087e+04 6.616e-09
 43.21809     57.7 1.093e+04 6.764e-09
 43.23809     57.2 1.090e+04 6.644e-09
 43.25809     56.3 1.075e+04 6.274e-09
 43.27809     54.8 1.049e+04 5.977e-09
 43.29007     53.0 1.044e+04 6.031e-09
 43.30007     51.2 1.022e+04 5.249e-09
 43.31809     49.3 1.024e+04 6.257e-09
 43.32925     47.7 1.033e+04 7.855e-09
 43.33925     47.1 1.010e+04 7.058e-09
 43.35809     46.3 9.901e+03 8.026e-09
 43.38818     45.3 9.887e+03 8.246e-09
 43.42828     42.8 9.224e+03 6.159e-09
 43.46828     41.4 8.518e+03 4.069e-09
 43.50828     40.1 7.911e+03 2.822e-09
 43.54828     39.4 7.474e+03 2.419e-09
 43.58828     39.0 7.438e+03 2.436e-09
 43.61464     38.3 7.512e+03 2.683e-09
 43.63114     38.4 7.489e+03 2.634e-09
 43.64477     37.2 7.706e+03 2.966e-09
 43.65818     36.4 7.960e+03 3.538e-09
 43.67808     35.9 8.079e+03 4.310e-09
 43.69808     35.4 8.147e+03 4.905e-09
 43.71808     34.7 8.132e+03 4.938e-09
 43.74818     33.1 8.241e+03 5.076e-09
 43.78827     30.9 7.882e+03 4.262e-09
 43.82827     29.0 7.493e+03 3.681e-09
 43.86110     28.3 7.211e+03 3.340e-09
 43.88110     27.8 7.125e+03 2.999e-09
 43.89984     27.7 6.930e+03 2.719e-09
 43.91984     26.8 6.924e+03 2.660e-09
 43.94827     27.0 6.826e+03 2.602e-09
 43.98827     27.6 6.739e+03 2.541e-09
 44.02827     28.3 6.593e+03 2.317e-09
 44.06827     29.0 6.384e+03 1.925e-09
 44.09744     29.5 6.245e+03 1.619e-09
 44.11743     29.8 6.340e+03 1.695e-09
 44.14826     29.9 6.379e+03 1.589e-09
 44.18504     29.8 6.551e+03 1.782e-09
 44.20503     29.1 7.159e+03 2.885e-09
 44.22826     29.2 7.493e+03 3.582e-09
 44.26826     29.6 7.627e+03 3.927e-09
 44.30826     30.1 7.551e+03 3.614e-09
 44.33377     30.6 7.396e+03 3.016e-09
 44.35377     30.7 7.620e+03 3.322e-09
 44.38826     31.2 7.387e+03 2.682e-09
 44.42826     32.0 7.345e+03 2.453e-09
 44.46826     33.0 7.403e+03 2.517e-09
 44.49023     33.9 7.653e+03 2.843e-09
 44.51023     32.6 7.723e+03 2.975e-09
 44.54825     33.5 8.368e+03 4.544e-09
 44.57010     34.5 8.981e+03 6.330e-09
 44.59010     34.7 8.791e+03 5.321e-09
 44.62825     35.5 9.075e+03 5.682e-09
 44.66825     36.3 9.064e+03 5.187e-09
 44.70825     37.0 8.909e+03 3.834e-09
 44.74825     37.4 8.717e+03 2.609e-09
 44.77543     37.8 8.633e+03 2.316e-09
 44.79361     37.0 8.632e+03 2.474e-09
 44.80643     37.5 8.848e+03 2.911e-09
 44.82825     38.4 8.803e+03 2.679e-09
 44.86825     39.5 8.741e+03 2.436e-09
 44.90825     40.7 8.719e+03 2.056e-09
 44.94824     42.0 8.714e+03 1.642e-09
 44.98824     43.1 8.726e+03 1.303e-09
 45.02277     44.2 8.774e+03 1.117e-09
 45.04277     44.8 8.837e+03 9.716e-10
 45.06062     46.1 8.892e+03 9.735e-10
 45.08062     46.4 8.745e+03 8.782e-10
 45.10824     47.9 8.904e+03 8.736e-10
 45.14824     49.4 9.003e+03 8.498e-10
 45.18824     50.8 9.180e+03 7.784e-10
 45.22824     52.1 9.351e+03 7.162e-10
 45.25910     53.4 9.437e+03 7.242e-10
 45.27910     53.9 9.546e+03 7.212e-10
 45.30824     55.0 9.848e+03 7.872e-10
 45.34582     56.1 1.007e+04 9.583e-10
 45.36582     56.5 1.008e+04 1.206e-09
 45.38823     57.7 1.023e+04 1.407e-09
 45.42823     59.1 1.030e+04 1.530e-09
 45.46823     60.6 1.036e+04 1.644e-09
 45.49543     62.0 1.046e+04 1.780e-09
 45.51543     61.7 1.057e+04 1.921e-09
 45.54823     62.8 1.074e+04 2.377e-09
 45.58823     63.9 1.098e+04 3.121e-09
 45.62823     64.8 1.115e+04 3.574e-09
 45.65101     65.3 1.116e+04 3.477e-09
 45.67101     65.9 1.108e+04 3.370e-09
 45.70823     66.7 1.108e+04 2.955e-09
 45.73176     67.7 1.106e+04 2.062e-09
 45.75176     67.4 1.123e+04 1.292e-09
 45.78822     68.4 1.136e+04 8.215e-10
 45.82822     69.7 1.125e+04 7.178e-10
 45.86822     71.4 1.125e+04 7.180e-10
 45.90822     73.3 1.128e+04 7.345e-10
 45.93621     75.1 1.135e+04 7.730e-10
 45.95609     75.4 1.148e+04 8.397e-10
 45.98810     76.9 1.164e+04 9.124e-10
 46.02822     78.2 1.165e+04 1.172e-09
 46.06822     79.4 1.165e+04 1.716e-09
 46.10822     80.5 1.177e+04 2.939e-09
 46.14822     81.2 1.202e+04 5.295e-09
 46.18443     81.2 1.244e+04 8.427e-09
 46.20443     80.7 1.233e+04 6.801e-09
 46.22141     80.5 1.284e+04 8.739e-09
 46.24141     80.8 1.262e+04 7.504e-09
 46.26821     80.6 1.302e+04 8.277e-09
 46.30821     80.6 1.308e+04 7.784e-09
 46.34821     81.1 1.306e+04 6.040e-09
 46.38821     82.1 1.293e+04 4.173e-09
 46.42076     83.7 1.279e+04 2.942e-09
 46.44076     84.0 1.281e+04 3.038e-09
 46.46821     86.2 1.281e+04 2.787e-09
 46.50660     88.4 1.283e+04 2.807e-09
 46.52660     89.0 1.300e+04 3.428e-09
 46.53811     89.8 1.301e+04 3.515e-09
 46.54873     91.0 1.296e+04 3.660e-09
 46.55873     91.1 1.307e+04 3.442e-09
 46.57801     92.3 1.310e+04 3.616e-09
 46.59801     93.3 1.313e+04 3.854e-09
 46.61801     94.3 1.319e+04 4.052e-09
 46.63801     95.3 1.324e+04 4.174e-09
 46.65690     96.2 1.328e+04 4.236e-09
 46.66690     96.3 1.333e+04 3.871e-09
 46.66900     97.1 1.335e+04 3.971e-09
 46.67900     96.9 1.339e+04 3.955e-09
 46.69801     97.6 1.344e+04 3.995e-09
 46.71801     98.3 1.347e+04 4.063e-09
 46.73801     99.0 1.350e+04 4.203e-09
 46.75801     99.6 1.354e+04 4.464e-09
 46.77507    100.2 1.359e+04 4.910e-09
 46.78507    100.1 1.362e+04 4.795e-09
 46.79800    100.6 1.368e+04 5.327e-09
 46.81160    101.1 1.375e+04 6.035e-09
 46.82160    100.8 1.364e+04 6.128e-09
 46.83800    101.2 1.368e+04 6.843e-09
 46.85800    101.6 1.358e+04 7.303e-09
 46.87800    102.0 1.357e+04 7.296e-09
 46.89323    102.4 1.356e+04 7.146e-09
 46.90323    101.9 1.376e+04 7.611e-09
 46.91800    102.4 1.376e+04 7.671e-09
 46.93800    102.9 1.377e+04 7.692e-09
 46.95420    103.5 1.380e+04 7.714e-09
 46.96420    103.7 1.356e+04 6.698e-09
 46.97800    104.3 1.360e+04 6.996e-09
 46.99800    105.0 1.367e+04 7.389e-09
 47.01140    105.7 1.378e+04 7.761e-09
 47.02140    105.1 1.385e+04 9.056e-09
 47.03800    105.8 1.383e+04 8.905e-09
 47.05800    106.6 1.382e+04 8.686e-09
 47.07800    107.3 1.377e+04 8.263e-09
 47.09680    108.1 1.371e+04 7.553e-09
 47.10680    108.4 1.376e+04 8.726e-09
 47.11800    109.2 1.369e+04 8.114e-09
 47.12957    109.9 1.361e+04 7.220e-09
 47.13956    109.0 1.361e+04 5.340e-09
 47.15800    109.5 1.355e+04 4.683e-09
 47.17800    109.9 1.336e+04 4.354e-09
 47.19799    110.2 1.294e+04 4.392e-09
 47.21799    110.6 1.271e+04 4.475e-09
 47.23773    111.0 1.257e+04 4.593e-09
 47.24773    110.3 1.245e+04 4.144e-09
 47.24940    110.8 1.231e+04 4.178e-09
 47.25940    111.2 1.231e+04 3.882e-09
 47.27799    111.8 1.215e+04 4.019e-09
 47.29799    112.3 1.204e+04 4.157e-09
 47.31799    112.4 1.202e+04 4.292e-09
 47.33799    112.2 1.204e+04 4.690e-09
 47.35590    111.1 1.216e+04 6.369e-09
 47.36590    110.3 1.251e+04 6.210e-09
 47.37799    107.5 1.333e+04 1.156e-08
 47.39199    104.3 1.411e+04 2.160e-08
 47.40199    103.9 1.438e+04 2.571e-08
 47.41799    100.0 1.468e+04 2.830e-08
 47.43799     96.2 1.447e+04 2.684e-08
 47.45799     92.7 1.376e+04 1.992e-08
 47.47406     89.2 1.279e+04 1.313e-08
 47.48406     87.8 1.290e+04 1.420e-08
 47.49799     86.0 1.220e+04 1.148e-08
 47.51799     83.9 1.156e+04 9.039e-09
 47.54808     83.4 1.113e+04 7.201e-09
 47.58243     83.3 1.064e+04 4.917e-09
 47.60243     81.9 1.064e+04 3.388e-09
 47.62818     82.2 1.024e+04 1.623e-09
 47.66739     82.8 9.786e+03 1.053e-09
 47.68738     83.0 9.807e+03 1.043e-09
 47.70818     84.3 9.545e+03 1.012e-09
 47.74818     86.3 9.498e+03 1.016e-09
 47.78818     88.3 9.491e+03 1.023e-09
 47.81876     90.3 9.515e+03 1.012e-09
 47.83876     90.2 9.597e+03 9.419e-10
 47.86817     92.0 9.668e+03 9.782e-10
 47.90817     93.6 9.718e+03 1.008e-09
 47.94817     95.2 9.730e+03 1.034e-09
 47.97258     96.9 9.732e+03 1.054e-09
 47.99258     97.1 9.671e+03 9.264e-10
 48.02817     98.9 9.693e+03 9.534e-10
 48.05509    100.7 9.738e+03 9.985e-10
 48.07509    100.6 9.900e+03 1.268e-09
 48.10817    102.4 9.970e+03 1.288e-09
 48.14817    104.2 1.006e+04 1.327e-09
 48.18817    106.0 1.018e+04 1.425e-09
 48.22817    107.7 1.034e+04 1.651e-09
 48.25778    109.5 1.055e+04 2.060e-09
 48.27778    109.6 1.046e+04 1.919e-09
 48.29142    111.3 1.059e+04 2.428e-09
 48.31142    111.1 1.060e+04 2.393e-09
 48.34816    112.5 1.056e+04 2.627e-09
 48.38816    113.6 1.053e+04 2.613e-09
 48.42816    114.7 1.040e+04 2.474e-09
 48.46816    115.9 1.024e+04 2.129e-09
 48.50776    117.1 1.009e+04 1.737e-09
 48.52776    117.3 1.006e+04 1.528e-09
 48.54297    118.6 9.823e+03 1.453e-09
 48.56297    119.1 9.718e+03 1.210e-09
 48.58816    120.5 9.562e+03 1.211e-09
 48.62816    121.8 9.544e+03 1.233e-09
 48.66816    123.0 9.567e+03 1.342e-09
 48.70815    123.9 9.612e+03 1.529e-09
 48.74409    124.7 9.605e+03 1.618e-09
 48.76409    124.9 9.766e+03 2.048e-09
 48.78815    125.4 9.750e+03 2.033e-09
 48.82815    126.1 9.648e+03 1.906e-09
 48.86815    127.1 9.395e+03 1.533e-09
 48.90815    128.3 9.232e+03 1.312e-09
 48.94815    129.7 9.123e+03 1.233e-09
 48.98042    131.3 9.117e+03 1.242e-09
 49.00042    131.6 9.242e+03 1.434e-09
 49.02815    133.3 9.255e+03 1.495e-09
 49.06815    134.7 9.343e+03 1.678e-09
 49.10814    135.9 9.535e+03 1.978e-09
 49.13336    136.8 9.776e+03 2.380e-09
 49.15336    136.0 9.651e+03 2.241e-09
 49.18814    136.3 9.908e+03 2.847e-09
 49.21666    136.3 1.007e+04 3.390e-09
 49.22656    136.6 1.027e+04 3.623e-09
 49.23795    136.6 1.042e+04 4.463e-09
 49.25795    136.6 1.061e+04 5.500e-09
 49.27577    136.5 1.080e+04 6.757e-09
 49.28577    136.0 1.089e+04 7.446e-09
 49.29794    135.9 1.113e+04 8.882e-09
 49.31794    135.7 1.143e+04 1.064e-08
 49.33473    135.3 1.176e+04 1.272e-08
 49.34473    135.2 1.182e+04 1.289e-08
 49.35794    134.5 1.216e+04 1.510e-08
 49.37794    133.5 1.231e+04 1.627e-08
 49.39794    132.1 1.231e+04 1.624e-08
 49.41794    130.6 1.220e+04 1.562e-08
 49.42836    129.0 1.189e+04 1.379e-08
 49.43836    127.9 1.159e+04 1.114e-08
 49.45289    125.9 1.118e+04 8.896e-09
 49.47299    124.8 1.110e+04 8.877e-09
 49.50813    121.6 1.048e+04 6.963e-09
 49.54813    118.5 9.939e+03 5.732e-09
 49.58813    115.4 9.556e+03 5.078e-09
 49.62813    111.7 9.329e+03 4.605e-09
 49.65803    109.2 9.245e+03 4.380e-09
 49.67794    107.7 9.135e+03 4.240e-09
 49.68923    105.7 9.068e+03 4.058e-09
 49.70495    104.6 8.935e+03 3.921e-09
 49.72376    104.8 8.925e+03 3.879e-09
 49.74813    101.3 8.730e+03 3.441e-09
 49.78813     98.3 8.705e+03 3.447e-09
 49.82813     95.9 8.710e+03 3.621e-09
 49.86813     93.8 8.854e+03 4.253e-09
 49.90575     91.9 9.141e+03 4.872e-09
 49.92575     92.5 9.209e+03 5.315e-09
 49.94812     91.0 9.354e+03 5.460e-09
 49.98812     89.1 9.341e+03 4.955e-09
 50.00885     86.9 9.475e+03 4.649e-09
 50.02885     85.3 1.007e+04 6.739e-09
 50.06812     82.0 1.039e+04 7.073e-09
 50.10812     78.2 1.133e+04 9.224e-09
 50.14209     75.2 1.185e+04 1.202e-08
 50.16199     74.4 1.260e+04 1.852e-08
 50.17792     73.3 1.256e+04 2.002e-08
 50.19792     72.5 1.250e+04 1.954e-08
 50.21792     71.7 1.239e+04 1.811e-08
 50.23792     70.9 1.225e+04 1.579e-08
 50.25792     70.1 1.212e+04 1.391e-08
 50.27006     69.1 1.199e+04 1.218e-08
 50.28006     69.6 1.249e+04 1.618e-08
 50.29395     68.4 1.248e+04 1.427e-08
 50.30395     65.8 1.230e+04 1.297e-08
 50.31792     64.1 1.238e+04 1.333e-08
 50.33792     62.2 1.259e+04 1.484e-08
 50.35792     60.6 1.283e+04 1.753e-08
 50.37792     59.3 1.281e+04 1.971e-08
 50.38822     58.6 1.265e+04 1.882e-08
 50.39822     58.9 1.236e+04 1.705e-08
 50.41792     58.3 1.192e+04 1.305e-08
 50.43655     57.5 1.141e+04 8.586e-09
 50.44655     55.7 1.086e+04 5.817e-09
 50.45792     53.9 1.047e+04 3.858e-09
 50.47792     52.0 9.951e+03 3.065e-09
 50.49639     50.8 9.744e+03 3.010e-09
 50.50639     51.4 9.603e+03 2.795e-09
 50.51792     50.8 9.558e+03 2.791e-09
 50.53791     50.4 9.569e+03 2.813e-09
 50.55791     50.0 9.611e+03 2.967e-09
 50.57791     49.4 9.766e+03 3.360e-09
 50.58915     48.7 1.001e+04 3.950e-09
 50.59915     47.8 9.905e+03 3.482e-09
 50.61456     46.9 1.025e+04 4.434e-09
 50.62456     47.9 1.000e+04 3.989e-09
 50.63791     46.9 1.043e+04 5.233e-09
 50.65791     45.7 1.096e+04 7.134e-09
 50.67791     44.4 1.151e+04 9.897e-09
 50.69791     43.1 1.192e+04 1.293e-08
 50.71791     42.1 1.212e+04 1.478e-08
 50.73175     41.1 1.211e+04 1.386e-08
 50.73656     40.0 1.190e+04 1.156e-08
 50.74272     41.1 1.165e+04 1.060e-08
 50.75791     39.5 1.176e+04 9.157e-09
 50.77791     37.2 1.189e+04 8.777e-09
 50.79791     34.7 1.202e+04 9.094e-09
 50.81791     32.4 1.227e+04 9.396e-09
 50.83791     30.4 1.237e+04 9.047e-09
 50.85089     27.9 1.267e+04 8.373e-09
 50.86089     29.2 1.259e+04 9.137e-09
 50.87434     25.8 1.287e+04 9.004e-09
 50.88434     23.4 1.286e+04 8.764e-09
 50.89791     19.6 1.291e+04 1.023e-08
 50.91791     16.4 1.280e+04 1.284e-08
 50.93791     12.9 1.313e+04 1.556e-08
 50.95790      8.1 1.371e+04 1.908e-08
 50.96906      0.3 1.554e+04 3.090e-08
 50.97905      2.2 1.465e+04 2.701e-08
 50.99790     -3.9 1.534e+04 4.401e-08
 51.01694     -6.7 1.454e+04 3.897e-08
 51.02694     -6.6 1.350e+04 2.440e-08
 51.03790     -9.6 1.286e+04 1.527e-08
 51.05790    -14.6 1.274e+04 9.765e-09
 51.07722    -18.4 1.170e+04 9.410e-09
 51.08722    -16.7 1.180e+04 7.892e-09
 51.09790    -18.4 1.118e+04 8.365e-09
 51.11790    -19.2 1.095e+04 8.290e-09
 51.13790    -19.5 1.097e+04 6.358e-09
 51.15790    -20.3 1.072e+04 4.870e-09
 51.16954    -21.3 1.044e+04 3.529e-09
 51.17954    -21.0 1.035e+04 3.181e-09
 51.19539    -21.8 1.014e+04 2.812e-09
 51.20539    -21.2 9.964e+03 3.039e-09
 51.22800    -22.4 1.010e+04 2.718e-09
 51.26809    -23.3 1.030e+04 3.396e-09
 51.29799    -23.6 1.056e+04 4.684e-09
 51.31214    -23.7 1.074e+04 5.483e-09
 51.31780    -23.7 1.053e+04 4.966e-09
 51.32355    -22.9 1.052e+04 4.723e-09
 51.33790    -23.1 1.067e+04 5.658e-09
 51.35790    -23.1 1.073e+04 5.877e-09
 51.37789    -23.2 1.076e+04 5.312e-09
 51.39789    -23.8 1.073e+04 4.671e-09
 51.41789    -24.9 1.075e+04 4.417e-09
 51.43172    -26.4 1.111e+04 5.066e-09
 51.44172    -25.4 1.107e+04 5.068e-09
 51.45474    -27.1 1.132e+04 6.655e-09
 51.46474    -27.0 1.126e+04 6.461e-09
 51.47789    -27.8 1.143e+04 8.914e-09
 51.49789    -28.0 1.171e+04 1.082e-08
 51.51789    -28.5 1.183e+04 1.128e-08
 51.53789    -29.6 1.188e+04 1.071e-08
 51.54989    -31.4 1.215e+04 1.061e-08
 51.55989    -30.5 1.173e+04 8.479e-09
 51.57789    -33.3 1.226e+04 9.095e-09
 51.59733    -35.9 1.252e+04 1.321e-08
 51.60733    -34.9 1.224e+04 1.186e-08
 51.61789    -36.2 1.231e+04 1.540e-08
 51.63789    -37.0 1.269e+04 1.741e-08
 51.65789    -39.0 1.291e+04 1.741e-08
 51.66805    -42.4 1.298e+04 1.632e-08
 51.67805    -41.8 1.306e+04 1.736e-08
 51.69789    -45.5 1.276e+04 1.617e-08
 51.71789    -48.5 1.251e+04 1.622e-08
 51.73789    -50.5 1.234e+04 1.649e-08
 51.74993    -51.9 1.194e+04 1.495e-08
 51.75993    -50.6 1.196e+04 1.509e-08
 51.77622    -51.8 1.151e+04 1.195e-08
 51.78622    -51.4 1.140e+04 1.126e-08
 51.79788    -52.3 1.096e+04 8.820e-09
 51.81788    -53.0 1.057e+04 6.814e-09
 51.83788    -53.6 1.022e+04 5.402e-09
 51.85788    -54.0 9.942e+03 4.507e-09
 51.87788    -54.2 9.749e+03 3.956e-09
 51.89253    -54.2 9.629e+03 3.527e-09
 51.89903    -53.8 9.809e+03 3.942e-09
 51.90439    -52.5 9.650e+03 3.603e-09
 51.91788    -52.5 9.536e+03 3.154e-09
 51.93788    -52.7 9.458e+03 2.835e-09
 51.95788    -52.9 9.479e+03 2.746e-09
 51.97788    -53.5 9.560e+03 2.718e-09
 51.99788    -54.5 9.810e+03 3.088e-09
 52.01255    -55.9 9.890e+03 4.269e-09
 52.02255    -53.4 9.656e+03 3.047e-09
 52.03513    -54.9 9.820e+03 4.407e-09
 52.04513    -54.4 9.845e+03 4.333e-09
 52.05788    -57.3 1.072e+04 7.694e-09
 52.07788    -62.3 1.343e+04 1.759e-08
 52.09788    -67.8 1.586e+04 4.155e-08
 52.11788    -73.6 1.681e+04 6.646e-08
 52.13072    -80.4 1.662e+04 6.857e-08
 52.14072    -78.2 1.710e+04 8.274e-08
 52.15788    -84.9 1.553e+04 4.957e-08
 52.17773    -92.8 1.201e+04 1.110e-08
 52.18772    -93.3 1.198e+04 9.010e-09
 52.19788   -100.9 8.968e+03 2.841e-09
 52.21787   -103.8 8.212e+03 2.140e-09
 52.23787   -105.0 8.151e+03 2.057e-09
 52.24898   -106.6 8.195e+03 2.060e-09
 52.25898   -105.6 8.086e+03 2.052e-09
 52.27787   -106.7 8.131e+03 2.112e-09
 52.29787   -108.6 8.268e+03 2.360e-09
 52.31787   -110.6 8.596e+03 2.881e-09
 52.33032   -113.9 9.325e+03 4.402e-09
 52.34032   -112.0 9.035e+03 3.864e-09
 52.35705   -114.9 9.931e+03 6.268e-09
 52.36705   -115.6 1.034e+04 8.122e-09
 52.37787   -117.8 1.130e+04 1.311e-08
 52.39787   -119.3 1.207e+04 1.889e-08
 52.41787   -120.7 1.248e+04 2.273e-08
 52.43787   -121.9 1.256e+04 2.357e-08
 52.45787   -122.9 1.235e+04 2.174e-08
 52.47292   -123.7 1.176e+04 1.663e-08
 52.48027   -122.0 1.188e+04 1.778e-08
 52.48522   -122.5 1.165e+04 1.647e-08
 52.49787   -123.1 1.100e+04 1.213e-08
 52.51787   -123.6 1.034e+04 8.837e-09
 52.53787   -123.9 9.979e+03 7.089e-09
 52.55787   -124.1 9.929e+03 6.667e-09
 52.57787   -125.3 1.050e+04 6.765e-09
 52.59338   -128.2 1.372e+04 1.233e-08
 52.60338   -129.5 1.477e+04 1.498e-08
 52.61552   -132.2 1.696e+04 4.688e-08
 52.62552   -126.5 1.388e+04 1.128e-08
 52.63786   -129.4 1.655e+04 3.679e-08
 52.65786   -130.8 1.763e+04 1.031e-07
 52.67786   -131.4 1.802e+04 1.736e-07
 52.69786   -131.9 1.809e+04 1.910e-07
 52.71155   -132.5 1.823e+04 1.720e-07
 52.71650   -131.6 1.835e+04 2.513e-07
 52.72276   -131.8 1.835e+04 2.412e-07
 52.73276   -132.1 1.840e+04 1.635e-07
 52.74276   -133.5 1.828e+04 7.754e-08
 52.75276   -135.9 1.740e+04 3.368e-08
 52.76276   -138.7 1.513e+04 1.709e-08
 52.76807   -141.2 1.264e+04 1.197e-08
 52.77084   -137.3 1.586e+04 2.557e-08
 52.77554   -137.3 1.597e+04 2.267e-08
 52.78276   -139.7 1.321e+04 1.582e-08
 52.79276   -140.8 1.219e+04 1.420e-08
 52.80276   -141.3 1.191e+04 1.342e-08
 52.81781   -142.0 1.161e+04 1.287e-08
 52.82972   -143.8 1.058e+04 9.553e-09
 52.83972   -143.8 1.036e+04 7.682e-09
 52.85786   -145.1 1.014e+04 6.531e-09
 52.87786   -146.8 1.003e+04 6.128e-09
 52.89786   -149.0 1.008e+04 6.084e-09
 52.91071   -151.6 1.088e+04 7.615e-09
 52.92071   -150.3 1.093e+04 8.740e-09
 52.93786   -152.8 1.177e+04 1.162e-08
 52.95786   -156.4 1.317e+04 2.847e-08
 52.97786   -157.1 1.315e+04 3.152e-08
 52.99786   -157.4 1.307e+04 3.183e-08
 53.01786   -157.5 1.255e+04 2.676e-08
 53.03786   -157.6 1.199e+04 2.011e-08
 53.05331   -157.7 1.145e+04 1.479e-08
 53.06151   -157.0 1.136e+04 1.475e-08
 53.06605   -158.8 1.104e+04 1.196e-08
 53.07785   -158.9 1.055e+04 9.345e-09
 53.09785   -158.5 1.017e+04 7.818e-09
 53.11785   -157.5 9.943e+03 6.902e-09
 53.13785   -156.6 9.798e+03 6.180e-09
 53.15785   -155.5 9.671e+03 5.442e-09
 53.17422   -154.5 9.549e+03 4.688e-09
 53.18422   -155.3 9.465e+03 4.394e-09
 53.19591   -154.2 9.390e+03 3.885e-09
 53.20591   -153.7 9.321e+03 3.719e-09
 53.21785   -152.5 9.268e+03 3.381e-09
 53.23785   -151.5 9.253e+03 3.159e-09
 53.25785   -150.5 9.255e+03 3.057e-09
 53.27785   -149.5 9.260e+03 3.037e-09
 53.29238   -148.7 9.387e+03 3.069e-09
 53.30238   -150.1 1.018e+04 4.758e-09
 53.31785   -149.9 1.088e+04 6.516e-09
 53.33785   -149.7 1.178e+04 9.803e-09
 53.34851   -149.4 1.264e+04 1.512e-08
 53.35851   -148.0 1.136e+04 9.506e-09
 53.37785   -147.6 1.205e+04 1.359e-08
 53.39785   -147.0 1.265e+04 1.902e-08
 53.41055   -146.4 1.303e+04 2.508e-08
 53.42055   -146.7 1.323e+04 3.572e-08
 53.43785   -146.1 1.319e+04 3.618e-08
 53.45784   -145.5 1.282e+04 3.444e-08
 53.47784   -144.6 1.235e+04 2.987e-08
 53.49111   -143.7 1.174e+04 2.427e-08
 53.50111   -142.6 1.195e+04 2.163e-08
 53.51784   -141.7 1.148e+04 1.791e-08
 53.52872   -140.7 1.098e+04 1.422e-08
 53.53871   -140.7 1.054e+04 1.175e-08
 53.55784   -139.9 1.017e+04 9.247e-09
 53.57784   -139.0 9.831e+03 7.197e-09
 53.59784   -138.0 9.570e+03 5.642e-09
 53.61784   -136.9 9.389e+03 4.517e-09
 53.63370   -135.6 9.382e+03 3.876e-09
 53.64275   -135.1 9.474e+03 4.329e-09
 53.64698   -136.1 9.266e+03 3.384e-09
 53.66804   -134.7 9.167e+03 3.039e-09
 53.70803   -132.6 9.108e+03 2.865e-09
 53.74803   -130.6 9.133e+03 2.857e-09
 53.77650   -128.8 9.332e+03 2.998e-09
 53.79650   -127.1 9.417e+03 3.171e-09
 53.82803   -125.6 9.596e+03 3.256e-09
 53.86341   -124.1 9.713e+03 3.269e-09
 53.88341   -123.8 9.357e+03 2.536e-09
 53.90803   -122.5 9.528e+03 2.727e-09
 53.94803   -121.3 9.727e+03 2.873e-09
 53.98803   -120.1 9.961e+03 2.937e-09
 54.02803   -118.8 1.020e+04 2.968e-09
 54.06169   -117.4 1.042e+04 3.013e-09
 54.08169   -116.3 1.062e+04 3.634e-09
 54.09974   -114.8 1.078e+04 3.922e-09
 54.11974   -115.0 1.093e+04 5.720e-09
 54.14802   -113.5 1.094e+04 5.586e-09
 54.18802   -111.7 1.079e+04 4.744e-09
 54.22802   -109.8 1.057e+04 3.856e-09
 54.26802   -107.9 1.042e+04 3.157e-09
 54.30802   -106.1 1.034e+04 2.603e-09
 54.33608   -104.4 1.027e+04 2.227e-09
 54.35495   -104.7 1.023e+04 2.190e-09
 54.36689   -103.7 1.044e+04 2.786e-09
 54.38802   -101.9 1.032e+04 2.483e-09
 54.42802   -100.1 1.020e+04 2.203e-09
 54.46802    -98.2 1.011e+04 1.931e-09
 54.50802    -96.2 1.003e+04 1.674e-09
 54.54801    -94.3 9.969e+03 1.456e-09
 54.57241    -92.4 9.917e+03 1.299e-09
 54.59241    -92.2 9.912e+03 1.006e-09
 54.62801    -90.2 9.913e+03 9.360e-10
 54.65208    -88.1 9.920e+03 9.228e-10
 54.67208    -87.9 1.007e+04 1.061e-09
 54.70801    -86.0 1.007e+04 1.072e-09
 54.74801    -84.4 1.007e+04 1.277e-09
 54.78801    -82.8 1.013e+04 1.684e-09
 54.80874    -81.5 1.026e+04 2.274e-09
 54.82874    -81.2 1.038e+04 2.606e-09
 54.86801    -80.0 1.058e+04 3.460e-09
 54.90801    -79.1 1.071e+04 3.973e-09
 54.93728    -78.4 1.074e+04 4.060e-09
 54.95728    -79.1 1.093e+04 4.351e-09
 54.98800    -78.6 1.106e+04 4.162e-09
 55.02507    -78.1 1.115e+04 3.967e-09
 55.04507    -76.4 1.087e+04 3.412e-09
 55.06800    -75.7 1.098e+04 3.228e-09
 55.10800    -75.7 1.140e+04 3.653e-09
 55.14800    -76.0 1.161e+04 5.754e-09
 55.18800    -76.6 1.178e+04 8.923e-09
 55.22248    -77.7 1.187e+04 1.106e-08
 55.24248    -79.3 1.164e+04 9.334e-09
 55.26141    -79.9 1.130e+04 8.533e-09
 55.28131    -79.0 1.156e+04 1.005e-08
 55.29780    -79.4 1.127e+04 8.687e-09
 55.31780    -79.5 1.100e+04 7.041e-09
 55.33780    -79.6 1.077e+04 5.622e-09
 55.35780    -79.5 1.061e+04 4.411e-09
 55.37488    -79.3 1.042e+04 3.432e-09
 55.38488    -79.4 1.036e+04 2.549e-09
 55.38938    -78.9 1.030e+04 2.455e-09
 55.39938    -78.7 1.047e+04 2.393e-09
 55.42790    -77.7 1.038e+04 2.562e-09
 55.46799    -76.2 1.037e+04 2.563e-09
 55.49774    -74.2 1.036e+04 2.559e-09
 55.50764    -74.3 1.038e+04 2.383e-09
 55.51748    -73.5 1.040e+04 2.383e-09
 55.52757    -73.7 1.011e+04 1.208e-09
 55.54799    -72.1 1.016e+04 1.237e-09
 55.58799    -71.1 1.040e+04 1.741e-09
 55.62799    -70.2 1.064e+04 3.050e-09
 55.66799    -69.1 1.089e+04 4.924e-09
 55.70799    -68.1 1.098e+04 6.212e-09
 55.73407    -67.2 1.092e+04 6.400e-09
 55.75407    -67.0 1.127e+04 8.152e-09
 55.78798    -66.1 1.083e+04 6.319e-09
 55.81287    -64.7 1.020e+04 3.470e-09
 55.83287    -63.5 1.081e+04 6.657e-09
 55.86798    -61.9 1.036e+04 4.178e-09
 55.90798    -60.2 1.010e+04 2.703e-09
 55.94798    -58.7 1.004e+04 2.183e-09
 55.97040    -57.3 1.007e+04 2.127e-09
 55.99040    -58.2 1.017e+04 2.093e-09
 56.01788    -57.5 1.037e+04 2.778e-09
 56.03778    -57.2 1.040e+04 3.592e-09
 56.05778    -56.6 1.048e+04 4.712e-09
 56.07778    -55.9 1.058e+04 5.934e-09
 56.08838    -55.4 1.067e+04 7.020e-09
 56.09837    -55.9 1.075e+04 6.980e-09
 56.11778    -55.6 1.081e+04 7.291e-09
 56.13778    -55.4 1.079e+04 7.322e-09
 56.15778    -55.1 1.064e+04 7.356e-09
 56.17778    -54.8 1.049e+04 7.156e-09
 56.19654    -54.4 1.035e+04 6.751e-09
 56.20654    -55.2 1.041e+04 6.876e-09
 56.21778    -54.8 1.026e+04 6.270e-09
 56.23778    -54.4 1.011e+04 5.568e-09
 56.25047    -54.1 9.952e+03 4.895e-09
 56.26047    -53.6 1.018e+04 6.131e-09
 56.27778    -53.3 1.003e+04 5.538e-09
 56.29778    -53.0 9.898e+03 5.101e-09
 56.31471    -52.9 9.850e+03 4.870e-09
 56.32471    -53.8 9.920e+03 5.211e-09
 56.33778    -53.4 9.925e+03 5.143e-09
 56.35778    -53.2 9.928e+03 5.102e-09
 56.38316    -53.0 9.892e+03 4.985e-09
 56.40326    -51.4 1.031e+04 7.700e-09
 56.42307    -50.9 1.037e+04 8.313e-09
 56.44307    -52.7 1.035e+04 7.588e-09
 56.46797    -51.8 1.012e+04 6.059e-09
 56.50797    -50.6 9.801e+03 4.150e-09
 56.54797    -49.3 9.478e+03 2.716e-09
 56.58797    -47.8 9.396e+03 2.131e-09
 56.62796    -47.0 9.403e+03 2.049e-09
 56.65940    -47.6 1.005e+04 2.652e-09
 56.67940    -49.9 1.069e+04 4.329e-09
 56.68836    -49.6 1.110e+04 5.568e-09
 56.69826    -47.7 1.062e+04 4.632e-09
 56.71777    -49.5 1.176e+04 7.657e-09
 56.73777    -51.7 1.299e+04 1.419e-08
 56.75777    -53.9 1.362e+04 2.711e-08
 56.77737    -55.0 1.363e+04 3.632e-08
 56.78737    -55.5 1.377e+04 4.476e-08
 56.79776    -56.0 1.327e+04 4.008e-08
 56.81776    -56.5 1.230e+04 2.340e-08
 56.83086    -58.0 1.125e+04 1.267e-08
 56.84086    -56.1 1.196e+04 1.779e-08
 56.85776    -58.3 1.066e+04 9.695e-09
 56.87776    -59.9 9.948e+03 7.626e-09
 56.89554    -60.5 9.739e+03 7.124e-09
 56.90554    -60.8 9.526e+03 6.008e-09
 56.91776    -60.8 9.520e+03 6.069e-09
 56.93776    -61.0 9.616e+03 6.633e-09
 56.95776    -61.1 9.789e+03 7.691e-09
 56.97346    -61.3 1.002e+04 9.238e-09
 56.98346    -60.8 9.481e+03 6.735e-09
 56.99776    -61.0 9.672e+03 7.847e-09
 57.01371    -61.1 9.880e+03 9.050e-09
 57.02371    -61.1 9.741e+03 7.704e-09
 57.03776    -61.2 9.952e+03 8.748e-09
 57.05776    -61.4 1.013e+04 9.530e-09
 57.07776    -61.6 1.030e+04 1.007e-08
 57.09776    -61.7 1.048e+04 1.040e-08
 57.11605    -61.7 1.068e+04 1.056e-08
 57.12605    -61.1 1.027e+04 9.139e-09
 57.13187    -61.1 1.046e+04 9.428e-09
 57.14187    -61.4 1.022e+04 8.001e-09
 57.15776    -61.4 1.037e+04 8.554e-09
 57.17776    -61.4 1.056e+04 9.178e-09
 57.19776    -61.5 1.081e+04 9.952e-09
 57.21775    -61.6 1.111e+04 1.089e-08
 57.23775    -61.7 1.144e+04 1.196e-08
 57.25004    -62.0 1.173e+04 1.290e-08
 57.26004    -62.3 1.177e+04 1.281e-08
 57.26865    -62.5 1.200e+04 1.359e-08
 57.27865    -61.5 1.170e+04 1.250e-08
 57.29775    -61.7 1.182e+04 1.280e-08
 57.31775    -61.8 1.183e+04 1.279e-08
 57.33775    -61.7 1.183e+04 1.157e-08
 57.35775    -61.4 1.178e+04 9.514e-09
 57.36821    -61.0 1.174e+04 7.551e-09
 57.37820    -61.5 1.170e+04 6.915e-09
 57.39775    -61.0 1.170e+04 5.656e-09
 57.41125    -60.5 1.170e+04 4.702e-09
 57.42125    -59.9 1.154e+04 4.472e-09
 57.43775    -59.3 1.156e+04 3.805e-09
 57.45775    -58.5 1.160e+04 3.386e-09
 57.47637    -57.8 1.163e+04 3.166e-09
 57.48637    -58.1 1.174e+04 3.274e-09
 57.49775    -57.3 1.186e+04 3.285e-09
 57.51775    -56.7 1.203e+04 3.673e-09
 57.53775    -56.3 1.207e+04 4.634e-09
 57.55385    -55.9 1.216e+04 6.319e-09
 57.56385    -55.4 1.211e+04 4.418e-09
 57.57775    -54.8 1.230e+04 6.397e-09
 57.59454    -54.3 1.256e+04 9.003e-09
 57.60464    -54.9 1.257e+04 6.510e-09
 57.61784    -54.0 1.293e+04 1.145e-08
 57.63774    -53.7 1.305e+04 1.210e-08
 57.65774    -53.6 1.308e+04 1.213e-08
 57.67774    -53.5 1.301e+04 1.141e-08
 57.69645    -53.5 1.286e+04 1.027e-08
 57.70645    -53.1 1.277e+04 9.687e-09
 57.71270    -53.0 1.260e+04 8.704e-09
 57.72270    -53.2 1.256e+04 6.144e-09
 57.73774    -52.9 1.243e+04 5.696e-09
 57.75774    -52.4 1.229e+04 5.194e-09
 57.77774    -51.9 1.216e+04 4.700e-09
 57.79774    -51.3 1.204e+04 4.255e-09
 57.81774    -50.5 1.193e+04 3.899e-09
 57.83087    -49.7 1.187e+04 3.668e-09
 57.84087    -49.7 1.188e+04 3.104e-09
 57.84914    -49.2 1.188e+04 2.722e-09
 57.86924    -48.3 1.181e+04 2.724e-09
 57.90793    -46.6 1.169e+04 2.354e-09
 57.94793    -44.6 1.158e+04 2.085e-09
 57.98793    -42.4 1.155e+04 1.909e-09
 58.02793    -40.0 1.152e+04 1.817e-09
 58.05740    -37.4 1.149e+04 1.789e-09
 58.07740    -37.7 1.164e+04 1.477e-09
 58.10793    -35.3 1.177e+04 1.657e-09
 58.13444    -33.0 1.188e+04 2.300e-09
 58.15443    -31.7 1.191e+04 2.321e-09
 58.17547    -29.8 1.216e+04 3.406e-09
 58.18537    -30.0 1.227e+04 3.447e-09
 58.19773    -29.9 1.227e+04 3.681e-09
 58.21773    -29.0 1.265e+04 6.140e-09
 58.23773    -28.4 1.317e+04 8.859e-09
 58.25773    -28.4 1.381e+04 1.311e-08
 58.27684    -28.7 1.442e+04 1.979e-08
 58.28684    -27.1 1.416e+04 1.627e-08
 58.29354    -27.5 1.471e+04 2.347e-08
 58.30354    -30.3 1.456e+04 2.591e-08
 58.31773    -30.4 1.462e+04 3.030e-08
 58.33773    -30.6 1.466e+04 2.913e-08
 58.35773    -30.8 1.465e+04 2.326e-08
 58.37773    -31.5 1.453e+04 1.591e-08
 58.39773    -32.7 1.425e+04 1.082e-08
 58.41170    -33.7 1.393e+04 9.055e-09
 58.42170    -34.9 1.357e+04 5.795e-09
 58.42944    -34.9 1.356e+04 6.675e-09
 58.43944    -34.4 1.360e+04 8.122e-09
 58.45773    -34.5 1.351e+04 1.065e-08
 58.47772    -34.1 1.346e+04 1.299e-08
 58.49772    -33.7 1.347e+04 1.417e-08
 58.51772    -33.6 1.348e+04 1.435e-08
 58.52987    -33.7 1.349e+04 1.405e-08
 58.53987    -34.7 1.349e+04 1.033e-08
 58.55772    -37.5 1.467e+04 1.171e-08
 58.57203    -42.5 1.587e+04 3.253e-08
 58.58203    -43.4 1.585e+04 4.460e-08
 58.59772    -45.3 1.640e+04 9.746e-08
 58.61772    -47.1 1.662e+04 1.160e-07
 58.63772    -48.9 1.593e+04 8.271e-08
 58.64804    -50.7 1.417e+04 2.715e-08
 58.65803    -50.4 1.388e+04 2.208e-08
 58.67772    -52.6 1.278e+04 9.777e-09
 58.69772    -54.1 1.221e+04 7.247e-09
 58.71463    -54.3 1.204e+04 6.839e-09
 58.72463    -54.4 1.207e+04 6.532e-09
 58.73772    -54.3 1.216e+04 7.039e-09
 58.75620    -54.4 1.250e+04 7.900e-09
 58.76620    -53.9 1.265e+04 7.695e-09
 58.77772    -54.6 1.305e+04 9.344e-09
 58.79772    -55.7 1.353e+04 1.274e-08
 58.81772    -57.1 1.398e+04 1.905e-08
 58.83772    -58.6 1.440e+04 2.760e-08
 58.85723    -60.5 1.469e+04 3.427e-08
 58.86723    -61.7 1.460e+04 3.277e-08
 58.87437    -64.1 1.454e+04 3.198e-08
 58.88437    -64.7 1.493e+04 3.918e-08
 58.89771    -67.4 1.456e+04 3.180e-08
 58.91771    -70.1 1.410e+04 2.465e-08
 58.93771    -72.4 1.366e+04 2.005e-08
 58.95771    -73.9 1.335e+04 1.681e-08
 58.97771    -74.9 1.314e+04 1.448e-08
 58.99253    -75.4 1.306e+04 1.334e-08
 59.00253    -75.7 1.325e+04 1.811e-08
 59.00983    -75.9 1.324e+04 1.789e-08
 59.01983    -76.3 1.332e+04 1.943e-08
 59.03771    -76.8 1.350e+04 2.008e-08
 59.05771    -78.1 1.428e+04 2.854e-08
 59.07771    -79.2 1.544e+04 5.331e-08
 59.09771    -80.2 1.667e+04 9.790e-08
 59.11070    -82.0 1.764e+04 1.456e-07
 59.12070    -82.4 1.755e+04 1.520e-07
 59.13771    -85.4 1.781e+04 1.696e-07
 59.15243    -88.5 1.754e+04 1.555e-07
 59.16242    -88.3 1.689e+04 1.038e-07
 59.17771    -90.5 1.606e+04 6.999e-08
 59.19771    -92.2 1.495e+04 4.205e-08
 59.21771    -93.4 1.382e+04 2.477e-08
 59.22887    -94.0 1.294e+04 1.603e-08
 59.23887    -93.5 1.289e+04 1.538e-08
 59.25771    -93.8 1.240e+04 1.138e-08
 59.27771    -93.9 1.211e+04 9.352e-09
 59.29502    -93.9 1.195e+04 8.339e-09
 59.30502    -93.6 1.207e+04 9.091e-09
 59.31770    -93.5 1.200e+04 8.563e-09
 59.33703    -93.4 1.193e+04 7.983e-09
 59.34703    -93.0 1.177e+04 6.019e-09
 59.35770    -92.7 1.162e+04 5.037e-09
 59.37770    -92.3 1.145e+04 4.062e-09
 59.39770    -91.7 1.130e+04 3.209e-09
 59.41770    -91.1 1.122e+04 2.593e-09
 59.43762    -90.5 1.121e+04 2.282e-09
 59.45512    -89.9 1.128e+04 2.290e-09
 59.47530    -89.7 1.118e+04 1.786e-09
 59.50790    -88.5 1.120e+04 1.659e-09
 59.54789    -87.5 1.126e+04 1.668e-09
 59.58041    -86.9 1.144e+04 1.918e-09
 59.60032    -86.5 1.143e+04 1.849e-09
 59.61770    -86.0 1.150e+04 1.939e-09
 59.63770    -85.8 1.154e+04 2.057e-09
 59.65770    -85.3 1.163e+04 2.237e-09
 59.67770    -85.0 1.169e+04 2.371e-09
 59.69153    -84.5 1.181e+04 2.642e-09
 59.71163    -84.1 1.167e+04 2.142e-09
 59.74789    -83.2 1.191e+04 2.655e-09
 59.77779    -82.6 1.218e+04 3.469e-09
 59.79769    -82.4 1.235e+04 4.039e-09
 59.80970    -82.3 1.247e+04 4.522e-09
 59.81970    -81.9 1.233e+04 3.637e-09
 59.83769    -81.8 1.241e+04 3.869e-09
 59.85769    -81.6 1.247e+04 4.057e-09
 59.87541    -81.6 1.247e+04 4.078e-09
 59.88541    -81.1 1.248e+04 3.547e-09
 59.89769    -81.0 1.252e+04 3.490e-09
 59.91769    -81.0 1.262e+04 3.208e-09
 59.92787    -81.2 1.271e+04 3.020e-09
 59.93786    -80.6 1.267e+04 3.109e-09
 59.95769    -80.8 1.278e+04 2.977e-09
 59.97769    -81.2 1.283e+04 2.937e-09
 59.99769    -81.9 1.314e+04 2.942e-09
 60.01769    -82.9 1.340e+04 3.672e-09
 60.02801    -83.8 1.343e+04 5.442e-09
 60.03636    -83.2 1.349e+04 5.529e-09
 60.04603    -82.3 1.350e+04 4.248e-09
 60.05769    -83.1 1.360e+04 6.290e-09
 60.07769    -83.7 1.380e+04 8.630e-09
 60.09769    -84.3 1.401e+04 1.030e-08
 60.11769    -84.9 1.410e+04 1.077e-08
 60.13768    -85.5 1.410e+04 1.072e-08
 60.15420    -85.9 1.405e+04 9.667e-09
 60.16420    -84.5 1.396e+04 9.000e-09
 60.17061    -84.7 1.391e+04 7.523e-09
 60.18061    -84.3 1.389e+04 7.694e-09
 60.19768    -84.3 1.385e+04 6.405e-09
 60.21768    -84.2 1.378e+04 5.411e-09
 60.23768    -84.0 1.366e+04 4.903e-09
 60.25768    -83.4 1.352e+04 4.721e-09
 60.27236    -82.4 1.342e+04 4.645e-09
 60.28236    -81.5 1.343e+04 3.755e-09
 60.29768    -80.6 1.333e+04 3.822e-09
 60.31321    -79.8 1.331e+04 3.931e-09
 60.32321    -79.6 1.327e+04 4.167e-09
 60.34778    -78.7 1.325e+04 4.042e-09
 60.38073    -75.9 1.298e+04 3.731e-09
 60.40073    -74.2 1.293e+04 2.884e-09
 60.42787    -71.9 1.293e+04 3.181e-09
 60.45600    -69.5 1.298e+04 3.610e-09
 60.47600    -69.0 1.301e+04 4.450e-09
 60.50787    -66.6 1.321e+04 5.411e-09
 60.54787    -64.5 1.339e+04 6.331e-09
 60.58787    -62.7 1.344e+04 6.777e-09
 60.61706    -61.2 1.334e+04 6.644e-09
 60.63706    -60.1 1.337e+04 7.676e-09
 60.66787    -58.5 1.317e+04 6.237e-09
 60.70787    -56.7 1.292e+04 4.079e-09
 60.74120    -54.7 1.276e+04 2.397e-09
 60.76120    -54.6 1.278e+04 2.730e-09
 60.78786    -52.4 1.270e+04 1.677e-09
 60.82786    -50.1 1.268e+04 1.189e-09
 60.85339    -47.8 1.271e+04 9.527e-10
 60.87339    -46.9 1.295e+04 9.365e-10
 60.90786    -44.6 1.289e+04 8.111e-10
 60.94786    -42.1 1.287e+04 7.454e-10
 60.98786    -39.6 1.287e+04 7.118e-10
 61.02639    -37.2 1.289e+04 6.978e-10
 61.04639    -37.3 1.289e+04 7.801e-10
 61.06786    -34.9 1.289e+04 7.632e-10
 61.08972    -32.7 1.288e+04 7.675e-10
 61.10972    -32.3 1.279e+04 8.404e-10
 61.14786    -30.4 1.265e+04 9.688e-10
 61.18786    -28.7 1.249e+04 1.268e-09
 61.22785    -27.1 1.239e+04 1.796e-09
 61.26785    -25.6 1.233e+04 2.566e-09
 61.29775    -24.6 1.244e+04 3.413e-09
 61.31586    -24.6 1.243e+04 3.663e-09
 61.32596    -25.5 1.240e+04 3.518e-09
 61.33159    -26.0 1.269e+04 6.268e-09
 61.35159    -26.5 1.302e+04 8.568e-09
 61.38785    -28.0 1.325e+04 1.499e-08
 61.41775    -28.3 1.336e+04 1.723e-08
 61.43403    -29.5 1.308e+04 1.709e-08
 61.44403    -30.3 1.288e+04 1.630e-08
 61.45765    -30.9 1.223e+04 1.127e-08
 61.47399    -31.2 1.192e+04 8.598e-09
 61.48399    -31.7 1.179e+04 7.409e-09
 61.50775    -31.3 1.174e+04 5.776e-09
 61.54239    -31.8 1.115e+04 2.847e-09
 61.56239    -32.4 1.088e+04 1.873e-09
 61.58785    -31.4 1.082e+04 1.740e-09
 61.61679    -30.1 1.085e+04 1.918e-09
 61.63678    -30.2 1.093e+04 2.106e-09
 61.66784    -28.9 1.095e+04 2.220e-09
 61.70784    -27.6 1.099e+04 2.179e-09
 61.74784    -26.1 1.099e+04 1.921e-09
 61.77872    -24.6 1.098e+04 1.581e-09
 61.79872    -24.7 1.090e+04 1.381e-09
 61.82784    -23.0 1.088e+04 1.257e-09
 61.86784    -21.1 1.089e+04 1.189e-09
 61.90198    -19.2 1.092e+04 1.126e-09
 61.92198    -19.1 1.088e+04 8.343e-10
 61.94784    -17.3 1.093e+04 7.583e-10
 61.98784    -15.8 1.097e+04 7.201e-10
 62.01506    -14.5 1.104e+04 7.555e-10
 62.03505    -14.1 1.102e+04 5.218e-10
 62.06783    -13.2 1.104e+04 6.702e-10
 62.10783    -11.9 1.088e+04 1.066e-09
 62.14783    -10.2 1.099e+04 1.482e-09
 62.18718     -8.8 1.119e+04 1.667e-09
 62.20718     -7.9 1.116e+04 1.747e-09
 62.22783     -6.8 1.130e+04 1.895e-09
 62.25139     -5.8 1.146e+04 2.006e-09
 62.27139     -5.8 1.157e+04 2.159e-09
 62.30783     -5.9 1.206e+04 2.435e-09
 62.34783     -7.0 1.228e+04 3.771e-09
 62.38783     -7.5 1.238e+04 7.368e-09
 62.42783     -7.2 1.282e+04 1.055e-08
 62.46772     -7.8 1.295e+04 1.057e-08
 62.49227     -8.9 1.314e+04 6.430e-09
 62.51237     -8.3 1.307e+04 6.239e-09
 62.54782     -8.1 1.316e+04 3.673e-09
 62.58782     -7.7 1.322e+04 2.515e-09
 62.62782     -6.9 1.329e+04 2.221e-09
 62.66782     -5.7 1.337e+04 2.113e-09
 62.70405     -4.4 1.360e+04 1.859e-09
 62.72405     -4.8 1.360e+04 1.751e-09
 62.74782     -3.7 1.388e+04 1.402e-09
 62.77757     -2.8 1.395e+04 1.317e-09
 62.79757     -1.5 1.386e+04 1.148e-09
 62.82782     -0.4 1.398e+04 1.178e-09
 62.86781      0.4 1.382e+04 1.535e-09
 62.90781      1.8 1.354e+04 2.235e-09
 62.94039      3.4 1.326e+04 2.926e-09
 62.96039      2.8 1.353e+04 3.043e-09
 62.98781      4.1 1.350e+04 3.667e-09
 63.02781      5.2 1.351e+04 4.403e-09
 63.06276      5.4 1.404e+04 7.095e-09
 63.08276      7.9 1.375e+04 3.997e-09
 63.09771      6.5 1.418e+04 1.018e-08
 63.11761      5.8 1.461e+04 2.871e-08
 63.13761      6.1 1.584e+04 7.823e-08
 63.15761      6.1 1.703e+04 1.673e-07
 63.17652      6.6 1.785e+04 2.839e-07
 63.18652      5.6 1.722e+04 1.414e-07
 63.19761      4.2 1.684e+04 8.312e-08
 63.21517      2.6 1.541e+04 3.899e-08
 63.22517      3.9 1.618e+04 6.247e-08
 63.23761      2.9 1.468e+04 3.211e-08
 63.25761      2.9 1.401e+04 2.030e-08
 63.27761      3.2 1.360e+04 1.443e-08
 63.30771      3.9 1.338e+04 1.178e-08
 63.34780      6.1 1.319e+04 9.630e-09
 63.38780      8.7 1.309e+04 8.611e-09
 63.41305     10.3 1.305e+04 9.964e-09
 63.43305     10.4 1.332e+04 1.256e-08
 63.45770     11.4 1.340e+04 1.392e-08
 63.47760     11.8 1.346e+04 1.549e-08
 63.49760     12.6 1.360e+04 1.918e-08
 63.51036     13.0 1.382e+04 2.104e-08
 63.52036     13.4 1.378e+04 2.044e-08
 63.53102     13.8 1.377e+04 2.284e-08
 63.54102     13.7 1.414e+04 2.911e-08
 63.55760     14.2 1.419e+04 3.169e-08
 63.57760     14.5 1.419e+04 2.927e-08
 63.59760     14.8 1.401e+04 2.485e-08
 63.61760     15.0 1.375e+04 1.990e-08
 63.63760     15.5 1.343e+04 1.688e-08
 63.64929     16.3 1.292e+04 1.160e-08
 63.65465     16.0 1.366e+04 1.842e-08
 63.66296     16.6 1.375e+04 1.936e-08
 63.67760     17.2 1.361e+04 1.839e-08
 63.69760     18.1 1.351e+04 1.791e-08
 63.71760     19.4 1.324e+04 1.751e-08
 63.73760     20.2 1.368e+04 1.514e-08
 63.75736     20.4 1.374e+04 1.765e-08
 63.76736     20.1 1.394e+04 2.369e-08
 63.77760     21.7 1.362e+04 2.727e-08
 63.79556     23.8 1.370e+04 2.320e-08
 63.80556     23.7 1.482e+04 4.846e-08
 63.81760     24.6 1.525e+04 5.164e-08
 63.83760     25.0 1.584e+04 6.296e-08
 63.85255     25.1 1.635e+04 6.307e-08
 63.86250     25.2 1.642e+04 6.428e-08
 63.87176     25.6 1.676e+04 7.332e-08
 63.87676     24.6 1.765e+04 1.449e-07
 63.88042     24.7 1.823e+04 2.056e-07
 63.88542     23.1 1.837e+04 2.246e-07
 63.89250     22.4 1.889e+04 3.781e-07
 63.90250     21.8 1.887e+04 7.754e-07
 63.91250     21.3 1.821e+04 2.074e-06
 63.92250     20.2 1.716e+04 6.131e-06
 63.93250     18.1 1.636e+04 1.437e-05
 63.93951     14.7 1.624e+04 1.777e-05
 63.94451     14.8 1.706e+04 6.089e-06
 63.94806     13.6 1.778e+04 3.186e-06
 63.95306     13.5 1.860e+04 1.147e-06
 63.96250     12.6 1.938e+04 3.383e-07
 63.97250     11.0 1.906e+04 1.361e-07
 63.98250      9.2 1.853e+04 8.165e-08
 63.99364      7.6 1.770e+04 6.896e-08
 64.00369      7.3 1.647e+04 3.530e-08
 64.01759      8.0 1.569e+04 3.337e-08
 64.03759      8.9 1.556e+04 3.163e-08
 64.05759     10.5 1.529e+04 3.672e-08
 64.07759     12.0 1.525e+04 3.466e-08
 64.09075     13.4 1.531e+04 2.680e-08
 64.10075     12.2 1.385e+04 1.268e-08
 64.11185     12.9 1.389e+04 1.091e-08
 64.12185     12.7 1.345e+04 7.879e-09
 64.13759     12.1 1.321e+04 5.741e-09
 64.15759     10.5 1.381e+04 4.052e-09
 64.17759      7.9 1.480e+04 2.641e-09
 64.19759      4.1 1.509e+04 3.688e-09
 64.21759      1.2 1.734e+04 9.825e-09
 64.23002      0.9 1.744e+04 8.007e-08
 64.23579      0.5 1.750e+04 1.068e-07
 64.24335      2.1 1.574e+04 3.152e-08
 64.25759      1.9 1.667e+04 7.685e-08
 64.27759      1.6 1.736e+04 1.311e-07
 64.29759      0.8 1.809e+04 1.445e-07
 64.31758     -1.2 1.810e+04 1.133e-07
 64.33758     -3.0 1.725e+04 8.612e-08
 64.34819     -3.7 1.645e+04 6.346e-08
 64.35819     -4.2 1.596e+04 4.696e-08
 64.37595     -4.2 1.531e+04 3.065e-08
 64.38595     -3.4 1.492e+04 2.550e-08
 64.39758     -3.7 1.442e+04 1.799e-08
 64.41758     -3.8 1.407e+04 1.378e-08
 64.43758     -3.8 1.382e+04 1.199e-08
 64.45635     -3.5 1.362e+04 1.166e-08
 64.46635     -3.2 1.367e+04 1.157e-08
 64.47758     -3.3 1.399e+04 1.396e-08
 64.49758     -4.4 1.465e+04 1.954e-08
 64.51758     -6.0 1.504e+04 3.037e-08
 64.52855     -7.3 1.535e+04 4.082e-08
 64.53855     -8.8 1.433e+04 3.509e-08
 64.55758     -9.6 1.404e+04 2.499e-08
 64.57452    -14.9 1.414e+04 1.174e-08
 64.58452    -18.6 1.414e+04 1.017e-08
 64.59758    -23.8 1.380e+04 1.009e-08
 64.61758    -26.5 1.380e+04 1.295e-08
 64.63758    -28.3 1.352e+04 1.365e-08
 64.66767    -29.3 1.316e+04 1.310e-08
 64.70777    -30.4 1.262e+04 1.084e-08
 64.74777    -30.6 1.211e+04 6.215e-09
 64.78777    -30.3 1.172e+04 3.282e-09
 64.81105    -29.6 1.157e+04 2.036e-09
 64.81722    -29.5 1.157e+04 1.992e-09
 64.83394    -28.5 1.162e+04 2.150e-09
 64.86777    -27.7 1.154e+04 1.625e-09
 64.90777    -26.6 1.158e+04 1.422e-09
 64.94776    -25.3 1.169e+04 1.291e-09
 64.98776    -23.8 1.177e+04 1.135e-09
 65.02738    -22.2 1.181e+04 9.571e-10
 65.04738    -22.2 1.183e+04 9.516e-10
 65.06776    -20.5 1.186e+04 8.076e-10
 65.09914    -18.8 1.189e+04 7.498e-10
 65.11913    -18.6 1.192e+04 7.549e-10
 65.14776    -16.8 1.196e+04 7.521e-10
 65.18776    -15.2 1.204e+04 8.323e-10
 65.22776    -13.7 1.204e+04 9.880e-10
 65.26371    -12.3 1.208e+04 1.162e-09
 65.28371    -12.4 1.222e+04 1.186e-09
 65.30776    -11.2 1.230e+04 1.386e-09
 65.34776    -10.2 1.238e+04 1.525e-09
 65.38433     -9.2 1.240e+04 1.595e-09
 65.40433     -9.1 1.240e+04 1.602e-09
 65.42775     -8.2 1.241e+04 1.591e-09
 65.46775     -7.3 1.239e+04 1.542e-09
 65.50005     -6.5 1.243e+04 1.600e-09
 65.52005     -6.9 1.253e+04 2.090e-09
 65.54775     -6.3 1.280e+04 2.805e-09
 65.57765     -5.7 1.297e+04 3.279e-09
 65.59755     -5.9 1.298e+04 3.601e-09
 65.61755     -5.7 1.301e+04 4.265e-09
 65.62802     -5.5 1.309e+04 4.416e-09
 65.63802     -5.6 1.321e+04 5.126e-09
 65.65755     -5.5 1.323e+04 4.219e-09
 65.67755     -5.2 1.306e+04 3.782e-09
 65.68943     -4.4 1.280e+04 2.655e-09
 65.70953     -5.2 1.303e+04 2.695e-09
 65.73638     -3.9 1.288e+04 1.956e-09
 65.75638     -3.9 1.318e+04 2.095e-09
 65.78774     -2.5 1.324e+04 1.702e-09
 65.82774     -1.1 1.323e+04 1.528e-09
 65.86774      0.5 1.312e+04 1.567e-09
 65.90774      2.0 1.309e+04 1.648e-09
 65.94774      3.4 1.299e+04 1.858e-09
 65.97271      4.9 1.288e+04 2.059e-09
 65.97969      5.0 1.285e+04 2.261e-09
 65.99472      4.9 1.287e+04 2.142e-09
 66.02774      6.3 1.281e+04 2.119e-09
 66.06774      7.5 1.278e+04 1.925e-09
 66.10774      8.4 1.277e+04 2.019e-09
 66.14774      9.0 1.252e+04 2.836e-09
 66.18774     10.2 1.247e+04 3.592e-09
 66.20904     11.2 1.261e+04 3.956e-09
 66.21895     11.0 1.259e+04 3.965e-09
 66.23754     11.2 1.262e+04 4.000e-09
 66.25754     10.5 1.285e+04 4.271e-09
 66.26972      5.2 1.541e+04 7.607e-09
 66.27972      0.7 1.632e+04 2.598e-08
 66.29754     -1.6 1.627e+04 9.148e-08
 66.31702     -2.4 1.665e+04 1.311e-07
 66.32702     -3.7 1.710e+04 1.369e-07
 66.33754     -6.6 1.690e+04 5.825e-08
 66.35754    -10.9 1.574e+04 1.962e-08
 66.37754    -14.5 1.402e+04 1.023e-08
 66.39753    -15.4 1.350e+04 8.786e-09
 66.41232    -15.1 1.329e+04 8.098e-09
 66.42232    -15.7 1.345e+04 9.069e-09
 66.43518    -15.0 1.341e+04 9.182e-09
 66.44518    -15.8 1.349e+04 9.206e-09
 66.45753    -15.0 1.351e+04 9.843e-09
 66.47753    -14.4 1.355e+04 1.051e-08
 66.49753    -13.8 1.359e+04 1.121e-08
 66.51753    -13.0 1.373e+04 1.187e-08
 66.53753    -12.3 1.378e+04 1.224e-08
 66.55335    -11.5 1.386e+04 1.226e-08
 66.56074    -11.9 1.386e+04 1.200e-08
 66.56492    -12.0 1.385e+04 1.126e-08
 66.57753    -11.7 1.416e+04 1.120e-08
 66.59753    -12.2 1.487e+04 1.337e-08
 66.61753    -13.4 1.538e+04 2.439e-08
 66.63753    -14.3 1.612e+04 5.352e-08
 66.65753    -15.5 1.708e+04 1.127e-07
 66.67151    -17.0 1.777e+04 2.061e-07
 66.68151    -17.9 1.793e+04 2.315e-07
 66.69752    -18.9 1.808e+04 2.928e-07
 66.71752    -20.7 1.750e+04 2.035e-07
 66.73753    -21.2 1.722e+04 1.297e-07
 66.75753    -21.8 1.654e+04 7.148e-08
 66.77753    -21.8 1.595e+04 4.891e-08
 66.78968    -21.0 1.561e+04 4.080e-08
 66.79968    -21.1 1.554e+04 3.857e-08
 66.81752    -20.0 1.558e+04 3.888e-08
 66.83752    -18.9 1.565e+04 4.044e-08
 66.85011    -18.3 1.590e+04 4.479e-08
 66.86011    -18.0 1.589e+04 4.166e-08
 66.87752    -17.6 1.644e+04 5.961e-08
 66.89752    -18.4 1.729e+04 1.098e-07
 66.90780    -19.1 1.789e+04 2.248e-07
 66.91780    -19.7 1.803e+04 2.429e-07
 66.93247    -20.1 1.873e+04 5.861e-07
 66.94242    -21.8 1.868e+04 8.521e-07
 66.95242    -23.3 1.864e+04 1.011e-06
 66.96183    -25.7 1.852e+04 9.845e-07
 66.96683    -25.2 1.875e+04 8.595e-07
 66.97242    -27.2 1.854e+04 9.757e-07
 66.98242    -29.0 1.834e+04 1.113e-06
 66.99242    -30.5 1.827e+04 1.127e-06
 66.99761    -32.1 1.834e+04 8.293e-07
 67.00261    -33.1 1.838e+04 1.241e-06
 67.01242    -34.9 1.863e+04 5.568e-07
 67.02092    -36.3 1.837e+04 2.374e-07
 67.02592    -35.9 1.854e+04 2.950e-07
 67.03747    -37.4 1.772e+04 1.357e-07
 67.05752    -38.7 1.631e+04 3.712e-08
 67.07752    -39.6 1.578e+04 1.643e-08
 67.09752    -39.4 1.562e+04 1.163e-08
 67.11752    -38.9 1.569e+04 8.316e-09
 67.13418    -38.5 1.582e+04 6.068e-09
 67.14197    -39.1 1.578e+04 5.277e-09
 67.14531    -39.1 1.564e+04 4.985e-09
 67.15752    -38.6 1.568e+04 4.095e-09
 67.17752    -38.2 1.571e+04 3.412e-09
 67.19752    -37.9 1.565e+04 3.040e-09
 67.22761    -37.3 1.546e+04 2.926e-09
 67.26771    -36.2 1.526e+04 2.823e-09
 67.30771    -36.5 1.559e+04 3.464e-09
 67.34771    -38.0 1.560e+04 5.501e-09
 67.37071    -40.3 1.561e+04 9.143e-09
 67.39071    -42.8 1.533e+04 9.806e-09
 67.42070    -45.4 1.504e+04 9.198e-09
 67.44070    -44.7 1.501e+04 9.042e-09
 67.45761    -45.8 1.466e+04 7.100e-09
 67.47751    -45.8 1.466e+04 6.786e-09
 67.48868    -46.1 1.458e+04 5.072e-09
 67.49868    -46.7 1.451e+04 4.124e-09
 67.51751    -46.7 1.446e+04 3.589e-09
 67.53751    -46.7 1.443e+04 3.154e-09
 67.55751    -46.7 1.446e+04 3.076e-09
 67.57310    -47.2 1.476e+04 3.181e-09
 67.58310    -47.2 1.474e+04 3.200e-09
 67.59685    -48.6 1.482e+04 5.471e-09
 67.60685    -48.8 1.478e+04 5.083e-09
 67.61751    -49.9 1.476e+04 1.168e-08
 67.63751    -50.9 1.497e+04 2.398e-08
 67.65750    -52.4 1.508e+04 3.294e-08
 67.67750    -54.9 1.495e+04 3.281e-08
 67.69750    -56.9 1.420e+04 2.030e-08
 67.71501    -58.4 1.354e+04 1.084e-08
 67.72321    -58.9 1.348e+04 9.970e-09
 67.72570    -58.8 1.353e+04 1.064e-08
 67.74760    -59.2 1.324e+04 7.027e-09
 67.77760    -59.6 1.292e+04 4.111e-09
 67.79750    -59.5 1.287e+04 3.589e-09
 67.81750    -59.5 1.285e+04 3.184e-09
 67.83318    -59.5 1.284e+04 3.144e-09
 67.84318    -59.9 1.279e+04 3.264e-09
 67.85750    -60.0 1.274e+04 3.645e-09
 67.86830    -60.2 1.263e+04 4.301e-09
 67.87830    -60.1 1.269e+04 4.735e-09
 67.90760    -60.5 1.253e+04 5.129e-09
 67.94769    -60.4 1.246e+04 5.550e-09
 67.98769    -60.7 1.220e+04 5.506e-09
 68.01109    -60.6 1.199e+04 4.102e-09
 68.03109    -59.8 1.200e+04 4.022e-09
 68.05971    -59.6 1.188e+04 2.646e-09
 68.07971    -59.9 1.179e+04 2.434e-09
 68.10769    -59.4 1.166e+04 1.737e-09
 68.14769    -58.7 1.155e+04 1.373e-09
 68.18769    -57.8 1.143e+04 1.206e-09
 68.22769    -56.8 1.133e+04 1.103e-09
 68.26769    -55.8 1.123e+04 1.028e-09
 68.29604    -54.9 1.111e+04 9.800e-10
 68.30464    -55.1 1.103e+04 9.649e-10
 68.31629    -54.7 1.109e+04 1.037e-09
 68.34768    -53.8 1.097e+04 1.009e-09
 68.38768    -53.0 1.091e+04 1.000e-09
 68.42768    -52.3 1.087e+04 1.013e-09
 68.46768    -51.6 1.086e+04 1.038e-09
 68.50768    -51.0 1.083e+04 1.060e-09
 68.53237    -50.3 1.078e+04 1.075e-09
 68.55237    -50.8 1.065e+04 1.030e-09
 68.58149    -49.8 1.058e+04 9.562e-10
 68.60148    -50.1 1.053e+04 1.038e-09
 68.62768    -48.7 1.048e+04 8.619e-10
 68.66768    -47.2 1.049e+04 6.611e-10
 68.70767    -45.8 1.051e+04 5.164e-10
 68.74767    -44.3 1.055e+04 4.632e-10
 68.76870    -42.6 1.058e+04 4.549e-10
 68.78870    -42.5 1.054e+04 4.447e-10
 68.82767    -41.0 1.067e+04 4.745e-10
 68.86668    -39.5 1.073e+04 5.522e-10
 68.88668    -39.5 1.078e+04 4.828e-10
 68.90767    -38.0 1.083e+04 5.811e-10
 68.94767    -36.4 1.091e+04 6.460e-10
 68.98504    -34.9 1.094e+04 6.562e-10
 69.00504    -35.0 1.089e+04 7.712e-10
 69.02767    -33.3 1.095e+04 6.901e-10
 69.06767    -31.5 1.103e+04 5.613e-10
 69.10767    -29.8 1.105e+04 4.926e-10
 69.14766    -27.9 1.104e+04 4.793e-10
 69.17188    -25.9 1.101e+04 4.919e-10
 69.19188    -25.9 1.104e+04 5.358e-10
 69.22137    -23.8 1.112e+04 5.665e-10
 69.24137    -23.7 1.106e+04 5.748e-10
 69.26766    -21.7 1.113e+04 6.265e-10
 69.30766    -20.0 1.123e+04 7.158e-10
 69.34766    -18.4 1.130e+04 9.072e-10
 69.38766    -17.0 1.140e+04 1.286e-09
 69.42766    -16.0 1.152e+04 2.006e-09
 69.45707    -15.1 1.165e+04 3.092e-09
 69.46712    -15.6 1.177e+04 3.178e-09
 69.47770    -15.6 1.174e+04 3.231e-09
 69.50766    -14.9 1.187e+04 3.652e-09
 69.54765    -14.4 1.188e+04 3.362e-09
 69.58765    -13.6 1.222e+04 2.144e-09
 69.62765    -13.7 1.265e+04 1.218e-09
 69.66765    -14.0 1.283e+04 1.042e-09
 69.69404    -14.0 1.244e+04 1.666e-09
 69.71403    -14.5 1.237e+04 2.218e-09
 69.74227    -13.8 1.240e+04 2.259e-09
 69.76227    -13.7 1.234e+04 1.881e-09
 69.78765    -12.8 1.254e+04 1.458e-09
 69.82765    -11.8 1.269e+04 1.054e-09
 69.86765    -10.8 1.273e+04 8.880e-10
 69.90765     -9.4 1.282e+04 8.567e-10
 69.93037     -8.0 1.289e+04 8.795e-10
 69.95037     -8.3 1.288e+04 7.555e-10
 69.98764     -6.6 1.290e+04 8.038e-10
 70.02746     -4.9 1.320e+04 7.494e-10
 70.06746     -3.4 1.356e+04 6.557e-10
 70.10764     -2.3 1.358e+04 7.344e-10
 70.14670     -0.8 1.349e+04 8.511e-10
 70.16670     -0.7 1.356e+04 6.862e-10
 70.18764      0.9 1.364e+04 7.276e-10
 70.22764      2.1 1.373e+04 8.692e-10
 70.26764      3.4 1.371e+04 1.204e-09
 70.30764      4.8 1.374e+04 1.556e-09
 70.33266      5.8 1.393e+04 1.719e-09
 70.35266      6.1 1.391e+04 1.886e-09
 70.38303      7.0 1.421e+04 2.095e-09
 70.40303      7.4 1.420e+04 1.684e-09
 70.42763      8.3 1.441e+04 1.790e-09
 70.46763      9.2 1.450e+04 1.983e-09
 70.50763      9.9 1.453e+04 2.155e-09
 70.54763     10.5 1.440e+04 2.243e-09
 70.58763     11.0 1.415e+04 2.349e-09
 70.61786     11.5 1.395e+04 2.376e-09
 70.62959     11.8 1.406e+04 2.497e-09
 70.63937     13.0 1.415e+04 2.448e-09
 70.66763     13.6 1.405e+04 2.714e-09
 70.70763     14.1 1.388e+04 2.763e-09
 70.74763     14.8 1.367e+04 2.503e-09
 70.78763     15.6 1.355e+04 2.130e-09
 70.82762     16.5 1.349e+04 1.780e-09
 70.85570     17.5 1.345e+04 1.451e-09
 70.87570     18.2 1.356e+04 1.653e-09
 70.90305     19.4 1.354e+04 1.200e-09
 70.92305     19.5 1.356e+04 9.949e-10
 70.94762     20.6 1.358e+04 7.285e-10
 70.98762     22.0 1.346e+04 6.731e-10
 71.02762     23.7 1.346e+04 6.939e-10
 71.06762     25.3 1.342e+04 7.846e-10
 71.09203     26.9 1.334e+04 9.192e-10
 71.11203     27.6 1.355e+04 8.801e-10
 71.14762     29.1 1.356e+04 8.732e-10
 71.18762     30.4 1.355e+04 8.147e-10
 71.20825     31.6 1.342e+04 7.864e-10
 71.22825     31.8 1.346e+04 6.552e-10
 71.26761     33.0 1.339e+04 6.805e-10
 71.30761     34.2 1.324e+04 7.970e-10
 71.32836     35.6 1.305e+04 9.397e-10
 71.34836     36.2 1.318e+04 9.216e-10
 71.38761     37.5 1.312e+04 9.450e-10
 71.42761     38.8 1.302e+04 9.130e-10
 71.46761     40.1 1.298e+04 8.145e-10
 71.49344     41.4 1.298e+04 7.248e-10
 71.51344     41.7 1.300e+04 7.239e-10
 71.54470     42.9 1.302e+04 6.908e-10
 71.56470     43.5 1.312e+04 7.419e-10
 71.58761     44.8 1.313e+04 7.511e-10
 71.62760     46.0 1.316e+04 7.473e-10
 71.66760     47.1 1.320e+04 7.124e-10
 71.70760     48.2 1.326e+04 6.375e-10
 71.74760     49.1 1.322e+04 5.796e-10
 71.77864     50.0 1.321e+04 5.742e-10
 71.79207     50.0 1.323e+04 5.614e-10
 71.80103     50.6 1.331e+04 6.275e-10
 71.82760     51.5 1.330e+04 6.437e-10
 71.86760     52.4 1.328e+04 7.174e-10
 71.90760     53.2 1.329e+04 8.907e-10
 71.94760     54.0 1.325e+04 1.205e-09
 71.98760     54.6 1.328e+04 1.663e-09
 72.01736     55.0 1.332e+04 2.260e-09
 72.03736     55.3 1.337e+04 2.292e-09
 72.06384     55.4 1.342e+04 2.955e-09
 72.08383     55.2 1.347e+04 2.965e-09
 72.10759     55.1 1.369e+04 3.501e-09
 72.14759     54.7 1.382e+04 3.545e-09
 72.18759     54.4 1.377e+04 3.382e-09
 72.22759     54.5 1.369e+04 2.905e-09
 72.25370     54.7 1.369e+04 2.277e-09
 72.27369     55.1 1.384e+04 1.751e-09
 72.30759     55.7 1.398e+04 1.319e-09
 72.34759     56.3 1.416e+04 1.052e-09
 72.36903     57.1 1.427e+04 9.750e-10
 72.38903     56.3 1.417e+04 9.729e-10
 72.42759     57.2 1.415e+04 1.005e-09
 72.46758     57.8 1.419e+04 1.145e-09
 72.49003     57.7 1.422e+04 1.502e-09
 72.51003     58.9 1.436e+04 1.648e-09
 72.54758     58.6 1.444e+04 2.550e-09
 72.58758     57.7 1.453e+04 3.924e-09
 72.62758     55.9 1.479e+04 4.939e-09
 72.65423     53.3 1.511e+04 5.021e-09
 72.67423     52.7 1.493e+04 3.744e-09
 72.70636     50.3 1.504e+04 3.676e-09
 72.72636     50.2 1.529e+04 3.873e-09
 72.74758     47.8 1.530e+04 3.752e-09
 72.78758     45.6 1.530e+04 4.046e-09
 72.82758     43.5 1.519e+04 5.407e-09
 72.86758     41.6 1.518e+04 6.631e-09
 72.90757     40.1 1.513e+04 5.883e-09
 72.93942     39.1 1.507e+04 4.076e-09
 72.95454     39.2 1.512e+04 4.839e-09
 72.96269     39.0 1.515e+04 4.032e-09
 72.98757     38.2 1.514e+04 3.598e-09
 73.02757     37.8 1.516e+04 3.707e-09
 73.06757     37.8 1.506e+04 3.906e-09
 73.10757     38.5 1.507e+04 4.178e-09
 73.13747     37.6 1.531e+04 5.705e-09
 73.15737     36.9 1.533e+04 8.432e-09
 73.17737     36.0 1.525e+04 1.506e-08
 73.18883     35.2 1.532e+04 3.072e-08
 73.19883     34.5 1.530e+04 2.748e-08
 73.21737     33.7 1.553e+04 4.138e-08
 73.23442     32.3 1.596e+04 4.514e-08
 73.24442     31.4 1.600e+04 4.456e-08
 73.25737     29.3 1.605e+04 3.986e-08
 73.27737     26.8 1.603e+04 3.511e-08
 73.29700     23.8 1.613e+04 3.724e-08
 73.30700     23.4 1.591e+04 2.621e-08
 73.31737     20.3 1.608e+04 3.704e-08
 73.33737     17.3 1.623e+04 4.154e-08
 73.35737     15.3 1.588e+04 3.185e-08
 73.37702     13.3 1.563e+04 1.647e-08
 73.38702     12.5 1.547e+04 1.273e-08
 73.39737     10.1 1.529e+04 7.579e-09
 73.41516      8.9 1.478e+04 5.271e-09
 73.42516      8.8 1.470e+04 4.697e-09
 73.43737      8.2 1.444e+04 3.685e-09
 73.45737      8.2 1.450e+04 2.760e-09
 73.47737      8.0 1.443e+04 2.560e-09
 73.50746      9.2 1.421e+04 1.812e-09
 73.52981     10.5 1.408e+04 1.684e-09
 73.54981     10.2 1.399e+04 1.814e-09
 73.58756     11.4 1.393e+04 2.039e-09
 73.62756     12.6 1.389e+04 2.786e-09
 73.65169     13.5 1.387e+04 3.276e-09
 73.67169     13.9 1.378e+04 2.578e-09
 73.70756     15.2 1.370e+04 2.482e-09
 73.74755     16.2 1.374e+04 2.449e-09
 73.78755     17.3 1.383e+04 2.364e-09
 73.81501     18.2 1.386e+04 2.427e-09
 73.83501     17.8 1.382e+04 2.770e-09
 73.86755     18.2 1.377e+04 3.043e-09
 73.88802     18.3 1.375e+04 3.541e-09
 73.90802     19.2 1.376e+04 4.156e-09
 73.94755     18.8 1.382e+04 5.328e-09
 73.98755     17.9 1.391e+04 6.763e-09
 74.02755     16.4 1.392e+04 8.714e-09
 74.06755     14.3 1.380e+04 8.409e-09
 74.10021     14.1 1.327e+04 5.466e-09
 74.11702     13.8 1.327e+04 4.238e-09
 74.12436     13.4 1.364e+04 5.130e-09
 74.14754     12.3 1.368e+04 2.481e-09
 74.18754     12.3 1.318e+04 2.528e-09
 74.22754     12.9 1.294e+04 2.889e-09
 74.26754     13.7 1.281e+04 3.520e-09
 74.30754     14.5 1.256e+04 4.307e-09
 74.34069     15.3 1.249e+04 4.305e-09
 74.36069     14.6 1.260e+04 4.066e-09
 74.38540     15.5 1.231e+04 3.981e-09
 74.40540     15.3 1.247e+04 4.087e-09
 74.42754     16.0 1.224e+04 3.833e-09
 74.46754     16.5 1.209e+04 3.855e-09
 74.50754     17.0 1.196e+04 4.065e-09
 74.54753     17.8 1.185e+04 4.288e-09
 74.57702     18.6 1.181e+04 4.262e-09
 74.59702     18.8 1.190e+04 4.337e-09
 74.62753     19.6 1.181e+04 4.342e-09
 74.66753     20.6 1.162e+04 4.323e-09
 74.69060     22.1 1.150e+04 4.120e-09
 74.71060     21.8 1.161e+04 3.479e-09
 74.74753     23.0 1.163e+04 3.210e-09
 74.78753     24.1 1.161e+04 3.129e-09
 74.81336     25.6 1.158e+04 3.025e-09
 74.83335     26.0 1.163e+04 2.842e-09
 74.85743     27.0 1.160e+04 2.606e-09
 74.87733     27.5 1.160e+04 2.765e-09
 74.89733     28.1 1.161e+04 3.170e-09
 74.91733     28.9 1.176e+04 3.921e-09
 74.93133     29.1 1.198e+04 4.838e-09
 74.94133     29.2 1.208e+04 4.988e-09
 74.95733     28.3 1.265e+04 6.843e-09
 74.97560     24.0 1.427e+04 2.147e-08
 74.98560     23.3 1.386e+04 2.099e-08
 74.99036     20.1 1.514e+04 4.348e-08
 74.99531     19.7 1.522e+04 4.442e-08
 75.00223     19.2 1.547e+04 7.176e-08
 75.01223     18.2 1.610e+04 8.848e-08
 75.02223     17.5 1.607e+04 8.694e-08
 75.03728     16.7 1.558e+04 5.955e-08
 75.04949     12.9 1.521e+04 3.042e-08
 75.05949     11.9 1.537e+04 3.291e-08
 75.07733      8.5 1.431e+04 2.458e-08
 75.09733      7.6 1.413e+04 2.497e-08
 75.11733      7.3 1.418e+04 2.682e-08
 75.12820      7.7 1.402e+04 2.459e-08
 75.13820      7.1 1.419e+04 2.220e-08
 75.15732      7.3 1.401e+04 1.726e-08
 75.16766      7.8 1.369e+04 1.184e-08
 75.17766      7.8 1.380e+04 1.040e-08
 75.19732      7.9 1.371e+04 7.848e-09
 75.21732      8.3 1.352e+04 6.158e-09
 75.23732      8.8 1.346e+04 5.591e-09
 75.25732      9.5 1.354e+04 5.739e-09
 75.27079     10.1 1.367e+04 6.388e-09
 75.27930      9.5 1.377e+04 5.890e-09
 75.28583     10.2 1.386e+04 5.371e-09
 75.29732     11.0 1.389e+04 6.195e-09
 75.31732     11.6 1.408e+04 7.485e-09
 75.33732     12.1 1.422e+04 9.226e-09
 75.35732     12.6 1.434e+04 1.093e-08
 75.37732     13.0 1.452e+04 1.172e-08
 75.39399     13.0 1.463e+04 1.157e-08
 75.40399     14.6 1.470e+04 1.177e-08
 75.41339     14.0 1.503e+04 1.282e-08
 75.42339     12.9 1.502e+04 1.254e-08
 75.43732     11.6 1.537e+04 1.387e-08
 75.45732      9.3 1.573e+04 1.652e-08
 75.47732      3.8 1.680e+04 2.930e-08
 75.49732     -1.8 1.775e+04 7.560e-08
 75.51216     -5.2 1.721e+04 1.366e-07
 75.52216     -5.3 1.769e+04 1.757e-07
 75.53732     -7.4 1.742e+04 6.511e-08
 75.55599    -12.1 1.666e+04 2.204e-08
 75.56599    -10.1 1.679e+04 4.190e-08
 75.57731    -13.1 1.624e+04 2.789e-08
 75.59731    -14.4 1.606e+04 2.742e-08
 75.61731    -14.9 1.584e+04 3.815e-08
 75.63032    -14.7 1.601e+04 4.350e-08
 75.64032    -14.4 1.544e+04 2.102e-08
 75.65731    -14.4 1.558e+04 2.024e-08
 75.67731    -14.5 1.554e+04 1.747e-08
 75.69731    -15.6 1.594e+04 1.433e-08
 75.70859    -17.7 1.637e+04 1.601e-08
 75.71859    -18.8 1.634e+04 2.533e-08
 75.73731    -20.3 1.583e+04 3.808e-08
 75.74849    -20.4 1.554e+04 4.515e-08
 75.75849    -19.8 1.584e+04 5.700e-08
 75.77731    -19.9 1.564e+04 4.124e-08
 75.79731    -20.8 1.542e+04 1.952e-08
 75.81731    -22.5 1.507e+04 8.803e-09
 75.83731    -24.6 1.408e+04 6.509e-09
 75.85128    -22.9 1.417e+04 8.204e-09
 75.87138    -24.9 1.378e+04 6.034e-09
 75.90750    -23.9 1.372e+04 7.064e-09
 75.93740    -23.1 1.380e+04 7.909e-09
 75.95731    -23.2 1.359e+04 7.089e-09
 75.97482    -23.0 1.345e+04 6.053e-09
 75.98482    -23.0 1.357e+04 6.232e-09
 75.99378    -22.9 1.352e+04 5.022e-09
 76.00378    -23.3 1.322e+04 4.046e-09
 76.01730    -23.3 1.309e+04 3.473e-09
 76.03730    -23.4 1.300e+04 3.281e-09
 76.05730    -23.3 1.306e+04 3.302e-09
 76.07730    -23.4 1.294e+04 3.820e-09
 76.09299    -23.1 1.289e+04 4.528e-09
 76.10299    -22.8 1.290e+04 4.496e-09
 76.11730    -22.5 1.289e+04 5.262e-09
 76.13638    -21.9 1.302e+04 6.012e-09
 76.14638    -22.0 1.287e+04 4.789e-09
 76.15730    -21.9 1.291e+04 5.075e-09
 76.17730    -21.6 1.306e+04 5.425e-09
 76.19730    -21.6 1.314e+04 5.686e-09
 76.21116    -21.6 1.317e+04 6.228e-09
 76.22116    -21.5 1.324e+04 6.911e-09
 76.23730    -21.5 1.330e+04 7.485e-09
 76.25730    -21.5 1.341e+04 8.374e-09
 76.27730    -21.6 1.349e+04 9.216e-09
 76.28898    -21.6 1.351e+04 1.015e-08
 76.29898    -21.9 1.350e+04 1.054e-08
 76.31730    -22.0 1.350e+04 1.078e-08
 76.32932    -22.3 1.339e+04 1.037e-08
 76.33932    -22.1 1.339e+04 1.044e-08
 76.35730    -22.6 1.326e+04 9.878e-09
 76.37730    -23.4 1.307e+04 9.322e-09
 76.39730    -23.9 1.287e+04 8.951e-09
 76.41729    -24.3 1.267e+04 8.408e-09
 76.43158    -24.5 1.247e+04 7.818e-09
 76.44158    -24.9 1.256e+04 8.856e-09
 76.44749    -25.2 1.232e+04 7.210e-09
 76.46759    -24.7 1.211e+04 6.126e-09
 76.50749    -24.0 1.162e+04 4.807e-09
 76.54749    -23.0 1.140e+04 3.821e-09
 76.58749    -21.7 1.119e+04 2.890e-09
 76.62749    -20.3 1.106e+04 2.041e-09
 76.66402    -18.8 1.093e+04 1.622e-09
 76.68402    -16.9 1.087e+04 1.312e-09
 76.70697    -15.3 1.076e+04 1.161e-09
 76.72697    -15.5 1.077e+04 1.197e-09
 76.74748    -13.4 1.071e+04 1.211e-09
 76.78748    -11.3 1.066e+04 1.281e-09
 76.82748     -9.1 1.062e+04 1.369e-09
 76.86748     -6.7 1.065e+04 1.403e-09
 76.90035     -4.4 1.068e+04 1.310e-09
 76.92035     -2.8 1.046e+04 1.258e-09
 76.94748     -0.5 1.059e+04 1.186e-09
 76.98748      1.6 1.066e+04 1.213e-09
 77.01216      3.7 1.063e+04 1.374e-09
 77.03216      3.4 1.069e+04 1.532e-09
 77.06747      5.5 1.080e+04 1.587e-09
 77.10747      7.4 1.106e+04 1.516e-09
 77.13668      8.6 1.131e+04 1.573e-09
 77.15668     10.2 1.118e+04 2.166e-09
 77.18747     11.2 1.117e+04 2.819e-09
 77.22747     12.3 1.098e+04 3.204e-09
 77.26747     13.9 1.078e+04 2.870e-09
 77.29736     15.8 1.054e+04 2.015e-09
 77.31736     15.8 1.058e+04 1.819e-09
 77.34747     17.7 1.052e+04 1.209e-09
 77.37302     19.7 1.053e+04 8.275e-10
 77.39301     20.6 1.049e+04 1.050e-09
 77.42747     22.6 1.049e+04 8.121e-10
 77.46746     24.7 1.048e+04 6.696e-10
 77.50746     26.9 1.044e+04 6.061e-10
 77.54746     29.3 1.043e+04 6.066e-10
 77.58256     31.6 1.043e+04 6.599e-10
 77.60256     31.7 1.048e+04 6.808e-10
 77.60935     34.1 1.050e+04 8.083e-10
 77.62935     34.6 1.046e+04 6.789e-10
 77.66746     37.0 1.049e+04 8.077e-10
 77.70746     39.2 1.051e+04 1.033e-09
 77.74746     41.4 1.056e+04 1.376e-09
 77.78746     43.5 1.069e+04 1.756e-09
 77.82568     45.6 1.075e+04 2.023e-09
 77.84568     46.2 1.069e+04 2.020e-09
 77.86746     48.1 1.068e+04 2.028e-09
 77.88775     50.0 1.055e+04 1.877e-09
 77.90775     50.1 1.039e+04 2.015e-09
 77.94745     52.0 1.019e+04 1.614e-09
 77.98745     54.0 1.007e+04 1.201e-09
 78.02745     55.9 9.938e+03 9.774e-10
 78.06201     58.1 9.858e+03 9.498e-10
 78.08201     58.5 9.832e+03 9.291e-10
 78.10745     60.8 9.820e+03 9.359e-10
 78.14745     63.1 9.837e+03 9.684e-10
 78.17295     65.3 9.899e+03 1.010e-09
 78.19295     65.5 9.822e+03 8.451e-10
 78.22745     67.7 9.820e+03 8.619e-10
 78.26745     69.8 9.755e+03 8.949e-10
 78.29835     71.9 9.761e+03 9.316e-10
 78.31835     72.3 9.760e+03 8.777e-10
 78.34744     74.5 9.756e+03 9.750e-10
 78.38744     77.1 9.948e+03 1.264e-09
 78.42744     79.5 1.043e+04 1.807e-09
 78.45734     80.2 1.067e+04 2.228e-09
 78.46795     80.3 1.099e+04 3.052e-09
 78.47795     80.9 1.085e+04 2.757e-09
 78.49724     80.8 1.128e+04 4.303e-09
 78.51724     80.5 1.175e+04 7.667e-09
 78.53448     80.2 1.239e+04 1.434e-08
 78.54448     80.3 1.226e+04 1.413e-08
 78.55724     80.1 1.296e+04 2.327e-08
 78.57724     79.6 1.372e+04 3.214e-08
 78.59724     78.6 1.437e+04 3.714e-08
 78.61055     76.7 1.448e+04 3.619e-08
 78.62055     77.3 1.504e+04 4.878e-08
 78.63724     74.9 1.502e+04 4.615e-08
 78.65265     72.2 1.475e+04 4.021e-08
 78.66265     72.4 1.444e+04 3.436e-08
 78.67724     70.2 1.416e+04 3.167e-08
 78.69724     68.7 1.373e+04 2.728e-08
 78.71724     67.7 1.326e+04 2.199e-08
 78.73724     67.0 1.273e+04 1.585e-08
 78.75314     66.5 1.224e+04 1.090e-08
 78.76314     66.4 1.225e+04 1.109e-08
 78.77082     65.9 1.190e+04 8.278e-09
 78.78082     66.4 1.235e+04 1.238e-08
 78.79724     66.0 1.197e+04 9.823e-09
 78.81724     65.8 1.164e+04 8.093e-09
 78.83724     65.9 1.138e+04 6.995e-09
 78.85724     66.1 1.118e+04 6.217e-09
 78.87724     66.6 1.099e+04 5.592e-09
 78.88898     67.1 1.081e+04 4.925e-09
 78.89749     67.0 1.091e+04 5.571e-09
 78.90574     67.1 1.106e+04 6.466e-09
 78.91723     67.6 1.084e+04 5.469e-09
 78.93723     68.3 1.062e+04 4.505e-09
 78.95723     68.8 1.045e+04 3.766e-09
 78.98725     69.6 1.030e+04 2.863e-09
 79.02734     71.0 9.946e+03 2.072e-09
 79.04853     72.9 9.621e+03 1.673e-09
 79.06853     73.0 9.959e+03 2.280e-09
 79.10743     75.1 9.866e+03 2.265e-09
 79.14742     77.3 9.877e+03 2.356e-09
 79.18742     79.1 9.916e+03 2.615e-09
 79.21733     80.2 9.886e+03 3.077e-09
 79.23348     81.0 9.889e+03 3.573e-09
 79.24348     81.1 9.785e+03 3.588e-09
 79.25723     81.9 9.825e+03 4.260e-09
 79.27723     82.7 9.889e+03 5.104e-09
 79.29723     83.5 9.985e+03 6.169e-09
 79.31723     84.3 1.014e+04 6.984e-09
 79.33354     84.9 1.028e+04 7.255e-09
 79.34354     85.0 1.051e+04 8.736e-09
 79.35165     85.3 1.053e+04 8.398e-09
 79.36165     85.3 1.015e+04 6.361e-09
 79.37722     85.6 1.004e+04 5.684e-09
 79.39722     85.8 9.902e+03 5.022e-09
 79.41722     86.0 9.797e+03 4.656e-09
 79.43722     86.3 9.797e+03 4.657e-09
 79.45722     86.5 9.861e+03 4.789e-09
 79.46981     86.5 1.003e+04 5.204e-09
 79.47873     87.2 9.753e+03 4.375e-09
 79.48613     87.1 9.824e+03 4.761e-09
 79.49722     87.2 1.006e+04 5.514e-09
 79.51722     87.2 1.033e+04 6.456e-09
 79.53722     87.1 1.059e+04 7.539e-09
 79.55722     87.0 1.080e+04 8.618e-09
 79.57722     86.9 1.096e+04 9.505e-09
 79.58798     86.8 1.105e+04 9.878e-09
 79.59798     87.9 1.087e+04 9.435e-09
 79.61722     87.8 1.092e+04 9.905e-09
 79.62873     87.9 1.093e+04 9.818e-09
 79.63873     87.8 1.096e+04 1.014e-08
 79.65722     88.0 1.094e+04 1.025e-08
 79.67722     88.1 1.091e+04 1.016e-08
 79.69615     88.3 1.086e+04 9.998e-09
 79.70615     89.4 1.084e+04 1.015e-08
 79.71722     89.6 1.077e+04 1.011e-08
 79.73722     89.9 1.073e+04 1.015e-08
 79.75721     90.3 1.071e+04 1.026e-08
 79.77133     90.7 1.071e+04 1.046e-08
 79.78133     90.5 1.098e+04 1.194e-08
 79.79721     90.8 1.103e+04 1.226e-08
 79.81431     91.1 1.107e+04 1.239e-08
 79.82431     92.2 1.115e+04 1.317e-08
 79.83721     92.4 1.121e+04 1.349e-08
 79.85721     92.6 1.119e+04 1.341e-08
 79.87721     92.8 1.108e+04 1.289e-08
 79.89721     93.1 1.086e+04 1.177e-08
 79.91393     93.3 1.060e+04 1.039e-08
 79.92393     93.1 1.053e+04 1.005e-08
 79.93248     93.4 1.020e+04 8.452e-09
 79.94248     94.6 1.063e+04 1.074e-08
 79.95721     94.9 1.036e+04 9.348e-09
 79.97721     95.1 1.011e+04 8.157e-09
 79.99721     95.3 9.871e+03 7.206e-09
 80.01721     95.5 9.647e+03 6.493e-09
 80.03721     95.6 9.445e+03 6.031e-09
 80.05065     95.8 9.321e+03 5.903e-09
 80.05996     96.9 9.665e+03 7.175e-09
 80.06652     97.1 9.642e+03 7.300e-09
 80.07721     97.2 9.632e+03 7.348e-09
 80.09721     97.3 9.666e+03 7.690e-09
 80.11721     97.3 9.825e+03 8.677e-09
 80.13721     97.3 1.010e+04 1.036e-08
 80.15721     97.2 1.044e+04 1.269e-08
 80.16881     97.1 1.078e+04 1.522e-08
 80.17881     97.8 1.111e+04 1.745e-08
 80.19720     97.6 1.146e+04 2.058e-08
 80.20912     97.2 1.170e+04 2.244e-08
 80.21912     97.2 1.221e+04 2.831e-08
 80.23720     96.6 1.229e+04 2.850e-08
 80.25720     95.7 1.233e+04 2.860e-08
 80.27698     94.5 1.240e+04 2.908e-08
 80.28698     95.0 1.292e+04 3.538e-08
 80.29720     93.4 1.304e+04 3.637e-08
 80.31720     91.6 1.329e+04 3.985e-08
 80.33720     89.8 1.361e+04 4.361e-08
 80.35172     88.1 1.363e+04 4.325e-08
 80.36172     87.4 1.414e+04 5.141e-08
 80.37720     85.7 1.405e+04 4.924e-08
 80.39515     84.3 1.360e+04 4.001e-08
 80.40515     83.7 1.310e+04 3.292e-08
 80.41720     82.6 1.244e+04 2.213e-08
 80.43720     81.3 1.177e+04 1.327e-08
 80.45720     79.6 1.115e+04 8.573e-09
 80.47720     78.8 1.094e+04 7.959e-09
 80.49432     78.7 1.099e+04 8.118e-09
 80.50432     78.4 1.212e+04 1.515e-08
 80.51331     78.3 1.238e+04 1.703e-08
 80.52331     78.2 1.251e+04 1.744e-08
 80.53720     78.4 1.312e+04 2.412e-08
 80.55720     78.3 1.348e+04 3.077e-08
 80.57057     77.7 1.356e+04 3.424e-08
 80.57552     78.0 1.422e+04 3.995e-08
 80.57730     77.4 1.485e+04 5.013e-08
 80.58230     77.7 1.450e+04 5.084e-08
 80.59210     77.0 1.511e+04 6.631e-08
 80.60210     76.4 1.562e+04 8.461e-08
 80.61210     75.8 1.600e+04 9.835e-08
 80.62210     75.0 1.607e+04 9.844e-08
 80.63138     74.0 1.602e+04 9.340e-08
 80.63638     74.0 1.528e+04 8.284e-08
 80.64182     72.9 1.501e+04 7.084e-08
 80.64682     72.6 1.683e+04 1.007e-07
 80.65210     70.2 1.804e+04 9.424e-08
 80.66210     66.6 1.999e+04 1.008e-07
 80.67210     61.6 2.146e+04 1.411e-07
 80.68209     56.2 2.123e+04 2.737e-07
 80.69046     52.4 1.988e+04 5.918e-07
 80.69546     53.2 2.044e+04 2.534e-07
 80.70209     51.4 1.992e+04 4.081e-07
 80.71209     49.8 1.971e+04 5.349e-07
 80.71812     48.4 1.936e+04 5.541e-07
 80.72312     48.0 1.836e+04 1.740e-06
 80.73209     47.5 1.893e+04 9.607e-07
 80.74209     46.5 1.992e+04 4.584e-07
 80.74955     45.2 2.051e+04 2.045e-07
 80.75455     45.6 1.925e+04 2.169e-07
 80.76209     44.3 1.927e+04 1.480e-07
 80.77714     44.4 1.822e+04 8.761e-08
 80.78951     41.2 1.794e+04 4.180e-08
 80.79951     34.6 1.917e+04 9.792e-08
 80.81719     32.0 1.742e+04 1.121e-07
 80.83719     31.6 1.654e+04 1.342e-07
 80.85719     32.6 1.605e+04 1.273e-07
 80.86781     34.5 1.524e+04 9.058e-08
 80.87781     35.1 1.597e+04 1.224e-07
 80.89719     36.6 1.545e+04 8.654e-08
 80.91719     37.6 1.522e+04 5.356e-08
 80.93211     37.9 1.513e+04 2.345e-08
 80.94211     33.9 1.428e+04 9.033e-09
 80.95719     30.8 1.124e+04 4.401e-09
 80.97598     29.6 9.780e+03 3.254e-09
 80.98598     33.3 1.274e+04 3.918e-09
 80.99719     31.4 1.001e+04 2.684e-09
 81.02728     31.2 9.400e+03 1.890e-09
 81.06491     31.9 8.826e+03 1.701e-09
 81.08491     32.4 8.864e+03 2.119e-09
 81.09434     33.0 8.842e+03 1.796e-09
 81.11434     33.5 8.640e+03 1.277e-09
 81.14738     33.8 8.697e+03 1.364e-09
 81.18738     33.8 8.823e+03 1.855e-09
 81.22737     34.4 9.033e+03 2.462e-09
 81.26737     35.1 9.105e+03 2.442e-09
 81.30737     36.2 9.192e+03 2.006e-09
 81.33067     37.1 9.272e+03 1.435e-09
 81.35067     38.2 9.224e+03 1.536e-09
 81.37010     39.3 9.250e+03 1.302e-09
 81.39010     39.4 9.086e+03 1.176e-09
 81.42737     41.0 9.124e+03 1.193e-09
 81.46737     42.6 9.263e+03 1.335e-09
 81.50737     44.3 9.574e+03 1.982e-09
 81.54700     45.6 1.014e+04 3.607e-09
 81.56691     46.8 1.005e+04 3.452e-09
 81.57717     46.9 1.050e+04 5.172e-09
 81.59717     47.1 1.079e+04 6.946e-09
 81.61717     47.3 1.127e+04 8.973e-09
 81.63717     47.4 1.151e+04 9.692e-09
 81.65510     47.1 1.179e+04 9.769e-09
 81.67520     47.8 1.162e+04 8.878e-09
 81.70736     46.4 1.174e+04 7.459e-09
 81.74736     44.7 1.162e+04 6.257e-09
 81.78334     43.3 1.177e+04 5.713e-09
 81.80334     43.1 1.174e+04 5.788e-09
 81.82736     42.5 1.151e+04 4.398e-09
 81.86736     42.4 1.147e+04 3.154e-09
 81.90736     42.6 1.129e+04 2.791e-09
 81.94049     43.5 1.130e+04 3.031e-09
 81.96049     44.1 1.116e+04 3.007e-09
 81.98736     45.3 1.115e+04 3.301e-09
 82.01967     46.7 1.113e+04 3.828e-09
 82.03967     47.4 1.127e+04 3.722e-09
 82.06735     49.2 1.128e+04 4.318e-09
 82.10735     51.2 1.133e+04 5.094e-09
 82.14735     53.0 1.177e+04 6.663e-09
 82.17725     53.3 1.207e+04 7.796e-09
 82.19716     52.6 1.277e+04 1.268e-08
 82.21716     52.1 1.369e+04 2.741e-08
 82.23549     52.1 1.460e+04 5.015e-08
 82.24549     52.3 1.357e+04 2.843e-08
 82.25581     52.1 1.374e+04 3.091e-08
 82.26581     52.8 1.423e+04 3.941e-08
 82.27715     52.6 1.405e+04 3.569e-08
 82.29715     52.5 1.341e+04 2.260e-08
 82.31715     51.8 1.276e+04 1.299e-08
 82.33715     50.7 1.221e+04 7.749e-09
 82.35715     49.8 1.186e+04 6.014e-09
 82.37397     49.6 1.178e+04 5.566e-09
 82.38397     49.4 1.210e+04 6.691e-09
 82.38809     49.4 1.202e+04 6.389e-09
 82.39809     50.3 1.199e+04 6.772e-09
 82.41715     50.5 1.192e+04 6.398e-09
 82.43715     50.9 1.181e+04 5.851e-09
 82.45715     51.5 1.170e+04 5.128e-09
 82.47715     52.1 1.158e+04 4.327e-09
 82.49214     52.7 1.146e+04 3.614e-09
 82.50214     52.6 1.172e+04 4.943e-09
 82.51715     53.2 1.173e+04 4.396e-09
 82.53069     53.5 1.168e+04 4.054e-09
 82.54069     54.2 1.163e+04 4.157e-09
 82.55715     54.7 1.161e+04 4.107e-09
 82.57715     54.8 1.161e+04 4.218e-09
 82.59715     54.7 1.174e+04 4.690e-09
 82.61031     54.3 1.180e+04 6.272e-09
 82.62031     54.9 1.255e+04 1.096e-08
 82.63715     54.7 1.255e+04 1.329e-08
 82.65715     54.6 1.247e+04 1.514e-08
 82.67329     54.4 1.236e+04 1.454e-08
 82.68329     54.6 1.237e+04 1.639e-08
 82.69714     53.7 1.250e+04 1.574e-08
 82.71714     51.7 1.278e+04 1.623e-08
 82.72847     49.3 1.272e+04 1.615e-08
 82.73847     49.6 1.266e+04 1.479e-08
 82.75714     46.9 1.247e+04 1.584e-08
 82.77714     45.5 1.216e+04 1.515e-08
 82.79714     44.1 1.176e+04 1.200e-08
 82.81598     44.6 1.125e+04 8.228e-09
 82.82598     41.9 1.142e+04 7.414e-09
 82.83664     41.4 1.122e+04 6.184e-09
 82.84664     42.4 1.125e+04 6.419e-09
 82.86724     39.5 1.045e+04 3.883e-09
 82.90733     39.6 9.939e+03 3.365e-09
 82.94500     40.6 9.933e+03 3.679e-09
 82.96500     41.7 1.020e+04 4.545e-09
 82.98733     42.7 1.029e+04 5.404e-09
 83.02733     43.9 1.045e+04 6.266e-09
 83.06733     45.0 1.042e+04 6.201e-09
 83.10128     45.8 1.022e+04 5.091e-09
 83.12128     44.1 9.940e+03 3.059e-09
 83.14733     44.5 9.509e+03 2.358e-09
 83.18133     45.2 9.371e+03 2.343e-09
 83.20133     45.8 9.394e+03 2.458e-09
 83.22733     46.8 9.375e+03 2.640e-09
 83.26733     48.0 9.379e+03 3.086e-09
 83.30732     49.4 9.492e+03 3.760e-09
 83.34732     50.9 9.640e+03 4.577e-09
 83.38647     52.6 9.878e+03 5.376e-09
 83.40647     51.9 9.639e+03 4.373e-09
 83.41767     53.4 9.890e+03 4.822e-09
 83.43757     53.9 1.002e+04 5.427e-09
 83.45713     54.4 1.012e+04 5.545e-09
 83.47713     55.0 1.020e+04 5.647e-09
 83.49713     55.5 1.031e+04 5.764e-09
 83.51712     55.8 1.046e+04 6.033e-09
 83.53564     55.8 1.068e+04 6.565e-09
 83.54564     55.8 1.069e+04 6.521e-09
 83.54887     55.5 1.087e+04 7.260e-09
 83.55887     55.1 1.089e+04 7.020e-09
 83.57712     54.6 1.109e+04 8.093e-09
 83.59712     53.9 1.137e+04 9.529e-09
 83.61712     53.0 1.177e+04 1.148e-08
 83.63712     51.5 1.227e+04 1.401e-08
 83.65380     49.1 1.294e+04 1.847e-08
 83.66380     48.7 1.292e+04 1.834e-08
 83.67712     45.5 1.377e+04 2.905e-08
 83.69147     43.0 1.440e+04 4.264e-08
 83.70147     44.1 1.391e+04 3.092e-08
 83.71712     42.0 1.394e+04 3.278e-08
 83.73712     40.8 1.365e+04 2.824e-08
 83.75712     39.6 1.337e+04 1.948e-08
 83.77197     37.8 1.332e+04 1.298e-08
 83.78197     38.2 1.340e+04 1.339e-08
 83.79712     36.3 1.317e+04 9.931e-09
 83.81712     35.2 1.313e+04 9.932e-09
 83.83407     33.4 1.355e+04 1.176e-08
 83.84407     32.9 1.390e+04 1.462e-08
 83.85712     29.2 1.481e+04 2.140e-08
 83.87712     23.5 1.632e+04 5.038e-08
 83.89014     20.0 1.583e+04 8.875e-08
 83.90014     21.0 1.601e+04 1.031e-07
 83.91712     21.2 1.574e+04 5.078e-08
 83.93711     16.6 1.653e+04 1.669e-08
 83.95711     10.4 1.467e+04 1.018e-08
 83.97667      9.2 1.381e+04 1.113e-08
 83.98667     11.0 1.363e+04 8.096e-09
 83.99711     10.5 1.343e+04 9.880e-09
 84.00830     11.3 1.328e+04 1.273e-08
 84.01830     11.6 1.330e+04 1.225e-08
 84.03711     12.0 1.340e+04 1.316e-08
 84.05711     12.3 1.313e+04 1.319e-08
 84.07711     12.9 1.282e+04 1.211e-08
 84.10657     14.1 1.268e+04 7.038e-09
 84.12657     14.9 1.266e+04 7.458e-09
 84.14721     16.8 1.231e+04 4.462e-09
 84.18730     17.7 1.195e+04 2.715e-09
 84.22730     18.8 1.183e+04 2.214e-09
 84.26206     20.1 1.250e+04 2.574e-09
 84.28196     22.2 1.194e+04 2.204e-09
 84.30720     24.1 1.205e+04 2.405e-09
 84.34300     26.2 1.253e+04 3.475e-09
 84.36300     28.4 1.239e+04 1.714e-09
 84.38730     30.2 1.275e+04 2.702e-09
 84.41456     30.6 1.287e+04 7.027e-09
 84.42446     31.5 1.290e+04 3.904e-09
 84.43710     32.3 1.312e+04 6.270e-09
 84.45710     33.4 1.333e+04 1.022e-08
 84.47097     34.4 1.381e+04 1.680e-08
 84.48097     35.2 1.371e+04 1.269e-08
 84.49710     35.4 1.437e+04 2.351e-08
 84.51710     34.6 1.570e+04 4.985e-08
 84.53710     34.1 1.726e+04 1.375e-07
 84.55205     33.6 1.819e+04 2.290e-07
 84.56196     32.8 1.847e+04 3.363e-07
 84.57196     31.7 1.866e+04 4.689e-07
 84.58200     31.5 1.855e+04 5.097e-07
 84.58904     31.2 1.856e+04 4.390e-07
 84.59404     31.4 1.863e+04 4.313e-07
 84.60200     31.0 1.829e+04 3.494e-07
 84.61705     30.5 1.790e+04 2.213e-07
 84.63710     30.9 1.655e+04 9.880e-08
 84.65710     30.3 1.562e+04 3.876e-08
 84.67710     29.5 1.445e+04 2.766e-08
 84.69710     30.5 1.364e+04 2.015e-08
 84.70730     31.7 1.345e+04 1.592e-08
 84.70986     31.9 1.369e+04 1.774e-08
 84.71966     30.7 1.349e+04 1.151e-08
 84.73710     31.9 1.332e+04 1.018e-08
 84.75709     32.6 1.324e+04 9.545e-09
 84.77709     33.9 1.330e+04 8.591e-09
 84.79709     35.1 1.335e+04 8.425e-09
 84.81547     35.9 1.330e+04 7.967e-09
 84.82547     36.1 1.330e+04 7.220e-09
 84.83709     37.0 1.338e+04 7.014e-09
 84.85226     37.9 1.346e+04 6.910e-09
 84.86226     37.1 1.323e+04 3.526e-09
 84.87709     37.6 1.336e+04 3.809e-09
 84.89709     38.2 1.325e+04 4.649e-09
 84.91709     39.0 1.325e+04 5.255e-09
 84.93363     39.9 1.317e+04 6.216e-09
 84.94363     40.5 1.324e+04 5.556e-09
 84.95709     41.3 1.315e+04 6.436e-09
 84.97709     42.4 1.306e+04 6.889e-09
 84.99485     43.0 1.304e+04 7.254e-09
 85.00485     43.1 1.298e+04 5.784e-09
 85.01709     44.3 1.270e+04 5.693e-09
 85.03709     45.1 1.261e+04 5.464e-09
 85.05180     46.3 1.240e+04 4.856e-09
 85.06180     47.0 1.253e+04 5.279e-09
 85.07709     47.8 1.249e+04 4.772e-09
 85.09709     48.7 1.236e+04 4.146e-09
 85.11709     49.6 1.227e+04 3.686e-09
 85.13709     50.8 1.221e+04 2.960e-09
 85.14745     51.1 1.223e+04 2.736e-09
 85.15745     51.1 1.234e+04 3.173e-09
 85.18718     53.3 1.235e+04 2.804e-09
 85.22728     55.4 1.216e+04 1.941e-09
 85.26728     57.3 1.206e+04 1.501e-09
 85.28833     59.5 1.207e+04 1.467e-09
 85.30833     60.7 1.226e+04 1.604e-09
 85.34728     62.6 1.246e+04 1.760e-09
 85.37718     62.6 1.256e+04 1.988e-09
 85.39630     62.7 1.264e+04 2.571e-09
 85.40630     63.3 1.263e+04 2.695e-09
 85.41708     63.5 1.276e+04 3.963e-09
 85.43265     63.3 1.302e+04 6.076e-09
 85.44265     62.1 1.308e+04 6.163e-09
 85.45708     61.4 1.341e+04 1.051e-08
 85.47708     60.7 1.376e+04 1.355e-08
 85.49708     59.2 1.399e+04 1.283e-08
 85.51447     56.4 1.426e+04 1.136e-08
 85.52447     56.8 1.426e+04 1.365e-08
 85.53708     52.0 1.452e+04 1.485e-08
 85.55708     47.4 1.452e+04 2.217e-08
 85.57525     44.4 1.426e+04 2.686e-08
 85.58525     44.2 1.427e+04 2.730e-08
 85.59707     43.0 1.391e+04 2.321e-08
 85.61707     40.5 1.386e+04 1.669e-08
 85.63263     38.0 1.343e+04 1.281e-08
 85.64263     38.2 1.360e+04 1.550e-08
 85.65707     36.5 1.328e+04 1.359e-08
 85.67707     35.9 1.292e+04 1.159e-08
 85.69707     35.7 1.278e+04 8.097e-09
 85.71707     34.9 1.266e+04 6.074e-09
 85.72784     34.2 1.247e+04 4.647e-09
 85.73784     34.6 1.242e+04 4.414e-09
 85.75080     33.9 1.233e+04 3.922e-09
 85.76080     34.0 1.246e+04 4.945e-09
 85.77707     33.7 1.241e+04 4.988e-09
 85.79707     33.4 1.245e+04 5.151e-09
 85.81707     33.0 1.255e+04 5.635e-09
 85.83707     32.8 1.257e+04 6.165e-09
 85.85707     32.6 1.253e+04 6.073e-09
 85.86896     32.9 1.254e+04 5.071e-09
 85.87234     32.9 1.264e+04 6.123e-09
 85.88044     33.2 1.270e+04 6.126e-09
 85.89707     32.7 1.276e+04 4.621e-09
 85.91707     32.2 1.246e+04 3.678e-09
 85.94716     31.7 1.266e+04 2.491e-09
 85.97733     32.3 1.264e+04 1.546e-09
 85.99733     31.7 1.279e+04 1.951e-09
 86.01323     32.1 1.281e+04 1.329e-09
 86.03323     32.9 1.276e+04 1.173e-09
 86.06726     33.7 1.275e+04 1.219e-09
 86.10726     34.4 1.280e+04 1.585e-09
 86.14726     35.9 1.270e+04 2.283e-09
 86.17716     36.7 1.289e+04 2.786e-09
 86.19706     36.9 1.307e+04 2.868e-09
 86.21346     37.1 1.326e+04 2.934e-09
 86.22346     37.3 1.336e+04 3.561e-09
 86.23706     37.1 1.354e+04 3.616e-09
 86.25706     34.2 1.477e+04 5.004e-09
 86.27706     30.0 1.496e+04 1.480e-08
 86.29706     29.8 1.479e+04 4.746e-08
 86.30824     28.3 1.559e+04 5.491e-08
 86.31824     28.5 1.590e+04 6.398e-08
 86.33163     26.2 1.561e+04 3.943e-08
 86.34163     25.4 1.562e+04 3.899e-08
 86.35706     23.0 1.532e+04 1.478e-08
 86.37706     20.5 1.421e+04 8.204e-09
 86.39706     20.7 1.396e+04 6.613e-09
 86.41706     20.9 1.423e+04 3.374e-09
 86.43705     20.7 1.392e+04 2.787e-09
 86.44989     21.2 1.406e+04 1.770e-09
 86.46999     21.3 1.402e+04 1.878e-09
 86.50725     22.6 1.374e+04 1.227e-09
 86.54725     23.5 1.395e+04 9.854e-10
 86.58363     24.5 1.371e+04 1.218e-09
 86.60363     24.8 1.339e+04 1.875e-09
 86.62725     26.1 1.332e+04 2.410e-09
 86.66632     27.2 1.342e+04 2.957e-09
 86.68632     26.8 1.335e+04 4.290e-09
 86.70724     27.6 1.333e+04 4.368e-09
 86.74724     28.4 1.319e+04 4.030e-09
 86.78724     29.0 1.317e+04 3.597e-09
 86.82724     29.5 1.305e+04 3.892e-09
 86.86724     30.6 1.281e+04 4.916e-09
 86.88882     32.1 1.275e+04 4.870e-09
 86.90424     31.2 1.272e+04 5.049e-09
 86.92266     31.3 1.301e+04 6.051e-09
 86.94724     32.4 1.305e+04 4.407e-09
 86.97714     33.2 1.305e+04 3.415e-09
 86.99704     33.2 1.317e+04 3.188e-09
 87.01704     33.4 1.317e+04 3.231e-09
 87.03063     33.1 1.328e+04 3.550e-09
 87.03481     33.1 1.336e+04 4.077e-09
 87.04122     32.3 1.332e+04 4.097e-09
 87.05704     32.1 1.315e+04 5.927e-09
 87.07704     32.4 1.309e+04 7.344e-09
 87.10714     32.7 1.293e+04 8.468e-09
 87.13899     31.9 1.300e+04 9.530e-09
 87.15899     31.5 1.323e+04 9.833e-09
 87.17402     30.6 1.283e+04 8.620e-09
 87.19402     29.2 1.240e+04 5.847e-09
 87.21713     29.8 1.248e+04 3.847e-09
 87.23704     29.5 1.245e+04 3.314e-09
 87.26713     29.6 1.229e+04 2.342e-09
 87.30723     30.3 1.208e+04 2.112e-09
 87.34723     31.3 1.213e+04 2.229e-09
 87.37532     32.3 1.230e+04 2.593e-09
 87.38522     32.6 1.236e+04 2.581e-09
 87.39703     32.7 1.240e+04 2.645e-09
 87.41703     33.1 1.227e+04 3.012e-09
 87.43703     33.5 1.221e+04 3.669e-09
 87.45703     34.0 1.226e+04 4.538e-09
 87.46902     34.4 1.234e+04 5.442e-09
 87.47902     34.0 1.217e+04 4.386e-09
 87.49329     34.6 1.224e+04 5.201e-09
 87.50329     34.9 1.247e+04 7.303e-09
 87.51703     35.2 1.264e+04 7.320e-09
 87.53703     35.4 1.275e+04 6.952e-09
 87.55703     35.4 1.287e+04 6.346e-09
 87.57703     35.2 1.292e+04 5.734e-09
 87.59703     35.0 1.292e+04 5.359e-09
 87.61146     35.0 1.291e+04 5.027e-09
 87.61605     34.4 1.308e+04 6.605e-09
 87.62162     33.9 1.312e+04 7.116e-09
 87.63703     34.3 1.298e+04 6.542e-09
 87.65703     34.8 1.303e+04 5.190e-09
 87.67702     35.0 1.322e+04 3.869e-09
 87.69702     35.1 1.338e+04 2.836e-09
 87.71702     35.0 1.348e+04 2.348e-09
 87.72963     34.9 1.353e+04 2.446e-09
 87.73963     34.5 1.360e+04 2.524e-09
 87.75421     34.4 1.365e+04 2.950e-09
 87.76421     33.5 1.347e+04 3.749e-09
 87.78712     33.9 1.303e+04 5.479e-09
 87.82722     35.0 1.287e+04 5.031e-09
 87.84799     36.4 1.288e+04 3.124e-09
 87.86799     35.7 1.292e+04 3.319e-09
 87.90721     36.5 1.334e+04 1.448e-09
 87.94721     37.0 1.335e+04 1.108e-09
 87.98721     38.0 1.344e+04 1.215e-09
 88.02721     39.3 1.348e+04 1.772e-09
 88.04961     40.9 1.344e+04 2.647e-09
 88.06672     40.6 1.330e+04 2.158e-09
 88.08432     40.9 1.327e+04 1.856e-09
 88.10721     42.4 1.346e+04 1.834e-09
 88.14721     43.8 1.349e+04 1.846e-09
 88.18721     45.1 1.341e+04 1.945e-09
 88.22721     46.3 1.326e+04 2.191e-09
 88.26721     47.5 1.297e+04 2.850e-09
 88.30065     48.4 1.289e+04 3.841e-09
 88.32065     49.6 1.309e+04 4.311e-09
 88.33470     49.6 1.306e+04 5.175e-09
 88.35470     50.4 1.286e+04 5.323e-09
 88.38720     51.1 1.279e+04 5.630e-09
 88.42720     51.8 1.260e+04 4.778e-09
 88.46720     52.6 1.247e+04 3.241e-09
 88.50720     53.4 1.244e+04 2.179e-09
 88.53699     54.5 1.234e+04 1.959e-09
 88.55699     54.8 1.260e+04 2.710e-09
 88.58720     55.9 1.244e+04 2.568e-09
 88.62000     57.4 1.237e+04 2.834e-09
 88.64000     57.1 1.235e+04 2.984e-09
 88.66720     58.8 1.227e+04 3.044e-09
 88.70720     60.5 1.215e+04 2.922e-09
 88.74719     62.4 1.208e+04 2.491e-09
 88.77332     64.2 1.207e+04 1.977e-09
 88.79332     63.8 1.207e+04 2.094e-09
 88.82719     65.7 1.186e+04 1.944e-09
 88.86719     67.6 1.178e+04 1.972e-09
 88.90519     69.4 1.171e+04 2.139e-09
 88.92519     68.9 1.179e+04 2.391e-09
 88.94719     70.6 1.170e+04 2.910e-09
 88.98719     72.3 1.158e+04 3.555e-09
 89.00965     73.9 1.156e+04 4.264e-09
 89.02965     73.7 1.162e+04 4.206e-09
 89.06719     75.2 1.168e+04 4.939e-09
 89.10719     76.7 1.173e+04 5.196e-09
 89.12772     77.1 1.166e+04 5.093e-09
 89.13762     77.2 1.176e+04 5.298e-09
 89.15699     77.8 1.167e+04 5.202e-09
 89.17699     78.5 1.152e+04 4.762e-09
 89.19699     79.1 1.144e+04 4.289e-09
 89.21019     79.6 1.139e+04 3.938e-09
 89.22019     79.2 1.146e+04 4.031e-09
 89.23579     79.9 1.139e+04 3.782e-09
 89.24579     80.0 1.147e+04 4.050e-09
 89.25699     80.6 1.145e+04 3.858e-09
 89.27699     81.1 1.141e+04 3.714e-09
 89.29699     81.7 1.139e+04 3.642e-09
 89.31699     82.1 1.140e+04 3.678e-09
 89.33699     82.4 1.144e+04 3.796e-09
 89.35279     82.7 1.148e+04 4.012e-09
 89.35976     82.7 1.181e+04 4.398e-09
 89.36396     82.8 1.177e+04 3.927e-09
 89.38708     83.4 1.164e+04 4.139e-09
 89.42718     84.2 1.164e+04 4.216e-09
 89.45708     84.5 1.186e+04 4.254e-09
 89.47212     84.9 1.203e+04 4.524e-09
 89.48222     85.4 1.169e+04 3.380e-09
 89.49549     85.5 1.196e+04 4.142e-09
 89.50539     85.1 1.162e+04 7.209e-09
 89.51698     85.6 1.163e+04 7.452e-09
 89.53698     86.3 1.163e+04 7.355e-09
 89.55698     87.0 1.168e+04 7.192e-09
 89.57698     87.7 1.174e+04 7.167e-09
 89.59029     88.2 1.183e+04 7.208e-09
 89.60029     88.3 1.184e+04 7.186e-09
 89.61698     88.6 1.194e+04 7.454e-09
 89.63698     88.8 1.202e+04 8.027e-09
 89.64799     88.7 1.208e+04 8.841e-09
 89.65799     87.9 1.219e+04 9.014e-09
 89.67698     87.8 1.217e+04 9.882e-09
 89.69698     87.7 1.214e+04 9.869e-09
 89.70845     87.7 1.202e+04 9.556e-09
 89.71845     87.2 1.202e+04 9.267e-09
 89.73698     87.2 1.181e+04 8.555e-09
 89.75698     87.3 1.154e+04 6.931e-09
 89.77697     87.4 1.132e+04 5.108e-09
 89.79059     87.4 1.119e+04 3.626e-09
 89.80059     86.8 1.121e+04 2.912e-09
 89.81662     86.7 1.102e+04 2.351e-09
 89.82662     86.3 1.104e+04 2.519e-09
 89.83697     86.2 1.074e+04 2.421e-09
 89.85697     86.7 1.074e+04 2.436e-09
 89.87697     87.3 1.081e+04 2.591e-09
 89.89697     87.7 1.091e+04 3.023e-09
 89.91697     88.2 1.103e+04 3.735e-09
 89.93318     88.8 1.118e+04 4.700e-09
 89.94100     88.6 1.132e+04 5.505e-09
 89.94479     88.1 1.146e+04 6.573e-09
 89.95697     88.5 1.162e+04 7.783e-09
 89.97697     88.8 1.168e+04 8.652e-09
 89.99697     88.8 1.167e+04 8.820e-09
 90.01697     88.8 1.161e+04 8.693e-09
 90.03697     88.7 1.147e+04 8.367e-09
 90.05295     88.7 1.136e+04 8.018e-09
 90.06295     87.9 1.138e+04 8.102e-09
 90.07578     87.8 1.135e+04 8.056e-09
 90.08578     87.4 1.152e+04 9.262e-09
 90.09697     87.1 1.163e+04 1.035e-08
 90.11697     86.9 1.177e+04 1.178e-08
 90.13697     86.8 1.187e+04 1.311e-08
 90.15697     86.8 1.191e+04 1.375e-08
 90.17112     86.9 1.190e+04 1.380e-08
 90.18112     86.1 1.241e+04 1.957e-08
 90.19696     86.4 1.236e+04 1.925e-08
 90.21696     86.8 1.239e+04 1.879e-08
 90.22838     87.4 1.243e+04 1.887e-08
 90.23838     86.8 1.292e+04 2.311e-08
 90.25696     87.3 1.312e+04 2.461e-08
 90.27696     87.8 1.341e+04 2.786e-08
 90.28929     88.4 1.382e+04 3.343e-08
 90.29929     87.0 1.393e+04 3.542e-08
 90.31696     87.5 1.432e+04 4.362e-08
 90.33696     88.0 1.479e+04 5.640e-08
 90.35696     88.8 1.545e+04 7.813e-08
 90.37098     89.5 1.618e+04 1.119e-07
 90.38098     89.6 1.515e+04 4.657e-08
 90.39696     89.5 1.573e+04 5.115e-08
 90.40745     89.0 1.616e+04 5.302e-08
 90.41745     87.0 1.461e+04 1.808e-08
 90.43696     85.2 1.434e+04 1.739e-08
 90.45696     82.9 1.411e+04 1.947e-08
 90.47696     81.0 1.396e+04 2.584e-08
 90.49696     79.6 1.399e+04 3.139e-08
 90.51358     78.6 1.382e+04 3.419e-08
 90.52224     79.3 1.314e+04 2.286e-08
 90.52562     80.2 1.255e+04 1.669e-08
 90.53696     79.8 1.283e+04 2.058e-08
 90.55696     79.4 1.293e+04 2.230e-08
 90.57696     79.2 1.285e+04 2.125e-08
 90.59695     79.1 1.264e+04 1.888e-08
 90.61695     79.1 1.236e+04 1.609e-08
 90.63379     79.4 1.224e+04 1.495e-08
 90.64379     80.0 1.205e+04 1.456e-08
 90.65627     80.3 1.194e+04 1.455e-08
 90.67637     81.8 1.172e+04 1.333e-08
 90.70715     82.5 1.166e+04 1.435e-08
 90.74715     83.2 1.172e+04 1.389e-08
 90.78715     84.2 1.163e+04 1.200e-08
 90.80887     85.0 1.148e+04 1.099e-08
 90.81877     85.1 1.143e+04 1.045e-08
 90.83695     85.7 1.123e+04 8.536e-09
 90.85695     86.1 1.098e+04 6.828e-09
 90.87012     86.6 1.072e+04 5.456e-09
 90.88012     87.1 1.087e+04 6.590e-09
 90.89695     87.6 1.057e+04 4.966e-09
 90.91695     88.1 1.034e+04 3.873e-09
 90.93695     88.6 1.013e+04 3.126e-09
 90.95137     88.9 9.962e+03 2.634e-09
 90.96137     89.0 9.857e+03 2.316e-09
 90.98704     90.5 9.569e+03 2.046e-09
 91.02714     91.8 9.291e+03 1.818e-09
 91.06714     93.2 9.213e+03 1.773e-09
 91.09665     94.7 9.220e+03 1.781e-09
 91.11665     95.4 9.229e+03 2.174e-09
 91.14714     96.5 9.258e+03 2.155e-09
 91.18714     97.3 9.350e+03 2.237e-09
 91.22676     97.6 9.385e+03 2.345e-09
 91.24676     98.4 9.282e+03 2.553e-09
 91.26713     98.7 9.345e+03 2.883e-09
 91.30713     98.8 9.369e+03 2.872e-09
 91.33298     99.0 9.218e+03 2.545e-09
 91.35298     99.6 8.826e+03 2.283e-09
 91.38713    100.1 8.522e+03 1.697e-09
 91.42713    100.7 8.338e+03 1.118e-09
 91.46713    101.4 8.086e+03 7.971e-10
 91.50713    102.6 7.953e+03 7.681e-10
 91.53196    104.2 7.947e+03 7.931e-10
 91.55196    104.4 7.747e+03 6.720e-10
 91.56931    106.1 7.770e+03 8.086e-10
 91.58931    106.7 7.753e+03 8.156e-10
 91.62713    108.3 7.899e+03 1.073e-09
 91.66712    109.8 8.145e+03 1.479e-09
 91.70712    111.3 8.502e+03 2.047e-09
 91.74712    112.5 8.919e+03 2.707e-09
 91.78565    113.0 9.149e+03 3.165e-09
 91.80564    113.5 9.113e+03 3.279e-09
 91.81702    113.9 9.163e+03 3.534e-09
 91.83693    114.9 9.165e+03 3.774e-09
 91.85692    115.1 9.282e+03 4.076e-09
 91.87692    115.3 9.387e+03 4.362e-09
 91.89692    115.4 9.454e+03 4.683e-09
 91.91362    115.5 9.490e+03 5.060e-09
 91.92362    115.6 9.309e+03 5.105e-09
 91.93692    115.7 9.372e+03 5.511e-09
 91.95692    115.9 9.459e+03 5.876e-09
 91.96955    116.0 9.504e+03 6.053e-09
 91.97955    116.2 9.599e+03 6.222e-09
 91.99692    116.2 9.572e+03 6.181e-09
 92.02188    116.3 9.414e+03 5.631e-09
 92.04188    116.3 9.325e+03 5.654e-09
 92.06702    117.1 9.000e+03 4.803e-09
 92.10235    118.1 8.631e+03 3.731e-09
 92.12235    118.9 8.720e+03 3.904e-09
 92.14711    120.1 8.404e+03 3.117e-09
 92.18711    121.5 8.495e+03 2.892e-09
 92.22711    123.0 8.568e+03 2.989e-09
 92.25485    123.7 8.576e+03 3.020e-09
 92.26475    123.8 8.603e+03 3.039e-09
 92.26811    124.4 8.737e+03 3.322e-09
 92.27821    124.6 8.509e+03 2.778e-09
 92.29701    125.0 8.765e+03 3.262e-09
 92.31691    125.4 9.056e+03 4.000e-09
 92.33691    125.7 9.349e+03 4.857e-09
 92.35691    125.8 9.564e+03 5.482e-09
 92.37628    125.9 9.654e+03 5.706e-09
 92.38628    126.2 9.393e+03 4.776e-09
 92.39691    126.3 9.447e+03 4.912e-09
 92.40735    126.5 9.487e+03 4.873e-09
 92.41735    126.5 9.583e+03 5.072e-09
 92.43691    126.8 9.629e+03 5.012e-09
 92.45691    127.1 9.647e+03 4.799e-09
 92.47691    127.5 9.664e+03 4.415e-09
 92.49445    127.9 9.659e+03 3.855e-09
 92.50445    128.2 9.696e+03 4.633e-09
 92.51691    128.6 9.681e+03 4.069e-09
 92.53691    128.9 9.688e+03 3.389e-09
 92.54995    128.9 9.710e+03 2.816e-09
 92.55995    129.5 1.011e+04 4.178e-09
 92.57691    129.7 1.016e+04 3.583e-09
 92.59691    129.8 1.022e+04 3.183e-09
 92.61261    130.0 1.026e+04 2.932e-09
 92.62261    130.5 1.045e+04 3.471e-09
 92.63691    130.7 1.048e+04 3.189e-09
 92.65691    131.1 1.049e+04 3.171e-09
 92.67691    131.2 1.052e+04 3.187e-09
 92.69254    131.3 1.065e+04 3.341e-09
 92.70254    132.1 1.085e+04 3.974e-09
 92.71690    132.0 1.093e+04 4.110e-09
 92.73078    131.4 1.117e+04 4.752e-09
 92.74078    132.1 1.138e+04 5.680e-09
 92.75690    131.2 1.172e+04 7.462e-09
 92.77690    130.1 1.210e+04 1.065e-08
 92.79690    129.1 1.248e+04 1.506e-08
 92.81690    127.9 1.286e+04 1.998e-08
 92.83514    126.6 1.327e+04 2.470e-08
 92.84514    127.4 1.351e+04 2.841e-08
 92.84895    126.0 1.399e+04 3.645e-08
 92.85895    126.1 1.404e+04 3.449e-08
 92.87690    124.2 1.453e+04 4.220e-08
 92.89690    122.0 1.473e+04 4.392e-08
 92.91690    119.7 1.466e+04 4.197e-08
 92.93690    117.4 1.425e+04 3.342e-08
 92.95690    115.0 1.358e+04 2.171e-08
 92.96711    111.8 1.287e+04 1.398e-08
 92.97711    111.1 1.287e+04 1.382e-08
 92.98774    107.5 1.277e+04 1.300e-08
 92.99774    106.7 1.303e+04 1.431e-08
 93.01185    104.2 1.328e+04 1.558e-08
 93.02110    102.9 1.361e+04 1.738e-08
 93.02610    102.0 1.374e+04 1.782e-08
 93.03180     96.2 1.586e+04 3.262e-08
 93.04180     91.4 1.760e+04 6.826e-08
 93.05180     86.3 1.892e+04 1.689e-07
 93.05894     83.7 1.928e+04 2.490e-07
 93.06394     82.9 1.939e+04 5.567e-07
 93.07180     80.2 1.939e+04 5.381e-07
 93.08018     78.1 1.951e+04 3.569e-07
 93.08518     76.5 1.965e+04 2.226e-07
 93.09685     69.7 2.035e+04 4.675e-08
 93.11689     53.5 1.631e+04 1.361e-08
 93.13034     43.9 1.308e+04 1.532e-08
 93.14034     43.7 1.288e+04 2.079e-08
 93.15689     37.2 1.560e+04 3.089e-08
 93.17689     26.4 1.868e+04 9.215e-08
 93.19345     21.0 1.744e+04 1.845e-07
 93.20345     19.2 1.730e+04 1.778e-07
 93.21689     18.1 1.594e+04 6.644e-08
 93.23689     12.4 1.381e+04 1.146e-08
 93.25689      3.3 9.720e+03 3.083e-09
 93.27294      1.5 8.634e+03 2.341e-09
 93.28294      3.2 8.613e+03 1.993e-09
 93.29689      2.8 8.428e+03 1.731e-09
 93.31161      2.9 8.380e+03 1.679e-09
 93.32161      2.1 8.326e+03 1.960e-09
 93.33689      2.6 8.553e+03 2.178e-09
 93.35689      2.8 8.690e+03 2.488e-09
 93.37689      3.2 8.929e+03 3.101e-09
 93.39689      3.2 9.191e+03 3.715e-09
 93.41553      3.3 9.571e+03 5.157e-09
 93.42553      3.9 9.289e+03 4.361e-09
 93.42978      4.0 9.856e+03 5.942e-09
 93.43978      3.3 1.019e+04 7.178e-09
 93.45689      2.7 1.111e+04 1.124e-08
 93.47689      1.8 1.211e+04 1.838e-08
 93.49689      1.3 1.312e+04 3.017e-08
 93.51689      1.5 1.397e+04 4.584e-08
 93.53688      1.9 1.463e+04 5.794e-08
 93.54794      1.7 1.508e+04 6.150e-08
 93.55794      0.5 1.596e+04 6.831e-08
 93.56813     -1.8 1.615e+04 6.484e-08
 93.57813     -1.4 1.417e+04 2.542e-08
 93.59688     -4.2 1.451e+04 2.690e-08
 93.61688     -6.1 1.486e+04 3.725e-08
 93.63688     -6.6 1.496e+04 4.572e-08
 93.65611     -6.7 1.476e+04 4.376e-08
 93.66611     -7.6 1.391e+04 2.872e-08
 93.67688     -8.0 1.283e+04 1.320e-08
 93.69688     -9.9 1.154e+04 5.236e-09
 93.71073    -11.0 1.094e+04 3.181e-09
 93.72073    -10.3 1.097e+04 3.274e-09
 93.74698    -10.9 1.059e+04 2.020e-09
 93.78707    -10.5 1.016e+04 1.093e-09
 93.82707     -9.1 1.016e+04 1.015e-09
 93.85352     -8.2 1.069e+04 1.088e-09
 93.87352     -6.7 1.055e+04 1.092e-09
 93.89264     -5.9 1.080e+04 1.434e-09
 93.91264     -6.0 1.070e+04 1.569e-09
 93.94707     -5.3 1.111e+04 2.237e-09
 93.98707     -4.9 1.163e+04 2.682e-09
 94.02707     -4.8 1.196e+04 2.831e-09
 94.06707     -4.8 1.211e+04 2.788e-09
 94.10707     -4.6 1.204e+04 3.181e-09
 94.12897     -3.9 1.209e+04 3.602e-09
 94.14062     -3.9 1.211e+04 3.666e-09
 94.15872     -2.4 1.210e+04 3.531e-09
 94.18706     -1.5 1.208e+04 3.608e-09
 94.22706     -0.4 1.203e+04 2.755e-09
 94.26706      0.6 1.204e+04 1.900e-09
 94.30706      1.4 1.203e+04 1.683e-09
 94.34531      2.5 1.206e+04 1.834e-09
 94.36530      3.2 1.200e+04 1.558e-09
 94.38706      4.5 1.182e+04 1.871e-09
 94.42391      6.0 1.155e+04 2.189e-09
 94.44391      7.1 1.136e+04 2.473e-09
 94.46706      8.3 1.110e+04 2.585e-09
 94.50706      9.2 1.090e+04 2.310e-09
 94.54706      9.7 1.078e+04 2.268e-09
 94.58164     10.3 1.059e+04 2.556e-09
 94.60164     11.0 1.072e+04 3.283e-09
 94.62705     11.6 1.063e+04 3.595e-09
 94.65696     11.7 1.053e+04 3.297e-09
 94.67686     11.6 1.047e+04 3.267e-09
 94.69686     11.4 1.040e+04 3.270e-09
 94.70961     11.2 1.039e+04 3.347e-09
 94.71961     11.1 1.040e+04 3.634e-09
 94.72891     11.0 1.044e+04 3.847e-09
 94.73891     11.2 1.033e+04 3.632e-09
 94.75686     10.0 1.072e+04 4.436e-09
 94.77685      6.5 1.215e+04 7.800e-09
 94.79685      2.1 1.354e+04 2.040e-08
 94.81685      0.3 1.467e+04 5.107e-08
 94.82777      0.3 1.587e+04 8.383e-08
 94.83777      0.1 1.684e+04 1.245e-07
 94.85685     -3.3 1.649e+04 9.011e-08
 94.87151     -6.9 1.545e+04 6.368e-08
 94.88151     -6.6 1.539e+04 6.172e-08
 94.89685     -8.5 1.498e+04 5.719e-08
 94.91685     -9.3 1.478e+04 5.464e-08
 94.93594     -9.6 1.451e+04 4.829e-08
 94.94594    -10.1 1.420e+04 4.050e-08
 94.95685    -10.3 1.391e+04 3.461e-08
 94.97685    -10.5 1.357e+04 2.935e-08
 94.99685    -10.5 1.322e+04 2.461e-08
 95.01411    -10.4 1.288e+04 2.114e-08
 95.02411    -10.0 1.277e+04 2.054e-08
 95.03685     -9.5 1.256e+04 1.873e-08
 95.05411     -9.1 1.256e+04 1.831e-08
 95.06411     -8.9 1.250e+04 1.743e-08
 95.07685     -9.6 1.314e+04 1.976e-08
 95.09685    -12.6 1.497e+04 3.980e-08
 95.11685    -14.7 1.664e+04 1.084e-07
 95.13180    -15.5 1.798e+04 2.671e-07
 95.14175    -16.1 1.822e+04 4.473e-07
 95.15175    -16.0 1.856e+04 6.532e-07
 95.16161    -17.4 1.862e+04 6.812e-07
 95.16661    -17.4 1.864e+04 7.087e-07
 95.17175    -18.3 1.845e+04 4.472e-07
 95.17718    -19.2 1.782e+04 2.240e-07
 95.18218    -19.9 1.748e+04 1.733e-07
 95.19680    -21.5 1.632e+04 8.420e-08
 95.21684    -23.7 1.393e+04 2.065e-08
 95.23684    -26.6 1.206e+04 8.567e-09
 95.25684    -27.4 1.109e+04 5.992e-09
 95.27684    -27.4 1.076e+04 4.804e-09
 95.29044    -27.3 1.044e+04 4.006e-09
 95.30044    -28.3 1.026e+04 3.892e-09
 95.30931    -28.2 1.012e+04 3.605e-09
 95.31931    -28.4 1.013e+04 3.711e-09
 95.34694    -28.4 1.016e+04 3.723e-09
 95.38704    -28.6 1.022e+04 3.882e-09
 95.42703    -30.0 1.080e+04 7.269e-09
 95.46703    -30.9 1.137e+04 1.285e-08
 95.50697    -32.0 1.161e+04 1.595e-08
 95.54697    -33.9 1.101e+04 1.239e-08
 95.58470    -34.4 1.020e+04 7.979e-09
 95.60470    -35.0 1.010e+04 7.191e-09
 95.62703    -35.3 9.268e+03 4.219e-09
 95.66703    -35.1 8.815e+03 3.106e-09
 95.70703    -34.2 8.694e+03 2.870e-09
 95.74330    -33.5 8.686e+03 2.856e-09
 95.76330    -33.2 8.604e+03 2.055e-09
 95.78703    -32.7 8.636e+03 2.038e-09
 95.82702    -32.3 8.711e+03 2.382e-09
 95.86702    -31.8 8.838e+03 2.726e-09
 95.88989    -31.3 8.949e+03 2.839e-09
 95.90989    -31.0 8.999e+03 3.028e-09
 95.94702    -30.6 9.091e+03 3.046e-09
 95.97963    -30.3 9.188e+03 3.075e-09
 95.99963    -29.2 9.464e+03 3.975e-09
 96.02702    -28.7 9.482e+03 3.992e-09
 96.06702    -28.1 9.453e+03 3.937e-09
 96.10702    -27.5 9.362e+03 3.638e-09
 96.14702    -26.8 9.243e+03 3.293e-09
 96.17509    -26.0 9.214e+03 3.150e-09
 96.19509    -26.7 9.401e+03 3.609e-09
 96.21597    -26.1 9.524e+03 3.669e-09
 96.22587    -25.2 9.725e+03 3.877e-09
 96.23682    -25.2 9.742e+03 3.871e-09
 96.25682    -25.2 9.948e+03 4.118e-09
 96.27682    -25.6 1.015e+04 4.761e-09
 96.29682    -26.1 1.043e+04 5.945e-09
 96.31682    -26.8 1.083e+04 7.837e-09
 96.32749    -27.6 1.137e+04 1.090e-08
 96.33461    -28.4 1.138e+04 1.084e-08
 96.34394    -28.5 1.151e+04 1.132e-08
 96.35682    -29.6 1.203e+04 1.506e-08
 96.37682    -30.6 1.236e+04 1.737e-08
 96.39682    -31.9 1.243e+04 1.773e-08
 96.41682    -33.2 1.236e+04 1.565e-08
 96.43682    -34.7 1.223e+04 1.255e-08
 96.45210    -36.6 1.225e+04 1.148e-08
 96.46210    -36.7 1.227e+04 1.095e-08
 96.47009    -38.2 1.234e+04 1.090e-08
 96.48009    -39.6 1.242e+04 1.024e-08
 96.50691    -41.3 1.263e+04 9.896e-09
 96.54701    -42.8 1.289e+04 1.013e-08
 96.58701    -44.4 1.301e+04 8.798e-09
 96.62701    -44.9 1.279e+04 5.408e-09
 96.66700    -45.1 1.257e+04 3.283e-09
 96.68863    -44.7 1.236e+04 2.345e-09
 96.70863    -44.7 1.233e+04 1.714e-09
 96.74548    -43.7 1.230e+04 1.302e-09
 96.76548    -44.1 1.240e+04 1.276e-09
 96.78700    -42.8 1.240e+04 1.202e-09
 96.82700    -41.4 1.241e+04 1.187e-09
 96.86700    -40.3 1.258e+04 1.241e-09
 96.90497    -39.8 1.261e+04 2.159e-09
 96.92496    -39.0 1.273e+04 1.389e-09
 96.94700    -38.8 1.280e+04 2.956e-09
 96.98700    -38.8 1.319e+04 7.342e-09
 97.01690    -39.0 1.357e+04 1.183e-08
 97.03294    -39.8 1.412e+04 1.800e-08
 97.04294    -40.4 1.439e+04 2.373e-08
 97.05048    -41.4 1.532e+04 4.808e-08
 97.06048    -41.3 1.538e+04 4.603e-08
 97.07680    -41.9 1.658e+04 1.036e-07
 97.09680    -42.7 1.728e+04 1.662e-07
 97.11680    -44.3 1.731e+04 1.753e-07
 97.13680    -45.3 1.648e+04 1.098e-07
 97.15110    -45.9 1.545e+04 5.266e-08
 97.16110    -47.1 1.494e+04 2.535e-08
 97.17680    -48.5 1.425e+04 1.210e-08
 97.19308    -49.3 1.373e+04 7.570e-09
 97.20308    -49.3 1.401e+04 7.611e-09
 97.21680    -49.8 1.348e+04 5.296e-09
 97.23680    -49.9 1.311e+04 4.261e-09
 97.25680    -49.8 1.288e+04 3.993e-09
 97.26927    -49.5 1.280e+04 3.951e-09
 97.27927    -49.7 1.278e+04 3.762e-09
 97.30689    -49.1 1.273e+04 4.024e-09
 97.33587    -48.4 1.267e+04 4.994e-09
 97.35587    -48.2 1.279e+04 4.898e-09
 97.37689    -48.0 1.273e+04 5.963e-09
 97.38743    -47.9 1.273e+04 6.450e-09
 97.39753    -48.4 1.258e+04 5.048e-09
 97.42699    -48.1 1.250e+04 5.515e-09
 97.45689    -48.1 1.240e+04 6.160e-09
 97.47679    -47.9 1.236e+04 6.142e-09
 97.50689    -47.7 1.244e+04 6.516e-09
 97.54698    -47.4 1.244e+04 7.992e-09
 97.58698    -47.1 1.240e+04 8.561e-09
 97.61396    -46.6 1.231e+04 8.521e-09
 97.62805    -46.5 1.168e+04 4.866e-09
 97.64107    -45.7 1.192e+04 6.446e-09
 97.66698    -44.6 1.167e+04 4.866e-09
 97.70698    -43.5 1.148e+04 3.692e-09
 97.74698    -42.3 1.130e+04 3.182e-09
 97.78698    -40.9 1.116e+04 3.006e-09
 97.82698    -39.4 1.101e+04 2.866e-09
 97.85030    -37.7 1.084e+04 2.631e-09
 97.87030    -36.6 1.073e+04 2.066e-09
 97.90626    -34.8 1.059e+04 1.979e-09
 97.92626    -34.1 1.062e+04 2.285e-09
 97.94697    -32.2 1.047e+04 1.953e-09
 97.98697    -30.4 1.033e+04 1.754e-09
 98.02697    -28.4 1.029e+04 1.720e-09
 98.06663    -26.5 1.025e+04 1.918e-09
 98.08663    -25.5 1.019e+04 1.885e-09
 98.10697    -23.7 1.018e+04 2.455e-09
 98.14697    -21.8 1.018e+04 3.144e-09
 98.18697    -20.0 1.018e+04 3.498e-09
 98.21146    -18.3 1.008e+04 3.468e-09
 98.23146    -18.0 9.858e+03 2.766e-09
 98.26697    -16.6 9.726e+03 2.504e-09
 98.30296    -15.4 9.711e+03 2.433e-09
 98.32296    -14.5 9.712e+03 2.669e-09
 98.34696    -13.9 9.682e+03 2.962e-09
 98.38696    -14.0 9.942e+03 3.980e-09
 98.42696    -15.3 1.063e+04 6.323e-09
 98.46696    -16.8 1.109e+04 1.005e-08
 98.49666    -18.1 1.110e+04 1.160e-08
 98.51666    -16.8 1.083e+04 9.491e-09
 98.53929    -18.2 1.059e+04 9.310e-09
 98.55929    -16.1 1.036e+04 7.847e-09
 98.57686    -17.6 1.023e+04 7.619e-09
 98.59676    -17.6 1.015e+04 7.275e-09
 98.61676    -18.0 9.741e+03 5.712e-09
 98.63676    -18.1 9.466e+03 4.545e-09
 98.64906    -18.3 9.210e+03 3.634e-09
 98.65906    -17.6 9.198e+03 3.584e-09
 98.66726    -17.7 9.024e+03 3.067e-09
 98.67726    -17.3 9.015e+03 2.925e-09
 98.70686    -17.8 8.909e+03 2.789e-09
 98.74696    -17.6 8.878e+03 2.762e-09
 98.77563    -17.5 8.957e+03 3.104e-09
 98.79052    -17.4 8.946e+03 3.229e-09
 98.80175    -16.6 9.032e+03 3.630e-09
 98.81676    -16.6 9.239e+03 4.511e-09
 98.83676    -16.5 9.453e+03 5.480e-09
 98.85676    -16.3 9.651e+03 6.469e-09
 98.87676    -16.2 9.783e+03 7.090e-09
 98.89360    -16.2 9.807e+03 7.215e-09
 98.90360    -16.5 9.779e+03 7.157e-09
 98.91676    -16.4 9.571e+03 6.526e-09
 98.93425    -16.2 9.298e+03 5.228e-09
 98.94425    -15.9 9.478e+03 5.785e-09
 98.95675    -15.9 9.168e+03 4.435e-09
 98.98685    -15.8 8.817e+03 3.229e-09
 99.01196    -15.1 8.387e+03 2.175e-09
 99.03196    -15.7 8.257e+03 2.034e-09
 99.06695    -14.3 8.002e+03 1.329e-09
 99.10695    -12.4 7.957e+03 1.036e-09
 99.14695    -10.6 7.923e+03 8.507e-10
 99.18694     -8.8 7.930e+03 7.504e-10
 99.22694     -7.3 7.954e+03 7.321e-10
 99.24829     -6.5 8.220e+03 1.016e-09
 99.26829     -6.6 8.546e+03 1.605e-09
 99.30694     -5.6 9.075e+03 2.874e-09
 99.33684     -4.4 9.321e+03 3.798e-09
 99.35626     -4.5 9.500e+03 4.452e-09
 99.36626     -4.6 9.883e+03 6.023e-09
 99.37205     -4.4 1.026e+04 7.528e-09
 99.38205     -3.7 1.014e+04 6.745e-09
 99.39674     -4.1 1.042e+04 7.811e-09
 99.41674     -4.4 1.061e+04 8.793e-09
 99.43674     -4.8 1.072e+04 9.467e-09
 99.45674     -5.1 1.078e+04 9.749e-09
 99.47443     -5.4 1.080e+04 9.684e-09
 99.48443     -5.5 1.122e+04 1.260e-08
 99.49674     -6.0 1.110e+04 1.113e-08
 99.51465     -6.3 1.097e+04 9.593e-09
 99.52465     -5.8 1.133e+04 1.233e-08
 99.53674     -6.2 1.117e+04 1.028e-08
 99.55674     -6.7 1.100e+04 8.324e-09
 99.57674     -7.3 1.084e+04 6.808e-09
 99.59260     -7.9 1.072e+04 5.866e-09
 99.60260     -8.1 1.077e+04 5.877e-09
 99.61674     -8.5 1.071e+04 5.173e-09
 99.63674     -8.7 1.069e+04 4.824e-09
 99.65674     -8.9 1.071e+04 4.753e-09
 99.66724     -9.0 1.078e+04 4.807e-09
 99.67724     -8.8 1.084e+04 4.924e-09
 99.69674     -8.9 1.089e+04 4.899e-09
 99.71076     -8.9 1.095e+04 4.861e-09
 99.72076     -9.3 1.097e+04 4.394e-09
 99.73674     -9.3 1.099e+04 4.412e-09
 99.75674     -9.2 1.101e+04 4.328e-09
 99.77674     -9.1 1.102e+04 4.046e-09
 99.79673     -9.0 1.104e+04 3.624e-09
 99.80984     -9.0 1.104e+04 3.143e-09
 99.81984     -8.9 1.117e+04 3.499e-09
 99.82893     -9.0 1.114e+04 3.155e-09
 99.83893     -9.2 1.119e+04 3.211e-09
 99.85673     -9.4 1.111e+04 3.000e-09
 99.87673     -9.5 1.108e+04 2.921e-09
 99.90683     -9.4 1.114e+04 2.596e-09
 99.93729     -9.3 1.135e+04 2.449e-09
 99.95290     -9.6 1.157e+04 3.252e-09
 99.96244     -9.4 1.163e+04 3.240e-09
 99.97673     -9.6 1.169e+04 3.239e-09
 99.99673    -10.5 1.214e+04 3.397e-09
