# Columns:
#   distance along LOS (in CHIMPs)
#   peculiar velocity  (in km/s)
#   temperature (K)
#   HI number density
# pos=(69.5357,230.416,5.1617), angles=(1.60247,4.79228)
  0.00329     53.9 1.939e+04 2.321e-07
  0.01148     52.4 1.887e+04 1.687e-07
  0.02128     51.2 1.844e+04 1.371e-07
  0.03603     50.3 1.766e+04 1.138e-07
  0.05568     49.9 1.663e+04 1.019e-07
  0.07529     50.4 1.601e+04 8.648e-08
  0.09489     51.6 1.538e+04 6.908e-08
  0.11449     52.6 1.474e+04 4.986e-08
  0.13410     52.6 1.407e+04 3.466e-08
  0.15370     52.3 1.354e+04 2.561e-08
  0.16929     52.0 1.312e+04 2.171e-08
  0.17815     53.1 1.328e+04 2.284e-08
  0.18216     53.7 1.338e+04 2.195e-08
  0.19291     53.0 1.269e+04 1.710e-08
  0.21251     53.1 1.255e+04 1.723e-08
  0.23211     53.1 1.268e+04 1.877e-08
  0.25172     52.6 1.312e+04 2.355e-08
  0.27132     51.7 1.397e+04 3.518e-08
  0.29093     51.2 1.502e+04 5.849e-08
  0.31053     50.9 1.539e+04 6.957e-08
  0.33013     50.8 1.506e+04 6.143e-08
  0.34974     50.2 1.437e+04 4.254e-08
  0.36934     46.9 1.403e+04 2.717e-08
  0.38894     41.0 1.351e+04 2.032e-08
  0.40855     36.1 1.278e+04 1.800e-08
  0.41914     32.9 1.224e+04 1.551e-08
  0.42894     33.9 1.194e+04 1.380e-08
  0.44775     30.8 1.138e+04 1.148e-08
  0.46736     27.6 1.064e+04 9.606e-09
  0.48696     25.0 1.009e+04 8.390e-09
  0.50656     23.1 1.008e+04 8.344e-09
  0.52617     22.0 1.003e+04 8.603e-09
  0.54577     21.1 9.932e+03 8.473e-09
  0.56538     21.1 9.663e+03 7.866e-09
  0.58498     20.8 9.426e+03 6.750e-09
  0.60458     20.6 9.066e+03 5.601e-09
  0.62419     20.7 8.767e+03 4.611e-09
  0.64379     20.9 8.503e+03 4.027e-09
  0.65919     21.1 8.382e+03 3.377e-09
  0.66899     22.1 8.451e+03 3.681e-09
  0.68300     22.4 8.326e+03 3.357e-09
  0.71250     23.3 8.384e+03 3.226e-09
  0.75180     24.9 8.389e+03 3.280e-09
  0.78475     26.7 8.442e+03 3.395e-09
  0.80435     25.9 8.474e+03 3.297e-09
  0.83022     27.9 8.614e+03 3.732e-09
  0.86943     30.3 8.782e+03 4.116e-09
  0.89943     32.9 8.752e+03 4.042e-09
  0.91903     34.1 8.882e+03 4.197e-09
  0.94784     36.6 8.699e+03 3.678e-09
  0.98705     38.8 8.525e+03 3.069e-09
  1.02625     41.0 8.440e+03 2.466e-09
  1.06546     43.2 8.434e+03 2.055e-09
  1.10467     45.5 8.383e+03 1.879e-09
  1.14388     47.9 8.312e+03 1.827e-09
  1.18308     50.5 8.316e+03 1.911e-09
  1.22229     53.1 8.490e+03 2.168e-09
  1.26150     55.7 8.718e+03 2.514e-09
  1.29081     58.1 8.845e+03 2.738e-09
  1.31031     58.6 8.891e+03 2.823e-09
  1.32992     59.7 8.902e+03 3.051e-09
  1.34952     60.7 9.041e+03 3.545e-09
  1.36912     61.6 9.244e+03 4.185e-09
  1.38873     62.0 9.599e+03 5.220e-09
  1.39893     61.8 1.042e+04 7.237e-09
  1.40694     63.7 9.688e+03 5.737e-09
  1.41634     62.9 9.986e+03 6.801e-09
  1.42793     62.4 1.107e+04 1.042e-08
  1.44754     61.9 1.207e+04 1.620e-08
  1.46714     61.8 1.267e+04 2.247e-08
  1.48674     61.9 1.286e+04 2.563e-08
  1.50635     61.8 1.292e+04 2.456e-08
  1.52595     60.8 1.307e+04 2.208e-08
  1.54555     58.7 1.345e+04 1.968e-08
  1.56516     56.7 1.366e+04 2.039e-08
  1.58476     55.2 1.400e+04 2.390e-08
  1.59942     55.2 1.401e+04 2.656e-08
  1.60917     55.1 1.408e+04 2.762e-08
  1.61897     54.5 1.443e+04 3.159e-08
  1.62877     54.3 1.461e+04 3.319e-08
  1.63857     53.5 1.501e+04 3.609e-08
  1.64378     53.2 1.522e+04 3.792e-08
  1.64868     55.3 1.492e+04 3.498e-08
  1.65818     54.5 1.534e+04 3.848e-08
  1.66798     54.1 1.556e+04 4.054e-08
  1.67778     53.4 1.572e+04 4.270e-08
  1.68758     53.2 1.580e+04 4.411e-08
  1.69738     52.6 1.590e+04 4.499e-08
  1.70719     52.4 1.591e+04 4.477e-08
  1.71699     52.4 1.568e+04 4.332e-08
  1.72234     52.4 1.557e+04 4.259e-08
  1.72724     50.9 1.600e+04 5.391e-08
  1.73659     51.4 1.562e+04 4.747e-08
  1.74639     51.4 1.560e+04 4.635e-08
  1.76115     53.0 1.536e+04 4.300e-08
  1.78080     53.0 1.475e+04 3.454e-08
  1.80040     53.1 1.399e+04 2.760e-08
  1.82000     53.4 1.345e+04 2.261e-08
  1.83961     54.1 1.305e+04 1.855e-08
  1.85921     55.0 1.276e+04 1.490e-08
  1.87882     55.9 1.255e+04 1.179e-08
  1.88883     56.7 1.235e+04 9.336e-09
  1.89863     57.6 1.289e+04 1.259e-08
  1.91802     58.4 1.271e+04 1.012e-08
  1.93763     59.2 1.240e+04 7.997e-09
  1.95723     59.9 1.187e+04 6.233e-09
  1.97683     60.4 1.108e+04 4.875e-09
  1.99644     60.9 1.010e+04 4.064e-09
  2.01604     61.3 9.364e+03 3.746e-09
  2.02853     61.8 9.071e+03 3.771e-09
  2.03833     60.1 8.867e+03 3.607e-09
  2.05525     60.8 8.959e+03 3.820e-09
  2.07485     61.6 9.071e+03 4.175e-09
  2.09445     62.3 9.247e+03 4.718e-09
  2.11406     63.0 9.471e+03 5.429e-09
  2.12887     63.6 9.645e+03 6.249e-09
  2.13867     63.8 9.615e+03 6.274e-09
  2.15327     64.4 9.852e+03 6.990e-09
  2.17287     64.9 1.008e+04 7.783e-09
  2.19247     65.1 1.029e+04 8.508e-09
  2.21208     65.1 1.049e+04 9.144e-09
  2.23168     65.0 1.069e+04 9.839e-09
  2.25128     64.9 1.097e+04 1.080e-08
  2.27089     64.8 1.131e+04 1.212e-08
  2.29049     64.8 1.175e+04 1.402e-08
  2.31009     64.9 1.230e+04 1.650e-08
  2.32970     64.9 1.296e+04 1.997e-08
  2.34930     64.7 1.364e+04 2.539e-08
  2.36891     64.5 1.426e+04 3.362e-08
  2.38851     64.8 1.485e+04 4.497e-08
  2.40811     65.1 1.523e+04 5.457e-08
  2.42772     65.5 1.522e+04 5.431e-08
  2.44732     66.1 1.498e+04 4.724e-08
  2.46692     66.8 1.455e+04 3.499e-08
  2.48653     67.1 1.410e+04 2.394e-08
  2.50613     67.0 1.356e+04 1.615e-08
  2.52573     66.8 1.284e+04 1.158e-08
  2.54534     66.7 1.246e+04 1.085e-08
  2.56494     67.0 1.242e+04 1.102e-08
  2.58454     67.5 1.243e+04 1.156e-08
  2.60415     67.7 1.274e+04 1.320e-08
  2.61877     68.0 1.315e+04 1.480e-08
  2.62857     68.1 1.233e+04 1.101e-08
  2.64072     68.5 1.252e+04 1.154e-08
  2.65052     68.1 1.359e+04 1.753e-08
  2.66296     68.5 1.315e+04 1.495e-08
  2.67761     69.0 1.274e+04 1.250e-08
  2.68737     69.0 1.269e+04 1.199e-08
  2.69717     69.4 1.241e+04 1.078e-08
  2.70697     69.4 1.246e+04 1.071e-08
  2.71677     69.5 1.257e+04 1.066e-08
  2.72657     69.1 1.328e+04 1.144e-08
  2.73637     68.3 1.471e+04 1.370e-08
  2.74360     66.9 1.677e+04 1.890e-08
  2.74850     67.9 1.504e+04 1.400e-08
  2.75598     66.3 1.743e+04 2.069e-08
  2.76578     64.5 1.964e+04 3.652e-08
  2.77558     63.1 2.068e+04 7.493e-08
  2.78538     62.2 2.057e+04 1.536e-07
  2.79519     61.8 2.017e+04 2.785e-07
  2.80499     61.5 1.974e+04 4.579e-07
  2.81479     61.1 1.944e+04 6.612e-07
  2.82459     60.8 1.919e+04 8.185e-07
  2.83439     60.6 1.910e+04 8.740e-07
  2.84419     59.8 1.928e+04 8.606e-07
  2.85400     58.4 1.949e+04 7.764e-07
  2.86362     57.2 1.963e+04 6.691e-07
  2.86852     57.3 1.975e+04 5.232e-07
  2.87360     55.9 1.985e+04 4.912e-07
  2.88340     54.4 1.976e+04 4.450e-07
  2.89320     53.4 1.952e+04 3.730e-07
  2.90301     52.7 1.936e+04 3.128e-07
  2.91281     52.2 1.931e+04 2.450e-07
  2.92261     51.7 1.918e+04 1.942e-07
  2.93736     51.2 1.882e+04 1.180e-07
  2.95701     50.9 1.804e+04 7.601e-08
  2.97662     50.4 1.687e+04 4.779e-08
  2.99622     49.6 1.549e+04 3.193e-08
  3.01582     49.0 1.425e+04 2.538e-08
  3.03543     48.8 1.345e+04 2.319e-08
  3.05503     48.9 1.295e+04 2.199e-08
  3.07463     49.1 1.256e+04 2.054e-08
  3.09424     49.3 1.237e+04 1.976e-08
  3.10867     49.3 1.220e+04 1.850e-08
  3.11847     49.7 1.215e+04 1.815e-08
  3.13344     49.6 1.185e+04 1.598e-08
  3.15305     49.3 1.153e+04 1.405e-08
  3.17265     49.1 1.121e+04 1.267e-08
  3.19226     49.1 1.093e+04 1.172e-08
  3.21186     49.3 1.061e+04 1.065e-08
  3.23146     49.9 1.027e+04 9.423e-09
  3.25107     50.5 9.898e+03 7.955e-09
  3.26271     51.2 9.599e+03 6.681e-09
  3.27251     50.8 9.871e+03 7.243e-09
  3.30017     51.2 9.374e+03 5.454e-09
  3.32958     51.8 8.849e+03 4.084e-09
  3.34871     52.4 8.641e+03 3.557e-09
  3.35851     51.9 8.813e+03 3.845e-09
  3.37859     52.4 8.424e+03 3.068e-09
  3.41789     53.8 8.150e+03 2.643e-09
  3.45710     55.5 8.139e+03 2.589e-09
  3.49631     57.3 8.171e+03 2.657e-09
  3.53551     59.2 8.184e+03 2.882e-09
  3.57472     61.3 8.224e+03 3.115e-09
  3.61393     63.5 8.214e+03 3.131e-09
  3.65314     65.8 8.127e+03 3.016e-09
  3.69234     68.2 7.964e+03 2.722e-09
  3.73155     70.7 7.895e+03 2.494e-09
  3.77076     73.3 7.915e+03 2.479e-09
  3.80996     75.9 8.001e+03 2.531e-09
  3.83880     78.5 8.180e+03 2.747e-09
  3.85841     77.3 8.187e+03 2.537e-09
  3.88838     79.8 8.389e+03 2.843e-09
  3.92759     82.2 8.593e+03 3.157e-09
  3.96679     84.4 8.743e+03 3.258e-09
  4.00600     86.4 8.839e+03 3.305e-09
  4.04521     88.2 8.948e+03 3.445e-09
  4.08441     89.2 9.368e+03 4.093e-09
  4.12362     89.8 9.917e+03 5.659e-09
  4.16283     89.9 1.055e+04 7.821e-09
  4.20204     89.7 1.091e+04 8.468e-09
  4.23134     88.8 1.080e+04 7.781e-09
  4.25085     88.8 1.066e+04 7.013e-09
  4.27045     88.7 1.049e+04 6.201e-09
  4.29006     88.6 1.020e+04 5.095e-09
  4.30966     88.5 9.873e+03 4.017e-09
  4.32850     88.5 9.587e+03 3.154e-09
  4.33831     88.2 9.567e+03 3.219e-09
  4.34887     88.2 9.363e+03 2.697e-09
  4.36847     88.3 9.271e+03 2.405e-09
  4.38807     88.6 9.305e+03 2.292e-09
  4.40768     89.2 9.307e+03 2.263e-09
  4.42728     89.8 9.283e+03 2.197e-09
  4.44688     90.6 9.268e+03 2.197e-09
  4.46649     91.3 9.272e+03 2.238e-09
  4.48609     91.9 9.342e+03 2.459e-09
  4.49689     92.7 9.543e+03 2.943e-09
  4.50669     92.2 9.383e+03 2.507e-09
  4.52530     93.1 9.465e+03 2.786e-09
  4.54490     94.2 9.600e+03 3.230e-09
  4.56451     95.3 9.750e+03 3.756e-09
  4.57835     96.3 9.862e+03 4.271e-09
  4.58815     96.3 9.929e+03 4.462e-09
  4.60371     97.2 9.998e+03 4.914e-09
  4.62332     98.1 1.003e+04 5.275e-09
  4.64292     99.0 1.005e+04 5.593e-09
  4.66252     99.9 1.012e+04 5.977e-09
  4.68213    100.8 1.024e+04 6.459e-09
  4.70173    101.6 1.037e+04 7.076e-09
  4.72134    102.5 1.053e+04 7.869e-09
  4.74094    103.3 1.072e+04 8.817e-09
  4.76054    104.1 1.092e+04 9.860e-09
  4.78015    104.9 1.113e+04 1.093e-08
  4.79975    105.6 1.132e+04 1.189e-08
  4.81840    106.3 1.146e+04 1.253e-08
  4.82820    106.1 1.139e+04 1.178e-08
  4.83896    106.8 1.146e+04 1.211e-08
  4.85856    107.4 1.150e+04 1.215e-08
  4.87816    108.0 1.152e+04 1.210e-08
  4.89777    108.7 1.154e+04 1.204e-08
  4.91737    109.2 1.155e+04 1.190e-08
  4.93697    109.7 1.154e+04 1.163e-08
  4.95658    110.1 1.145e+04 1.108e-08
  4.97618    110.5 1.128e+04 1.017e-08
  4.99579    110.8 1.102e+04 8.970e-09
  5.01539    111.2 1.070e+04 7.587e-09
  5.03499    111.5 1.033e+04 6.188e-09
  5.05460    111.7 9.938e+03 4.934e-09
  5.06825    111.9 9.571e+03 3.957e-09
  5.07805    111.3 9.549e+03 3.942e-09
  5.09380    111.4 9.241e+03 3.354e-09
  5.10908    111.6 9.162e+03 3.248e-09
  5.11888    111.0 8.446e+03 2.181e-09
  5.13301    111.2 8.438e+03 2.194e-09
  5.15261    111.5 8.482e+03 2.329e-09
  5.17222    112.0 8.785e+03 2.786e-09
  5.19182    111.9 9.185e+03 3.606e-09
  5.21142    111.6 9.688e+03 5.197e-09
  5.23103    110.3 1.099e+04 9.365e-09
  5.25063    108.4 1.321e+04 2.101e-08
  5.27024    106.7 1.523e+04 4.493e-08
  5.28984    104.7 1.619e+04 6.160e-08
  5.30830    102.4 1.615e+04 5.870e-08
  5.31810    101.1 1.615e+04 5.786e-08
  5.32905     99.2 1.540e+04 4.109e-08
  5.34865     97.0 1.400e+04 1.821e-08
  5.36825     92.4 1.194e+04 5.689e-09
  5.38786     85.9 9.721e+03 2.816e-09
  5.40746     82.3 9.295e+03 2.669e-09
  5.42706     81.0 9.300e+03 2.728e-09
  5.44667     80.1 9.471e+03 3.086e-09
  5.46627     79.1 9.830e+03 3.762e-09
  5.48587     77.8 1.026e+04 4.737e-09
  5.50548     76.2 1.072e+04 6.078e-09
  5.52508     74.7 1.113e+04 7.771e-09
  5.54469     73.6 1.142e+04 9.489e-09
  5.55815     73.2 1.163e+04 1.076e-08
  5.56795     71.3 1.208e+04 1.301e-08
  5.58389     71.0 1.233e+04 1.440e-08
  5.60350     70.3 1.281e+04 1.624e-08
  5.62310     68.2 1.412e+04 2.195e-08
  5.64270     64.3 1.682e+04 4.725e-08
  5.66231     60.8 1.909e+04 1.061e-07
  5.67696     57.5 1.997e+04 2.313e-07
  5.68297     57.2 1.961e+04 6.496e-07
  5.68787     54.8 1.963e+04 6.005e-07
  5.69652     54.4 1.866e+04 1.707e-06
  5.70632     52.6 1.849e+04 2.471e-06
  5.71612     49.4 1.882e+04 1.779e-06
  5.72592     46.4 1.966e+04 6.316e-07
  5.73097     43.7 2.033e+04 1.858e-07
  5.73587     41.9 1.977e+04 1.260e-07
  5.74552     39.5 1.930e+04 6.561e-08
  5.76028     35.0 1.795e+04 3.981e-08
  5.77993     31.8 1.447e+04 1.711e-08
  5.79819     30.1 1.258e+04 1.088e-08
  5.80799     28.2 1.246e+04 9.386e-09
  5.81914     27.6 1.238e+04 8.142e-09
  5.83874     26.5 1.233e+04 6.919e-09
  5.85834     26.1 1.218e+04 6.519e-09
  5.87795     25.0 1.230e+04 7.286e-09
  5.89755     24.7 1.234e+04 8.399e-09
  5.91715     24.0 1.311e+04 1.274e-08
  5.93676     25.2 1.287e+04 1.332e-08
  5.95636     25.5 1.318e+04 1.502e-08
  5.97596     26.1 1.362e+04 1.708e-08
  5.99557     26.3 1.416e+04 1.956e-08
  6.01517     26.4 1.445e+04 2.065e-08
  6.03478     26.0 1.447e+04 2.034e-08
  6.04804     25.5 1.428e+04 1.960e-08
  6.05784     24.7 1.361e+04 1.620e-08
  6.07398     23.7 1.360e+04 1.686e-08
  6.09359     22.5 1.376e+04 1.855e-08
  6.11319     21.3 1.406e+04 2.122e-08
  6.13279     20.5 1.423e+04 2.306e-08
  6.15240     19.7 1.427e+04 2.306e-08
  6.17200     18.2 1.441e+04 2.259e-08
  6.19160     15.6 1.469e+04 2.345e-08
  6.21121     12.3 1.507e+04 2.616e-08
  6.23081      9.6 1.526e+04 2.982e-08
  6.25041      7.4 1.551e+04 3.410e-08
  6.27002      5.1 1.598e+04 3.643e-08
  6.28809      1.3 1.632e+04 3.367e-08
  6.29789      2.3 1.678e+04 4.009e-08
  6.30923     -4.2 1.734e+04 4.074e-08
  6.32883    -14.3 1.866e+04 5.391e-08
  6.34321    -23.9 2.060e+04 7.063e-08
  6.34806    -23.7 2.166e+04 7.206e-08
  6.35324    -34.5 2.337e+04 2.331e-07
  6.36304    -42.9 2.029e+04 1.130e-06
  6.37284    -48.1 1.856e+04 2.844e-06
  6.38264    -52.2 1.828e+04 3.478e-06
  6.39244    -56.3 1.883e+04 2.619e-06
  6.40224    -63.6 2.165e+04 9.504e-07
  6.41205    -75.7 2.582e+04 2.423e-07
  6.41782    -86.9 2.376e+04 1.472e-07
  6.42272    -93.7 2.331e+04 1.779e-07
  6.43165   -100.2 2.571e+04 1.917e-07
  6.44145   -108.5 2.775e+04 4.176e-07
  6.45125   -117.3 2.580e+04 1.034e-06
  6.46106   -127.1 2.423e+04 1.481e-06
  6.47086   -137.5 2.244e+04 1.417e-06
  6.48066   -146.3 2.109e+04 8.394e-07
  6.49046   -151.5 1.980e+04 5.545e-07
  6.50026   -154.4 1.963e+04 4.270e-07
  6.51006   -156.8 1.983e+04 3.100e-07
  6.51987   -159.2 1.980e+04 2.052e-07
  6.52967   -161.3 1.931e+04 1.304e-07
  6.53784   -162.9 1.832e+04 8.255e-08
  6.54274   -163.2 1.745e+04 6.719e-08
  6.54927   -164.4 1.611e+04 4.650e-08
  6.55907   -164.8 1.496e+04 3.500e-08
  6.56888   -164.9 1.433e+04 2.958e-08
  6.58363   -165.0 1.382e+04 2.470e-08
  6.60328   -164.9 1.258e+04 1.555e-08
  6.62288   -164.4 1.115e+04 9.357e-09
  6.64249   -163.7 1.029e+04 6.514e-09
  6.66209   -162.7 9.876e+03 5.184e-09
  6.68169   -161.6 9.627e+03 4.534e-09
  6.70130   -160.4 9.524e+03 4.331e-09
  6.72090   -159.6 9.510e+03 4.304e-09
  6.74050   -159.3 9.523e+03 4.335e-09
  6.76011   -159.4 9.839e+03 5.134e-09
  6.77798   -159.7 1.065e+04 7.373e-09
  6.78779   -160.2 1.128e+04 9.586e-09
  6.79932   -160.4 1.194e+04 1.320e-08
  6.81892   -160.7 1.225e+04 1.560e-08
  6.83852   -161.2 1.229e+04 1.610e-08
  6.85813   -161.5 1.212e+04 1.572e-08
  6.87773   -161.5 1.162e+04 1.310e-08
  6.89733   -161.4 1.101e+04 1.012e-08
  6.91694   -161.4 1.046e+04 7.811e-09
  6.93654   -161.4 9.996e+03 6.098e-09
  6.95544   -161.0 9.606e+03 4.793e-09
  6.96524   -159.4 9.293e+03 3.737e-09
  6.98565   -159.1 9.091e+03 2.899e-09
  7.02495   -159.2 8.933e+03 2.488e-09
  7.06416   -158.5 8.598e+03 1.949e-09
  7.10337   -157.0 8.315e+03 1.555e-09
  7.14257   -155.2 8.204e+03 1.347e-09
  7.18178   -153.2 8.194e+03 1.267e-09
  7.22099   -151.2 8.184e+03 1.238e-09
  7.25827   -149.3 8.179e+03 1.227e-09
  7.27788   -150.2 8.243e+03 1.275e-09
  7.29940   -148.2 8.220e+03 1.227e-09
  7.33861   -146.3 8.235e+03 1.208e-09
  7.37782   -144.7 8.399e+03 1.204e-09
  7.41702   -143.5 8.586e+03 1.354e-09
  7.45623   -142.4 8.819e+03 1.637e-09
  7.49544   -141.4 8.988e+03 2.009e-09
  7.53464   -140.3 9.145e+03 2.330e-09
  7.57385   -139.0 9.277e+03 2.516e-09
  7.61306   -137.6 9.368e+03 2.571e-09
  7.65227   -135.9 9.412e+03 2.586e-09
  7.69147   -134.1 9.454e+03 2.608e-09
  7.73068   -132.1 9.490e+03 2.646e-09
  7.75797   -130.0 9.516e+03 2.694e-09
  7.77758   -130.0 9.418e+03 2.024e-09
  7.80909   -127.8 9.392e+03 2.039e-09
  7.84830   -125.5 9.362e+03 2.053e-09
  7.88751   -123.2 9.333e+03 2.077e-09
  7.92672   -121.0 9.318e+03 2.178e-09
  7.96592   -118.7 9.390e+03 2.439e-09
  8.00513   -116.5 9.514e+03 2.850e-09
  8.04434   -114.4 9.621e+03 3.323e-09
  8.08355   -112.2 9.632e+03 3.682e-09
  8.12275   -110.0 9.618e+03 3.782e-09
  8.16196   -107.6 9.352e+03 3.701e-09
  8.18982   -104.9 8.965e+03 2.906e-09
  8.20942   -104.2 8.981e+03 2.789e-09
  8.23807   -101.4 8.676e+03 2.069e-09
  8.25767   -100.5 8.938e+03 2.576e-09
  8.27958    -97.6 8.671e+03 1.996e-09
  8.31879    -94.7 8.467e+03 1.502e-09
  8.35800    -91.8 8.343e+03 1.180e-09
  8.39720    -88.8 8.277e+03 1.025e-09
  8.43641    -85.8 8.232e+03 9.873e-10
  8.47562    -82.8 8.199e+03 9.908e-10
  8.51482    -79.8 8.220e+03 1.056e-09
  8.55403    -76.8 8.266e+03 1.123e-09
  8.59324    -74.0 8.329e+03 1.180e-09
  8.63245    -71.2 8.412e+03 1.245e-09
  8.67165    -68.6 8.536e+03 1.384e-09
  8.71086    -66.2 8.716e+03 1.654e-09
  8.73776    -63.8 8.923e+03 2.024e-09
  8.75737    -63.0 8.889e+03 1.729e-09
  8.78927    -60.8 9.105e+03 2.241e-09
  8.82848    -58.7 9.285e+03 2.529e-09
  8.86769    -56.7 9.359e+03 2.583e-09
  8.90690    -54.8 9.429e+03 2.054e-09
  8.94610    -53.1 9.491e+03 1.418e-09
  8.98531    -51.7 9.480e+03 1.019e-09
  9.02452    -50.2 9.379e+03 9.289e-10
  9.06372    -48.5 9.379e+03 9.869e-10
  9.10293    -46.5 9.361e+03 1.078e-09
  9.14214    -44.5 9.447e+03 1.141e-09
  9.18135    -42.5 9.534e+03 1.162e-09
  9.21786    -40.3 9.578e+03 1.130e-09
  9.23746    -39.4 9.706e+03 9.822e-10
  9.25976    -37.1 9.738e+03 9.577e-10
  9.29897    -34.7 9.869e+03 8.357e-10
  9.33817    -32.4 9.987e+03 7.146e-10
  9.37738    -30.0 1.005e+04 6.585e-10
  9.41419    -27.8 1.008e+04 6.546e-10
  9.43380    -28.1 1.009e+04 8.675e-10
  9.45580    -26.6 1.028e+04 1.005e-09
  9.49500    -25.6 1.031e+04 2.053e-09
  9.53421    -23.5 1.058e+04 4.264e-09
  9.57342    -21.3 1.085e+04 5.939e-09
  9.61262    -19.8 1.080e+04 5.962e-09
  9.65183    -17.7 1.038e+04 3.711e-09
  9.69104    -16.1 1.013e+04 1.986e-09
  9.71756    -14.7 9.986e+03 1.528e-09
  9.73716    -13.7 1.007e+04 2.131e-09
  9.76945    -11.9 9.971e+03 1.879e-09
  9.80866     -9.7 9.938e+03 1.781e-09
  9.84787     -7.3 9.986e+03 1.600e-09
  9.88707     -5.2 1.005e+04 1.301e-09
  9.92628     -3.6 1.001e+04 1.166e-09
  9.96549     -1.9 1.004e+04 1.279e-09
 10.00470     -0.3 1.017e+04 1.684e-09
 10.04390      0.8 1.051e+04 2.449e-09
 10.08311      1.4 1.100e+04 3.953e-09
 10.12232      2.1 1.158e+04 6.206e-09
 10.15163      2.6 1.138e+04 7.299e-09
 10.17113      3.0 1.198e+04 7.063e-09
 10.19074      2.5 1.228e+04 1.020e-08
 10.20726      1.8 1.326e+04 1.266e-08
 10.21706      3.2 1.278e+04 1.209e-08
 10.22994      2.8 1.326e+04 1.884e-08
 10.24955      1.5 1.479e+04 2.696e-08
 10.26915      0.4 1.518e+04 5.077e-08
 10.28875      0.3 1.567e+04 7.455e-08
 10.30836      0.6 1.579e+04 8.906e-08
 10.32796      1.2 1.526e+04 7.243e-08
 10.34756      2.1 1.432e+04 3.970e-08
 10.36717      2.3 1.332e+04 1.654e-08
 10.38677      1.1 1.247e+04 7.533e-09
 10.40637      0.5 1.158e+04 4.702e-09
 10.42598      0.6 1.122e+04 3.741e-09
 10.44558      1.0 1.100e+04 3.341e-09
 10.45711      2.0 1.091e+04 3.432e-09
 10.46691      2.4 1.145e+04 4.440e-09
 10.48479      3.1 1.138e+04 4.334e-09
 10.50439      4.1 1.121e+04 4.790e-09
 10.52400      4.9 1.136e+04 4.968e-09
 10.54360      5.4 1.133e+04 5.824e-09
 10.56320      5.9 1.144e+04 6.852e-09
 10.58281      6.4 1.163e+04 9.477e-09
 10.60241      6.6 1.201e+04 1.155e-08
 10.62201      7.3 1.210e+04 1.778e-08
 10.64162      6.8 1.333e+04 1.938e-08
 10.65798      6.7 1.313e+04 3.025e-08
 10.66778      6.7 1.317e+04 2.579e-08
 10.68082      7.7 1.277e+04 3.022e-08
 10.69715      8.9 1.281e+04 2.419e-08
 10.70695      9.5 1.349e+04 3.601e-08
 10.72003      9.1 1.350e+04 2.536e-08
 10.73964      8.0 1.242e+04 1.897e-08
 10.75924      7.9 1.161e+04 1.430e-08
 10.77884      8.3 1.119e+04 1.009e-08
 10.79845      8.9 1.054e+04 7.232e-09
 10.81805      9.2 1.019e+04 4.420e-09
 10.83765      9.4 9.540e+03 3.466e-09
 10.85726      9.9 9.413e+03 2.427e-09
 10.87686     10.2 9.239e+03 2.232e-09
 10.90636     12.2 9.093e+03 1.829e-09
 10.94567     14.0 8.628e+03 1.143e-09
 10.98488     15.7 8.489e+03 9.019e-10
 11.02408     17.8 8.438e+03 8.540e-10
 11.06329     19.9 8.444e+03 9.346e-10
 11.10250     22.0 8.473e+03 1.173e-09
 11.14170     24.3 8.504e+03 1.453e-09
 11.17744     26.8 8.587e+03 1.715e-09
 11.19705     27.3 8.712e+03 1.999e-09
 11.22012     29.7 8.795e+03 2.146e-09
 11.25933     32.0 8.910e+03 2.349e-09
 11.29853     34.3 9.062e+03 2.667e-09
 11.33774     36.1 9.171e+03 2.975e-09
 11.36705     37.7 9.144e+03 3.168e-09
 11.38655     39.1 9.255e+03 3.446e-09
 11.40616     40.4 9.444e+03 3.878e-09
 11.42576     41.4 9.575e+03 4.191e-09
 11.43690     42.5 9.661e+03 4.425e-09
 11.44670     42.1 9.997e+03 5.715e-09
 11.46497     42.9 1.025e+04 6.746e-09
 11.48457     43.6 1.060e+04 8.150e-09
 11.50418     44.2 1.106e+04 1.034e-08
 11.52378     44.6 1.168e+04 1.382e-08
 11.54338     45.0 1.221e+04 1.885e-08
 11.56299     45.7 1.258e+04 2.473e-08
 11.58259     46.4 1.301e+04 3.126e-08
 11.60219     47.2 1.335e+04 3.581e-08
 11.62180     47.8 1.354e+04 3.765e-08
 11.64140     48.1 1.355e+04 3.697e-08
 11.66100     48.4 1.340e+04 3.333e-08
 11.67694     48.7 1.313e+04 2.901e-08
 11.68675     47.5 1.282e+04 2.363e-08
 11.70021     47.6 1.240e+04 1.914e-08
 11.71981     48.0 1.195e+04 1.515e-08
 11.73942     48.5 1.152e+04 1.172e-08
 11.75902     48.9 1.113e+04 8.897e-09
 11.77863     49.3 1.074e+04 6.760e-09
 11.79823     49.6 1.036e+04 5.603e-09
 11.81783     49.8 1.009e+04 5.302e-09
 11.83744     50.2 1.004e+04 5.327e-09
 11.85704     50.7 1.008e+04 5.556e-09
 11.87664     51.3 1.018e+04 6.215e-09
 11.89216     51.9 1.041e+04 7.230e-09
 11.90196     52.0 1.051e+04 7.738e-09
 11.91585     52.3 1.092e+04 9.830e-09
 11.92679     52.2 1.136e+04 1.267e-08
 11.93659     50.7 1.155e+04 1.408e-08
 11.95506     50.6 1.193e+04 1.722e-08
 11.97466     50.4 1.211e+04 1.819e-08
 11.99426     50.2 1.198e+04 1.711e-08
 12.01387     50.2 1.156e+04 1.331e-08
 12.03347     49.9 1.099e+04 8.583e-09
 12.05308     49.2 1.041e+04 4.942e-09
 12.07268     47.6 9.993e+03 2.808e-09
 12.09228     46.0 9.690e+03 1.969e-09
 12.11189     45.1 9.400e+03 1.650e-09
 12.13149     44.8 9.186e+03 1.473e-09
 12.15109     44.6 9.016e+03 1.338e-09
 12.16684     44.6 9.005e+03 1.330e-09
 12.17674     44.8 8.959e+03 1.347e-09
 12.20030     45.3 8.865e+03 1.348e-09
 12.23950     46.2 8.845e+03 1.427e-09
 12.27871     47.4 8.836e+03 1.500e-09
 12.31792     48.6 8.821e+03 1.477e-09
 12.35713     49.7 8.803e+03 1.401e-09
 12.39633     50.7 8.825e+03 1.395e-09
 12.43554     51.6 8.902e+03 1.477e-09
 12.47475     52.7 9.128e+03 1.881e-09
 12.51396     53.3 9.329e+03 2.438e-09
 12.54326     54.0 9.574e+03 3.318e-09
 12.56277     54.9 9.894e+03 4.347e-09
 12.58237     55.5 1.031e+04 5.788e-09
 12.60198     56.0 1.067e+04 7.335e-09
 12.62158     56.4 1.103e+04 8.945e-09
 12.64118     56.7 1.142e+04 1.065e-08
 12.65674     56.6 1.180e+04 1.245e-08
 12.66654     56.4 1.180e+04 1.272e-08
 12.68039     56.2 1.201e+04 1.377e-08
 12.69999     56.3 1.205e+04 1.390e-08
 12.71960     56.4 1.194e+04 1.310e-08
 12.73920     56.7 1.180e+04 1.211e-08
 12.75880     57.1 1.153e+04 1.061e-08
 12.77841     57.4 1.129e+04 9.055e-09
 12.79801     57.7 1.113e+04 7.570e-09
 12.81762     57.6 1.120e+04 6.640e-09
 12.83722     57.4 1.136e+04 6.705e-09
 12.85682     56.6 1.191e+04 7.744e-09
 12.87643     55.5 1.263e+04 1.161e-08
 12.89603     55.3 1.320e+04 1.863e-08
 12.90659     55.6 1.347e+04 2.478e-08
 12.91639     56.3 1.263e+04 1.572e-08
 12.93524     56.4 1.273e+04 1.662e-08
 12.95484     56.6 1.258e+04 1.562e-08
 12.97444     56.9 1.221e+04 1.261e-08
 12.99405     57.1 1.179e+04 9.311e-09
 13.01365     57.4 1.134e+04 6.708e-09
 13.03325     57.8 1.086e+04 4.831e-09
 13.05286     58.6 1.041e+04 3.481e-09
 13.07246     59.4 1.015e+04 2.555e-09
 13.09207     60.1 1.003e+04 2.024e-09
 13.11167     60.4 9.923e+03 1.839e-09
 13.12643     61.4 9.843e+03 1.890e-09
 13.13623     61.7 9.893e+03 1.967e-09
 13.14663     62.0 9.831e+03 1.970e-09
 13.15653     63.0 9.632e+03 1.947e-09
 13.18048     64.9 9.585e+03 2.100e-09
 13.20978     65.7 9.581e+03 2.447e-09
 13.22929     66.1 9.609e+03 2.654e-09
 13.24889     66.9 9.690e+03 3.410e-09
 13.26850     68.1 9.868e+03 4.562e-09
 13.28810     69.3 1.009e+04 5.757e-09
 13.30770     70.3 1.030e+04 6.593e-09
 13.32731     71.2 1.039e+04 6.691e-09
 13.34691     71.9 1.038e+04 6.590e-09
 13.36652     72.7 1.028e+04 6.264e-09
 13.38612     73.4 1.013e+04 5.711e-09
 13.39648     74.3 9.985e+03 5.108e-09
 13.40628     74.8 9.931e+03 5.220e-09
 13.42533     75.7 9.815e+03 4.753e-09
 13.44493     76.6 9.737e+03 4.354e-09
 13.46453     77.4 9.680e+03 4.105e-09
 13.48414     78.3 9.736e+03 4.000e-09
 13.50374     79.2 9.768e+03 4.062e-09
 13.52334     80.1 9.820e+03 4.265e-09
 13.54295     81.1 9.879e+03 4.628e-09
 13.56255     82.1 9.973e+03 5.164e-09
 13.58216     83.2 1.013e+04 5.724e-09
 13.60176     84.2 1.031e+04 6.322e-09
 13.62136     85.1 1.054e+04 7.076e-09
 13.63653     85.9 1.081e+04 8.045e-09
 13.64633     86.6 1.055e+04 7.179e-09
 13.66057     87.3 1.089e+04 8.666e-09
 13.68017     88.1 1.119e+04 1.024e-08
 13.69978     88.9 1.150e+04 1.222e-08
 13.71938     89.8 1.173e+04 1.244e-08
 13.73852     90.5 1.175e+04 1.161e-08
 13.74832     89.6 1.140e+04 8.766e-09
 13.75859     89.6 1.118e+04 7.494e-09
 13.77819     89.2 1.090e+04 7.035e-09
 13.79779     88.5 1.080e+04 7.121e-09
 13.81740     88.0 1.077e+04 7.499e-09
 13.83700     87.7 1.081e+04 8.283e-09
 13.85661     87.6 1.094e+04 9.514e-09
 13.87621     87.8 1.118e+04 1.107e-08
 13.88638     87.8 1.150e+04 1.313e-08
 13.89618     87.3 1.169e+04 1.364e-08
 13.91542     86.8 1.217e+04 1.715e-08
 13.93502     85.6 1.355e+04 2.651e-08
 13.94967     84.8 1.463e+04 3.608e-08
 13.95943     84.5 1.521e+04 4.463e-08
 13.96923     83.6 1.610e+04 5.792e-08
 13.97903     80.8 1.800e+04 9.531e-08
 13.98883     76.1 1.973e+04 3.154e-07
 13.99863     71.3 1.843e+04 1.760e-06
 14.00630     64.9 1.773e+04 4.799e-06
 14.01120     62.7 1.740e+04 5.992e-06
 14.01824     53.6 1.782e+04 5.239e-06
 14.02804     42.7 1.997e+04 2.019e-06
 14.03784     30.3 2.257e+04 4.575e-07
 14.04764     22.5 2.006e+04 2.094e-07
 14.05432     19.8 1.890e+04 1.556e-07
 14.05922     22.1 1.890e+04 1.502e-07
 14.07220     18.9 1.856e+04 1.111e-07
 14.09185     14.6 1.715e+04 6.081e-08
 14.11145     10.4 1.457e+04 3.690e-08
 14.12642      7.4 1.273e+04 2.544e-08
 14.13623      5.4 1.240e+04 2.167e-08
 14.15066      3.3 1.238e+04 1.899e-08
 14.17026      0.9 1.210e+04 1.796e-08
 14.18987     -0.7 1.166e+04 1.817e-08
 14.20947     -1.0 1.157e+04 1.849e-08
 14.22907     -0.9 1.162e+04 1.862e-08
 14.24868     -0.9 1.157e+04 1.673e-08
 14.26828     -3.0 1.142e+04 1.433e-08
 14.28788     -5.7 1.062e+04 1.270e-08
 14.30749     -8.7 1.085e+04 1.301e-08
 14.32709    -13.9 1.321e+04 2.036e-08
 14.34669    -21.8 1.616e+04 3.749e-08
 14.36051    -29.5 1.815e+04 6.806e-08
 14.37031    -26.6 1.693e+04 6.859e-08
 14.37627    -32.4 1.738e+04 9.335e-08
 14.38607    -32.5 1.641e+04 6.394e-08
 14.40551    -36.0 1.638e+04 7.614e-08
 14.42511    -38.8 1.573e+04 6.382e-08
 14.44471    -42.4 1.514e+04 4.635e-08
 14.46432    -46.9 1.459e+04 3.765e-08
 14.48392    -50.6 1.409e+04 3.497e-08
 14.50352    -52.8 1.404e+04 3.580e-08
 14.52313    -54.2 1.381e+04 3.440e-08
 14.54273    -55.4 1.313e+04 2.727e-08
 14.56233    -56.2 1.234e+04 2.023e-08
 14.58194    -56.5 1.163e+04 1.521e-08
 14.60154    -56.5 1.112e+04 1.187e-08
 14.61632    -56.2 1.071e+04 9.460e-09
 14.62612    -55.6 1.096e+04 1.065e-08
 14.64075    -55.1 1.059e+04 8.781e-09
 14.66035    -54.4 1.028e+04 7.243e-09
 14.67996    -53.7 9.997e+03 5.935e-09
 14.69956    -53.0 9.701e+03 4.852e-09
 14.71916    -52.0 9.411e+03 3.996e-09
 14.73877    -50.8 9.143e+03 3.333e-09
 14.75837    -49.3 8.939e+03 2.849e-09
 14.77797    -47.8 8.898e+03 2.606e-09
 14.79758    -46.4 8.930e+03 2.562e-09
 14.82708    -44.7 9.000e+03 2.701e-09
 14.86639    -41.9 8.933e+03 2.766e-09
 14.90559    -39.0 8.895e+03 2.931e-09
 14.94480    -36.4 8.879e+03 3.201e-09
 14.98401    -33.8 8.899e+03 3.617e-09
 15.02321    -31.0 9.091e+03 4.197e-09
 15.06242    -28.6 9.369e+03 4.947e-09
 15.09661    -26.6 9.510e+03 5.282e-09
 15.11621    -25.6 9.488e+03 4.895e-09
 15.14084    -24.0 9.500e+03 4.723e-09
 15.18004    -22.5 9.345e+03 3.943e-09
 15.21925    -21.1 9.206e+03 2.962e-09
 15.25846    -19.9 9.100e+03 2.582e-09
 15.29766    -18.9 9.120e+03 2.660e-09
 15.33687    -18.1 9.492e+03 3.698e-09
 15.37608    -16.9 9.832e+03 5.273e-09
 15.41529    -15.9 1.001e+04 5.988e-09
 15.45449    -15.3 9.901e+03 5.602e-09
 15.49370    -15.1 9.550e+03 4.323e-09
 15.53291    -15.1 9.415e+03 3.999e-09
 15.57211    -14.6 9.418e+03 4.070e-09
 15.59489    -14.0 9.489e+03 4.143e-09
 15.59948    -12.9 9.091e+03 3.050e-09
 15.61591    -13.9 9.230e+03 3.774e-09
 15.65053    -13.4 9.343e+03 3.921e-09
 15.68974    -13.0 9.343e+03 3.629e-09
 15.72894    -12.5 9.250e+03 3.169e-09
 15.76815    -12.2 9.182e+03 2.783e-09
 15.80736    -11.9 9.099e+03 2.622e-09
 15.84656    -11.1 9.066e+03 2.475e-09
 15.88577    -10.2 9.051e+03 2.040e-09
 15.92498     -9.4 8.986e+03 1.611e-09
 15.96419     -8.5 8.925e+03 1.455e-09
 16.00339     -7.1 8.932e+03 1.456e-09
 16.04260     -5.1 8.990e+03 1.422e-09
 16.07640     -3.4 9.049e+03 1.306e-09
 16.09601     -4.0 9.181e+03 1.578e-09
 16.12101     -2.8 9.308e+03 1.645e-09
 16.16022     -1.6 9.357e+03 2.177e-09
 16.19943      0.7 9.453e+03 2.829e-09
 16.23864      3.0 9.460e+03 3.011e-09
 16.27784      5.0 9.406e+03 2.558e-09
 16.31705      6.1 9.744e+03 2.832e-09
 16.34636      3.8 1.033e+04 4.516e-09
 16.36586      3.1 1.135e+04 7.207e-09
 16.38547      2.9 1.260e+04 1.236e-08
 16.40507     -3.3 1.891e+04 3.443e-08
 16.42467     -8.3 1.900e+04 1.169e-07
 16.44428    -11.1 1.864e+04 1.907e-07
 16.45583    -14.9 1.817e+04 1.535e-07
 16.46068    -15.5 1.778e+04 1.344e-07
 16.46869    -15.7 1.885e+04 1.019e-07
 16.47849    -22.8 1.684e+04 4.068e-08
 16.48829    -26.5 1.467e+04 2.763e-08
 16.49809    -27.5 1.422e+04 2.388e-08
 16.50789    -27.6 1.417e+04 2.355e-08
 16.52264    -28.6 1.371e+04 2.054e-08
 16.54230    -30.6 1.209e+04 1.376e-08
 16.56190    -31.3 1.139e+04 1.065e-08
 16.57590    -31.7 1.149e+04 9.547e-09
 16.58571    -33.6 1.192e+04 9.431e-09
 16.60111    -35.5 1.234e+04 1.045e-08
 16.62071    -37.4 1.308e+04 1.611e-08
 16.64031    -38.3 1.385e+04 2.809e-08
 16.65992    -38.6 1.462e+04 4.179e-08
 16.67952    -39.1 1.508e+04 4.913e-08
 16.69912    -40.0 1.510e+04 4.979e-08
 16.71873    -40.8 1.431e+04 3.698e-08
 16.73833    -41.6 1.313e+04 2.214e-08
 16.75794    -42.5 1.202e+04 1.315e-08
 16.77754    -43.4 1.116e+04 8.418e-09
 16.79714    -43.8 1.056e+04 5.969e-09
 16.81595    -43.9 1.026e+04 4.691e-09
 16.82575    -45.3 9.955e+03 3.567e-09
 16.82887    -45.3 9.875e+03 3.203e-09
 16.83867    -43.7 9.808e+03 3.091e-09
 16.85595    -43.7 9.756e+03 2.881e-09
 16.87556    -43.8 9.764e+03 2.867e-09
 16.89516    -44.2 9.910e+03 3.101e-09
 16.91476    -49.2 1.217e+04 5.307e-09
 16.93437    -56.9 1.522e+04 2.314e-08
 16.95397    -61.3 1.660e+04 7.352e-08
 16.97358    -64.5 1.732e+04 1.188e-07
 16.99318    -68.6 1.728e+04 1.194e-07
 17.01278    -73.3 1.585e+04 5.622e-08
 17.03239    -79.2 1.304e+04 1.821e-08
 17.05199    -83.3 1.142e+04 1.032e-08
 17.06580    -84.5 1.083e+04 8.371e-09
 17.07560    -83.9 1.081e+04 8.588e-09
 17.09120    -84.1 1.063e+04 7.802e-09
 17.11080    -84.1 1.049e+04 7.132e-09
 17.13040    -84.0 1.033e+04 6.438e-09
 17.15001    -83.8 1.023e+04 6.021e-09
 17.16961    -83.5 1.021e+04 5.925e-09
 17.18921    -83.2 1.025e+04 5.938e-09
 17.20882    -83.1 1.042e+04 6.442e-09
 17.22842    -83.0 1.060e+04 7.367e-09
 17.24803    -82.9 1.082e+04 8.524e-09
 17.26763    -82.8 1.107e+04 9.868e-09
 17.28723    -82.7 1.128e+04 1.119e-08
 17.30585    -82.6 1.142e+04 1.210e-08
 17.31565    -82.6 1.130e+04 1.162e-08
 17.33634    -82.3 1.152e+04 1.264e-08
 17.36574    -82.8 1.105e+04 1.048e-08
 17.38525    -82.8 1.092e+04 9.803e-09
 17.40485    -82.8 1.079e+04 8.966e-09
 17.42446    -82.8 1.068e+04 8.152e-09
 17.44106    -82.8 1.058e+04 7.408e-09
 17.45086    -82.5 1.078e+04 8.429e-09
 17.46366    -82.7 1.071e+04 7.819e-09
 17.48327    -82.9 1.063e+04 7.346e-09
 17.50287    -83.0 1.056e+04 6.994e-09
 17.52248    -83.1 1.048e+04 6.724e-09
 17.54208    -83.1 1.041e+04 6.468e-09
 17.55570    -83.0 1.034e+04 6.131e-09
 17.56550    -83.0 9.987e+03 4.885e-09
 17.58129    -82.9 9.928e+03 4.657e-09
 17.60089    -82.7 9.864e+03 4.295e-09
 17.62049    -82.5 9.810e+03 3.862e-09
 17.64010    -82.3 9.784e+03 3.466e-09
 17.65970    -82.2 9.803e+03 3.279e-09
 17.67930    -82.1 9.814e+03 3.240e-09
 17.69891    -82.1 9.877e+03 3.230e-09
 17.71851    -82.4 1.012e+04 3.399e-09
 17.73811    -82.8 1.030e+04 3.906e-09
 17.75772    -83.0 1.046e+04 4.671e-09
 17.77732    -83.2 1.065e+04 5.486e-09
 17.79574    -83.5 1.081e+04 6.114e-09
 17.80555    -83.6 1.080e+04 6.210e-09
 17.81653    -84.0 1.090e+04 6.484e-09
 17.83613    -84.5 1.096e+04 6.601e-09
 17.85574    -85.0 1.103e+04 6.747e-09
 17.87534    -85.4 1.113e+04 7.081e-09
 17.89494    -85.8 1.123e+04 7.648e-09
 17.91455    -86.0 1.133e+04 8.397e-09
 17.93415    -86.1 1.146e+04 9.227e-09
 17.95375    -86.0 1.164e+04 9.916e-09
 17.97336    -85.9 1.185e+04 1.020e-08
 17.99296    -85.8 1.202e+04 9.847e-09
 18.01257    -85.8 1.205e+04 9.420e-09
 18.03217    -85.9 1.204e+04 8.807e-09
 18.04559    -86.0 1.198e+04 8.055e-09
 18.05539    -86.3 1.181e+04 6.976e-09
 18.06305    -86.2 1.176e+04 6.617e-09
 18.07285    -87.0 1.176e+04 6.564e-09
 18.09098    -86.8 1.171e+04 6.259e-09
 18.11058    -86.7 1.168e+04 5.930e-09
 18.13019    -86.5 1.164e+04 5.539e-09
 18.14979    -86.3 1.161e+04 5.104e-09
 18.16939    -86.2 1.157e+04 4.600e-09
 18.19890    -86.6 1.146e+04 4.024e-09
 18.23820    -85.8 1.140e+04 3.748e-09
 18.27741    -85.3 1.140e+04 3.651e-09
 18.31662    -84.9 1.151e+04 3.726e-09
 18.35582    -84.6 1.168e+04 3.837e-09
 18.38513    -84.8 1.187e+04 4.160e-09
 18.40464    -84.6 1.191e+04 4.144e-09
 18.42424    -84.3 1.216e+04 4.686e-09
 18.44384    -84.1 1.231e+04 5.778e-09
 18.46345    -84.0 1.247e+04 7.052e-09
 18.48305    -83.9 1.263e+04 8.384e-09
 18.50265    -83.9 1.273e+04 9.478e-09
 18.52226    -84.0 1.273e+04 1.006e-08
 18.53549    -84.1 1.270e+04 1.023e-08
 18.54529    -84.4 1.243e+04 8.528e-09
 18.56147    -84.3 1.238e+04 8.540e-09
 18.58107    -84.1 1.229e+04 8.442e-09
 18.60067    -83.7 1.225e+04 8.021e-09
 18.62028    -83.3 1.221e+04 7.384e-09
 18.63988    -82.9 1.217e+04 6.624e-09
 18.65948    -82.4 1.212e+04 5.864e-09
 18.67524    -81.9 1.208e+04 5.210e-09
 18.68504    -81.7 1.207e+04 5.145e-09
 18.69869    -81.2 1.201e+04 4.693e-09
 18.71829    -80.6 1.196e+04 4.376e-09
 18.73790    -80.0 1.191e+04 4.120e-09
 18.75750    -79.4 1.189e+04 3.840e-09
 18.77554    -78.8 1.188e+04 3.456e-09
 18.78534    -79.1 1.178e+04 2.924e-09
 18.79671    -78.8 1.176e+04 2.729e-09
 18.82621    -78.5 1.179e+04 2.497e-09
 18.86552    -77.8 1.163e+04 1.968e-09
 18.90472    -76.8 1.149e+04 1.548e-09
 18.94393    -75.7 1.143e+04 1.423e-09
 18.98314    -74.6 1.147e+04 1.428e-09
 19.01578    -73.6 1.170e+04 1.712e-09
 19.03538    -73.5 1.157e+04 1.469e-09
 19.06155    -72.4 1.170e+04 1.886e-09
 19.10076    -71.0 1.188e+04 2.272e-09
 19.13997    -69.7 1.199e+04 2.404e-09
 19.17917    -68.5 1.200e+04 2.389e-09
 19.21838    -67.1 1.195e+04 2.098e-09
 19.25759    -65.5 1.187e+04 1.808e-09
 19.28762    -63.9 1.184e+04 1.711e-09
 19.30722    -63.4 1.186e+04 1.886e-09
 19.33600    -61.8 1.190e+04 1.912e-09
 19.37521    -60.6 1.213e+04 2.289e-09
 19.40452    -59.7 1.231e+04 2.675e-09
 19.42402    -59.7 1.230e+04 2.786e-09
 19.44363    -59.6 1.228e+04 3.318e-09
 19.46323    -59.2 1.236e+04 4.017e-09
 19.48283    -58.8 1.249e+04 4.767e-09
 19.50244    -58.6 1.262e+04 5.457e-09
 19.51528    -58.5 1.272e+04 6.042e-09
 19.52508    -58.6 1.281e+04 6.808e-09
 19.54164    -58.4 1.288e+04 7.059e-09
 19.56125    -58.2 1.288e+04 7.003e-09
 19.58085    -57.7 1.283e+04 6.113e-09
 19.60046    -57.1 1.277e+04 4.898e-09
 19.62006    -56.5 1.275e+04 3.693e-09
 19.64956    -56.0 1.280e+04 2.505e-09
 19.68887    -55.0 1.274e+04 1.980e-09
 19.72807    -53.3 1.259e+04 1.714e-09
 19.76728    -51.4 1.261e+04 1.686e-09
 19.80649    -50.0 1.300e+04 2.134e-09
 19.83580    -49.6 1.311e+04 2.596e-09
 19.85530    -49.6 1.305e+04 3.557e-09
 19.88480    -49.1 1.321e+04 5.397e-09
 19.92411    -49.0 1.354e+04 7.706e-09
 19.96332    -49.4 1.364e+04 8.219e-09
 19.99557    -49.5 1.353e+04 6.110e-09
 20.01517    -49.1 1.366e+04 6.722e-09
 20.04173    -49.0 1.367e+04 4.172e-09
 20.08094    -48.5 1.355e+04 2.477e-09
 20.12015    -47.5 1.349e+04 1.577e-09
 20.15935    -45.8 1.341e+04 1.115e-09
 20.19856    -44.1 1.338e+04 9.100e-10
 20.23777    -42.3 1.330e+04 8.240e-10
 20.27697    -40.3 1.311e+04 7.967e-10
 20.31618    -38.3 1.304e+04 7.765e-10
 20.35539    -36.2 1.308e+04 7.461e-10
 20.39460    -34.0 1.315e+04 7.056e-10
 20.43380    -31.7 1.319e+04 6.803e-10
 20.47301    -29.5 1.321e+04 6.961e-10
 20.49527    -27.4 1.325e+04 8.134e-10
 20.51465    -27.3 1.346e+04 7.029e-10
 20.53160    -26.2 1.341e+04 7.134e-10
 20.55142    -24.1 1.336e+04 9.766e-10
 20.59063    -22.0 1.332e+04 1.439e-09
 20.62984    -20.0 1.333e+04 2.082e-09
 20.66905    -18.2 1.344e+04 2.792e-09
 20.70825    -16.6 1.347e+04 3.224e-09
 20.74746    -15.4 1.344e+04 3.299e-09
 20.78667    -14.2 1.347e+04 3.113e-09
 20.81598    -13.6 1.358e+04 3.073e-09
 20.83548    -13.2 1.352e+04 3.053e-09
 20.85508    -12.6 1.345e+04 3.219e-09
 20.87469    -12.1 1.339e+04 3.292e-09
 20.89429    -11.4 1.329e+04 3.423e-09
 20.91390    -10.8 1.316e+04 3.453e-09
 20.93350     -9.9 1.306e+04 3.420e-09
 20.95310     -9.0 1.297e+04 3.223e-09
 20.97526     -7.8 1.298e+04 2.796e-09
 20.99487     -7.5 1.299e+04 3.302e-09
 21.01191     -6.6 1.308e+04 3.317e-09
 21.03152     -5.9 1.296e+04 3.214e-09
 21.06102     -4.2 1.300e+04 3.393e-09
 21.10032     -2.4 1.279e+04 3.239e-09
 21.13953     -0.2 1.272e+04 3.410e-09
 21.17874      2.1 1.271e+04 3.892e-09
 21.20805      4.2 1.289e+04 3.783e-09
 21.22502      4.3 1.294e+04 3.776e-09
 21.23482      4.2 1.320e+04 4.362e-09
 21.24716      4.1 1.319e+04 6.420e-09
 21.26676      3.7 1.373e+04 8.345e-09
 21.28636      3.2 1.375e+04 1.517e-08
 21.30597      2.7 1.429e+04 2.416e-08
 21.32557      1.6 1.488e+04 3.239e-08
 21.34517      0.3 1.512e+04 3.804e-08
 21.36478     -0.8 1.513e+04 2.724e-08
 21.38438     -2.4 1.516e+04 1.267e-08
 21.40399     -5.1 1.416e+04 7.143e-09
 21.42359     -6.0 1.366e+04 5.173e-09
 21.44319     -5.7 1.356e+04 4.107e-09
 21.46280     -5.2 1.365e+04 3.238e-09
 21.47486     -5.3 1.371e+04 2.434e-09
 21.49457     -6.1 1.360e+04 2.538e-09
 21.53160     -5.7 1.334e+04 2.073e-09
 21.57081     -4.5 1.322e+04 1.890e-09
 21.61002     -3.0 1.300e+04 1.604e-09
 21.64923     -1.2 1.286e+04 1.163e-09
 21.68843      0.4 1.289e+04 7.820e-10
 21.72764      2.0 1.284e+04 6.477e-10
 21.75598      4.0 1.279e+04 6.287e-10
 21.77558      4.7 1.279e+04 5.910e-10
 21.80605      6.6 1.274e+04 6.349e-10
 21.84526      8.5 1.271e+04 7.651e-10
 21.88447     10.4 1.268e+04 9.300e-10
 21.92368     12.4 1.259e+04 1.066e-09
 21.95515     14.3 1.261e+04 1.049e-09
 21.97476     13.4 1.297e+04 1.070e-09
 22.00209     15.0 1.316e+04 1.084e-09
 22.04130     16.1 1.330e+04 1.240e-09
 22.08050     17.0 1.335e+04 1.778e-09
 22.11971     17.8 1.336e+04 2.679e-09
 22.15892     18.3 1.340e+04 3.688e-09
 22.19813     18.5 1.351e+04 4.153e-09
 22.23733     18.4 1.352e+04 4.035e-09
 22.26664     18.4 1.358e+04 2.629e-09
 22.28615     17.9 1.354e+04 2.261e-09
 22.30575     18.2 1.341e+04 1.974e-09
 22.32535     18.1 1.339e+04 1.947e-09
 22.35486     18.8 1.319e+04 1.984e-09
 22.39416     20.1 1.296e+04 1.890e-09
 22.43337     21.8 1.271e+04 1.510e-09
 22.45485     23.0 1.276e+04 1.358e-09
 22.47446     23.0 1.281e+04 1.254e-09
 22.51178     24.1 1.280e+04 1.386e-09
 22.55099     25.3 1.276e+04 1.392e-09
 22.59020     26.9 1.273e+04 1.239e-09
 22.62940     28.4 1.279e+04 9.797e-10
 22.66861     29.7 1.281e+04 8.448e-10
 22.70782     31.2 1.281e+04 8.686e-10
 22.74703     32.4 1.281e+04 1.046e-09
 22.78623     33.5 1.270e+04 1.555e-09
 22.82544     35.0 1.263e+04 2.176e-09
 22.86465     36.2 1.272e+04 2.259e-09
 22.90385     37.4 1.273e+04 2.090e-09
 22.93495     38.7 1.281e+04 1.655e-09
 22.95455     38.5 1.280e+04 1.924e-09
 22.98035     39.6 1.285e+04 1.615e-09
 22.99996     40.2 1.280e+04 1.724e-09
 23.02148     41.3 1.280e+04 1.588e-09
 23.06068     42.3 1.282e+04 1.586e-09
 23.09989     43.3 1.270e+04 1.563e-09
 23.13910     44.3 1.259e+04 1.464e-09
 23.17830     45.5 1.253e+04 1.308e-09
 23.21751     46.7 1.250e+04 1.153e-09
 23.25672     48.0 1.248e+04 1.026e-09
 23.29593     49.3 1.242e+04 9.546e-10
 23.33513     50.8 1.235e+04 9.521e-10
 23.37434     52.3 1.232e+04 9.695e-10
 23.41355     53.8 1.223e+04 1.049e-09
 23.43464     55.1 1.213e+04 1.168e-09
 23.45425     55.2 1.205e+04 1.073e-09
 23.49196     56.6 1.198e+04 1.184e-09
 23.53117     57.9 1.194e+04 1.226e-09
 23.57038     59.0 1.192e+04 1.234e-09
 23.60958     60.0 1.190e+04 1.238e-09
 23.64879     61.0 1.186e+04 1.273e-09
 23.68800     62.0 1.183e+04 1.367e-09
 23.72721     62.9 1.182e+04 1.568e-09
 23.76641     63.7 1.183e+04 1.856e-09
 23.80562     64.6 1.183e+04 2.095e-09
 23.84483     65.4 1.185e+04 2.250e-09
 23.88403     66.3 1.177e+04 2.103e-09
 23.91474     67.3 1.170e+04 1.845e-09
 23.93434     66.9 1.165e+04 1.336e-09
 23.96245     68.0 1.163e+04 1.143e-09
 24.00166     69.2 1.163e+04 1.013e-09
 24.04086     70.4 1.164e+04 9.104e-10
 24.08007     71.6 1.169e+04 8.203e-10
 24.11928     72.8 1.175e+04 7.839e-10
 24.15848     73.9 1.176e+04 8.038e-10
 24.19769     74.8 1.181e+04 8.771e-10
 24.22433     75.6 1.183e+04 1.046e-09
 24.24394     76.0 1.179e+04 1.065e-09
 24.27611     76.7 1.184e+04 1.311e-09
 24.31531     77.3 1.188e+04 1.615e-09
 24.35452     77.8 1.196e+04 1.874e-09
 24.39373     77.9 1.207e+04 2.081e-09
 24.41444     77.8 1.225e+04 2.323e-09
 24.43404     78.8 1.211e+04 1.988e-09
 24.47214     78.8 1.234e+04 2.159e-09
 24.51135     78.4 1.243e+04 2.107e-09
 24.55056     78.1 1.256e+04 1.707e-09
 24.58976     77.9 1.273e+04 1.175e-09
 24.62897     77.9 1.280e+04 9.939e-10
 24.66818     78.1 1.280e+04 1.034e-09
 24.70738     78.3 1.286e+04 1.227e-09
 24.74659     78.5 1.291e+04 1.628e-09
 24.78580     78.6 1.291e+04 2.249e-09
 24.82501     78.5 1.300e+04 3.158e-09
 24.86421     77.5 1.300e+04 3.720e-09
 24.89352     77.3 1.297e+04 3.846e-09
 24.90414     77.0 1.293e+04 3.815e-09
 24.91404     78.7 1.298e+04 3.869e-09
 24.94263     77.8 1.291e+04 3.684e-09
 24.98183     77.3 1.268e+04 3.162e-09
 25.02104     77.2 1.247e+04 2.631e-09
 25.06025     77.3 1.232e+04 2.254e-09
 25.09946     77.7 1.220e+04 1.982e-09
 25.13866     78.4 1.211e+04 1.728e-09
 25.17787     79.1 1.203e+04 1.458e-09
 25.21708     80.1 1.194e+04 1.199e-09
 25.25628     81.3 1.190e+04 9.845e-10
 25.29549     82.5 1.188e+04 8.428e-10
 25.33470     83.8 1.186e+04 8.026e-10
 25.37391     85.3 1.187e+04 8.130e-10
 25.39423     86.8 1.190e+04 8.755e-10
 25.41383     86.6 1.201e+04 1.165e-09
 25.44871     88.0 1.206e+04 1.483e-09
 25.46831     88.2 1.208e+04 1.596e-09
 25.49153     89.4 1.232e+04 2.416e-09
 25.52084     89.8 1.240e+04 2.905e-09
 25.54034     90.1 1.245e+04 3.501e-09
 25.55994     90.5 1.253e+04 4.246e-09
 25.57955     90.7 1.266e+04 5.013e-09
 25.59915     90.9 1.281e+04 5.540e-09
 25.61876     91.0 1.283e+04 5.628e-09
 25.63408     91.0 1.281e+04 5.565e-09
 25.64388     90.8 1.288e+04 5.474e-09
 25.65796     90.9 1.281e+04 5.269e-09
 25.67757     91.1 1.266e+04 4.846e-09
 25.69717     91.4 1.251e+04 4.239e-09
 25.71677     91.5 1.242e+04 3.351e-09
 25.73638     91.5 1.242e+04 2.982e-09
 25.76588     92.0 1.236e+04 2.624e-09
 25.80518     93.0 1.211e+04 2.048e-09
 25.84439     94.0 1.188e+04 1.899e-09
 25.87432     95.0 1.187e+04 1.905e-09
 25.89393     95.3 1.204e+04 1.996e-09
 25.92281     96.1 1.206e+04 2.005e-09
 25.96201     96.8 1.205e+04 1.977e-09
 26.00122     97.4 1.203e+04 1.882e-09
 26.04043     97.7 1.192e+04 1.724e-09
 26.07964     98.0 1.181e+04 1.540e-09
 26.11884     98.3 1.167e+04 1.349e-09
 26.15805     98.7 1.152e+04 1.133e-09
 26.19726     99.4 1.143e+04 8.836e-10
 26.23646    100.3 1.134e+04 6.707e-10
 26.27567    101.2 1.113e+04 5.963e-10
 26.31488    102.3 1.109e+04 6.027e-10
 26.35409    103.3 1.100e+04 6.577e-10
 26.37402    104.2 1.086e+04 8.120e-10
 26.39362    103.9 1.080e+04 8.632e-10
 26.43250    104.8 1.063e+04 1.108e-09
 26.47171    105.4 1.046e+04 1.303e-09
 26.51091    105.9 1.029e+04 1.378e-09
 26.55012    106.0 1.021e+04 1.407e-09
 26.58933    106.0 1.013e+04 1.448e-09
 26.62854    105.9 1.002e+04 1.561e-09
 26.66774    105.6 9.942e+03 1.767e-09
 26.69269    105.2 9.881e+03 2.047e-09
 26.71229    105.1 9.872e+03 1.975e-09
 26.74616    104.7 9.806e+03 2.183e-09
 26.78536    104.3 9.657e+03 2.402e-09
 26.82457    103.7 9.598e+03 2.417e-09
 26.85411    102.9 9.531e+03 2.398e-09
 26.87372    101.7 9.262e+03 1.992e-09
 26.90299    100.7 9.150e+03 1.934e-09
 26.94219     99.8 9.049e+03 1.884e-09
 26.98140     98.8 8.952e+03 1.912e-09
 27.02061     98.1 8.884e+03 1.992e-09
 27.05981     97.4 8.750e+03 2.221e-09
 27.09902     97.0 8.658e+03 2.548e-09
 27.13823     96.6 8.638e+03 2.764e-09
 27.17744     96.3 8.599e+03 2.754e-09
 27.21664     96.0 8.463e+03 2.627e-09
 27.25585     95.9 8.282e+03 2.318e-09
 27.29506     96.0 8.095e+03 1.942e-09
 27.33421     96.3 7.980e+03 1.676e-09
 27.37342     96.6 7.829e+03 1.568e-09
 27.41268     97.4 7.927e+03 1.671e-09
 27.45189     98.1 8.172e+03 2.025e-09
 27.49109     98.7 8.490e+03 2.595e-09
 27.53030     99.0 8.806e+03 3.178e-09
 27.56951     98.8 9.060e+03 3.566e-09
 27.60871     98.6 9.264e+03 3.667e-09
 27.64792     98.0 9.302e+03 3.454e-09
 27.68713     97.3 9.251e+03 3.124e-09
 27.72634     96.7 9.187e+03 2.888e-09
 27.76554     96.2 9.111e+03 2.751e-09
 27.80475     96.1 9.089e+03 2.638e-09
 27.83391     96.2 9.073e+03 2.485e-09
 27.85351     96.5 8.856e+03 2.073e-09
 27.88316     97.0 8.878e+03 1.946e-09
 27.91707     97.7 8.922e+03 1.747e-09
 27.93667     97.6 8.920e+03 1.947e-09
 27.96158     98.5 9.027e+03 1.636e-09
 28.00079     99.7 9.062e+03 1.304e-09
 28.03999    101.1 9.118e+03 1.032e-09
 28.07920    102.6 9.080e+03 9.126e-10
 28.11841    104.5 9.056e+03 9.121e-10
 28.15761    106.3 9.058e+03 9.412e-10
 28.19682    108.1 9.065e+03 1.039e-09
 28.23603    109.9 9.188e+03 1.349e-09
 28.27524    112.0 9.515e+03 1.994e-09
 28.31400    113.9 9.872e+03 2.775e-09
 28.33360    112.6 1.008e+04 3.314e-09
 28.34375    113.4 1.037e+04 4.194e-09
 28.36326    113.5 1.064e+04 5.185e-09
 28.38286    113.7 1.089e+04 6.214e-09
 28.40246    113.8 1.109e+04 6.939e-09
 28.42207    113.8 1.122e+04 7.025e-09
 28.44167    113.7 1.123e+04 6.974e-09
 28.46128    113.5 1.126e+04 6.630e-09
 28.48088    113.0 1.130e+04 6.261e-09
 28.50048    112.2 1.135e+04 6.270e-09
 28.52009    111.2 1.151e+04 6.607e-09
 28.53886    110.2 1.173e+04 7.589e-09
 28.54866    110.2 1.166e+04 6.988e-09
 28.55929    109.1 1.191e+04 8.630e-09
 28.57346    108.2 1.213e+04 1.077e-08
 28.58326    109.0 1.168e+04 7.325e-09
 28.59850    108.4 1.190e+04 9.214e-09
 28.61810    107.9 1.209e+04 1.124e-08
 28.63771    107.7 1.226e+04 1.276e-08
 28.65731    107.5 1.239e+04 1.303e-08
 28.67691    107.1 1.245e+04 1.287e-08
 28.69652    106.5 1.253e+04 1.214e-08
 28.71612    105.7 1.252e+04 1.102e-08
 28.73573    104.7 1.242e+04 1.006e-08
 28.75533    103.6 1.226e+04 9.649e-09
 28.77493    102.7 1.209e+04 9.682e-09
 28.79454    101.7 1.194e+04 9.744e-09
 28.81350    100.6 1.182e+04 9.613e-09
 28.82330    102.7 1.274e+04 1.303e-08
 28.83374    101.3 1.238e+04 1.172e-08
 28.85335     99.8 1.183e+04 1.024e-08
 28.87295     98.8 1.132e+04 8.994e-09
 28.89255     98.5 1.097e+04 8.139e-09
 28.91216     98.6 1.075e+04 7.454e-09
 28.93176     98.7 1.066e+04 6.903e-09
 28.95136     98.7 1.068e+04 6.820e-09
 28.97097     98.6 1.075e+04 6.973e-09
 28.99057     98.2 1.103e+04 7.814e-09
 29.01018     97.5 1.151e+04 1.011e-08
 29.02978     96.8 1.211e+04 1.414e-08
 29.04938     96.2 1.271e+04 1.943e-08
 29.06335     95.5 1.322e+04 2.432e-08
 29.07315     96.4 1.312e+04 2.380e-08
 29.08859     95.5 1.344e+04 2.633e-08
 29.10819     94.2 1.361e+04 2.650e-08
 29.12780     92.2 1.376e+04 2.652e-08
 29.14740     89.7 1.393e+04 2.715e-08
 29.16085     87.1 1.398e+04 2.859e-08
 29.17065     86.4 1.383e+04 2.767e-08
 29.18661     84.1 1.375e+04 2.810e-08
 29.20621     82.3 1.345e+04 2.685e-08
 29.22581     81.0 1.286e+04 2.171e-08
 29.24542     79.8 1.208e+04 1.474e-08
 29.26502     78.2 1.121e+04 9.046e-09
 29.28463     76.2 1.035e+04 5.912e-09
 29.30340     74.4 9.741e+03 5.007e-09
 29.31320     76.3 1.073e+04 6.935e-09
 29.32383     74.5 1.017e+04 5.874e-09
 29.34344     73.4 1.002e+04 5.744e-09
 29.36304     72.7 1.006e+04 5.797e-09
 29.38264     72.2 1.021e+04 5.808e-09
 29.40225     71.3 1.032e+04 5.754e-09
 29.42185     70.1 1.044e+04 5.867e-09
 29.44145     67.2 1.079e+04 6.646e-09
 29.46106     61.9 1.190e+04 1.076e-08
 29.48066     57.7 1.260e+04 1.991e-08
 29.50027     55.6 1.247e+04 2.230e-08
 29.51987     54.7 1.212e+04 1.955e-08
 29.53947     52.6 1.161e+04 1.149e-08
 29.55325     46.7 1.089e+04 5.471e-09
 29.56305     49.3 1.138e+04 7.058e-09
 29.57868     42.2 9.797e+03 4.533e-09
 29.59828     37.9 9.151e+03 4.429e-09
 29.61789     36.1 9.166e+03 4.868e-09
 29.63749     35.1 9.441e+03 5.647e-09
 29.65709     33.7 9.856e+03 6.526e-09
 29.67670     31.2 1.055e+04 8.143e-09
 29.69630     28.4 1.124e+04 1.109e-08
 29.71590     26.4 1.167e+04 1.455e-08
 29.73551     21.2 1.415e+04 2.359e-08
 29.75511     13.2 1.662e+04 4.858e-08
 29.77304     11.6 1.641e+04 9.760e-08
 29.78284     11.2 1.634e+04 8.775e-08
 29.79329      8.4 1.647e+04 7.581e-08
 29.80310     10.0 1.672e+04 9.324e-08
 29.81392      6.8 1.646e+04 5.420e-08
 29.83353      0.5 1.421e+04 2.725e-08
 29.85313     -3.3 1.249e+04 1.739e-08
 29.87273     -4.4 1.170e+04 1.316e-08
 29.89234     -4.6 1.108e+04 9.645e-09
 29.91194     -4.8 1.057e+04 6.545e-09
 29.93154     -5.6 1.013e+04 4.429e-09
 29.95115     -6.2 9.861e+03 3.445e-09
 29.97075     -6.3 9.792e+03 3.123e-09
 29.99035     -6.9 9.676e+03 2.948e-09
 30.00996     -7.2 9.758e+03 3.072e-09
 30.03946     -8.2 1.030e+04 4.561e-09
 30.06887     -9.6 1.091e+04 7.771e-09
 30.08837    -11.4 1.154e+04 1.082e-08
 30.10798    -12.3 1.224e+04 1.530e-08
 30.12758    -14.0 1.253e+04 1.655e-08
 30.14718    -15.7 1.272e+04 1.503e-08
 30.16679    -19.4 1.252e+04 1.311e-08
 30.18639    -22.5 1.256e+04 1.285e-08
 30.20599    -25.4 1.314e+04 1.701e-08
 30.22560    -27.3 1.373e+04 2.400e-08
 30.24520    -28.6 1.415e+04 2.905e-08
 30.26480    -30.0 1.424e+04 2.989e-08
 30.28319    -31.8 1.413e+04 2.524e-08
 30.29299    -32.4 1.457e+04 2.927e-08
 30.30401    -35.8 1.445e+04 2.161e-08
 30.32362    -40.6 1.434e+04 1.950e-08
 30.34322    -44.7 1.412e+04 2.069e-08
 30.36282    -47.4 1.391e+04 2.418e-08
 30.38243    -49.0 1.357e+04 2.463e-08
 30.39503    -50.1 1.290e+04 1.899e-08
 30.40483    -49.6 1.278e+04 1.772e-08
 30.42163    -51.0 1.220e+04 1.251e-08
 30.44124    -53.1 1.166e+04 8.825e-09
 30.46084    -55.4 1.136e+04 7.536e-09
 30.48044    -57.3 1.129e+04 7.384e-09
 30.50005    -58.7 1.131e+04 8.227e-09
 30.51965    -59.6 1.142e+04 9.723e-09
 30.53304    -60.0 1.152e+04 1.048e-08
 30.54284    -59.9 1.151e+04 1.065e-08
 30.55886    -60.6 1.159e+04 1.093e-08
 30.57846    -61.7 1.169e+04 1.103e-08
 30.59807    -63.7 1.201e+04 1.116e-08
 30.61767    -66.8 1.298e+04 1.385e-08
 30.63727    -69.8 1.423e+04 2.293e-08
 30.65688    -72.1 1.556e+04 3.978e-08
 30.67648    -74.3 1.683e+04 6.386e-08
 30.69608    -76.8 1.783e+04 8.811e-08
 30.71569    -79.6 1.856e+04 1.178e-07
 30.73529    -82.5 1.898e+04 1.497e-07
 30.75489    -85.8 1.907e+04 1.665e-07
 30.77309    -89.1 1.899e+04 1.678e-07
 30.78289    -90.0 1.890e+04 1.754e-07
 30.79410    -92.1 1.839e+04 1.451e-07
 30.81371    -93.5 1.772e+04 1.059e-07
 30.83331    -94.3 1.692e+04 7.866e-08
 30.85291    -94.5 1.632e+04 6.349e-08
 30.87252    -94.6 1.592e+04 5.528e-08
 30.89212    -94.2 1.557e+04 4.971e-08
 30.91172    -93.6 1.525e+04 4.410e-08
 30.93133    -93.1 1.497e+04 3.864e-08
 30.95093    -92.6 1.466e+04 3.363e-08
 30.97053    -92.2 1.436e+04 2.936e-08
 30.99014    -91.9 1.414e+04 2.650e-08
 31.00722    -91.7 1.411e+04 2.526e-08
 31.01702    -92.3 1.498e+04 3.582e-08
 31.02294    -91.6 1.521e+04 3.530e-08
 31.03274    -91.4 1.452e+04 2.474e-08
 31.04895    -90.1 1.411e+04 2.181e-08
 31.06360    -89.0 1.391e+04 2.068e-08
 31.07336    -88.8 1.391e+04 2.065e-08
 31.08316    -90.0 1.510e+04 2.191e-08
 31.09296    -95.7 2.135e+04 3.617e-08
 31.10276   -100.6 2.052e+04 2.678e-07
 31.11256   -102.4 1.890e+04 1.326e-06
 31.12236   -103.5 1.807e+04 3.428e-06
 31.13217   -105.5 1.784e+04 4.581e-06
 31.14197   -108.3 1.792e+04 4.215e-06
 31.14776   -111.2 1.862e+04 2.004e-06
 31.15266   -111.5 1.858e+04 2.367e-06
 31.16157   -114.8 1.982e+04 6.836e-07
 31.17137   -118.8 2.079e+04 1.133e-07
 31.18612   -124.2 1.760e+04 2.231e-08
 31.20578   -128.3 1.383e+04 1.170e-08
 31.22538   -129.9 1.159e+04 8.766e-09
 31.24498   -130.0 1.128e+04 8.183e-09
 31.26298   -129.1 1.123e+04 8.097e-09
 31.27278   -129.6 1.115e+04 8.267e-09
 31.28419   -128.4 1.104e+04 7.896e-09
 31.30379   -127.1 1.092e+04 7.466e-09
 31.32340   -125.9 1.082e+04 6.980e-09
 31.34300   -124.9 1.070e+04 6.501e-09
 31.36261   -123.8 1.059e+04 6.043e-09
 31.38221   -122.8 1.047e+04 5.575e-09
 31.40181   -121.8 1.033e+04 5.082e-09
 31.42142   -120.6 1.021e+04 4.611e-09
 31.44102   -119.5 1.013e+04 4.215e-09
 31.46062   -118.5 1.005e+04 3.921e-09
 31.48023   -117.4 9.999e+03 3.748e-09
 31.49983   -116.5 9.979e+03 3.718e-09
 31.51283   -115.6 9.985e+03 3.719e-09
 31.52263   -115.7 9.856e+03 3.361e-09
 31.53904   -115.2 9.936e+03 3.625e-09
 31.55864   -114.6 1.009e+04 4.196e-09
 31.57825   -113.8 1.030e+04 4.938e-09
 31.59785   -113.0 1.052e+04 5.698e-09
 31.61745   -112.2 1.069e+04 6.138e-09
 31.62921   -111.5 1.075e+04 6.185e-09
 31.63901   -111.8 1.077e+04 6.182e-09
 31.65666   -111.3 1.077e+04 6.042e-09
 31.68616   -110.7 1.077e+04 5.893e-09
 31.72547   -108.8 1.078e+04 5.964e-09
 31.75307   -107.2 1.082e+04 6.000e-09
 31.77268   -107.9 1.056e+04 5.537e-09
 31.79398   -105.7 1.054e+04 5.262e-09
 31.81349   -105.4 1.053e+04 5.244e-09
 31.83309   -104.1 1.059e+04 5.244e-09
 31.85270   -103.4 1.064e+04 5.348e-09
 31.87230   -102.3 1.085e+04 5.853e-09
 31.89190   -101.8 1.106e+04 6.519e-09
 31.92141   -101.4 1.141e+04 8.153e-09
 31.95081   -100.9 1.205e+04 1.278e-08
 31.97032   -100.8 1.242e+04 1.716e-08
 31.98992   -100.5 1.289e+04 2.425e-08
 32.00273   -100.4 1.343e+04 2.989e-08
 32.01253   -100.9 1.368e+04 2.867e-08
 32.02913   -101.0 1.467e+04 4.462e-08
 32.04873   -100.9 1.545e+04 6.177e-08
 32.06833   -101.1 1.605e+04 7.148e-08
 32.08794   -101.7 1.617e+04 7.494e-08
 32.10754   -102.2 1.618e+04 7.553e-08
 32.12715   -102.3 1.606e+04 7.380e-08
 32.14675   -102.3 1.593e+04 6.449e-08
 32.16635   -102.4 1.576e+04 5.643e-08
 32.18596   -102.5 1.556e+04 4.902e-08
 32.20556   -102.9 1.534e+04 4.017e-08
 32.22516   -103.5 1.498e+04 3.191e-08
 32.24140   -104.0 1.449e+04 2.482e-08
 32.24921   -105.9 1.396e+04 1.777e-08
 32.25258   -106.5 1.449e+04 2.448e-08
 32.26437   -106.6 1.388e+04 1.895e-08
 32.28397   -106.6 1.333e+04 1.442e-08
 32.30358   -106.5 1.282e+04 1.063e-08
 32.32318   -106.3 1.236e+04 7.859e-09
 32.34278   -106.3 1.207e+04 6.073e-09
 32.36239   -106.0 1.177e+04 4.803e-09
 32.38199   -105.6 1.151e+04 3.942e-09
 32.40160   -105.2 1.116e+04 3.048e-09
 32.43110   -104.2 1.098e+04 2.611e-09
 32.47040   -102.6 1.049e+04 1.979e-09
 32.50961   -100.7 1.023e+04 1.689e-09
 32.54882    -98.8 1.010e+04 1.538e-09
 32.58802    -96.9 1.008e+04 1.503e-09
 32.62723    -95.2 1.007e+04 1.654e-09
 32.65654    -94.1 1.024e+04 2.259e-09
 32.67605    -93.9 1.046e+04 2.980e-09
 32.70555    -93.2 1.092e+04 4.492e-09
 32.73277    -92.9 1.172e+04 7.609e-09
 32.74247    -92.9 1.195e+04 7.984e-09
 32.75446    -94.0 1.267e+04 1.450e-08
 32.77406    -94.4 1.318e+04 2.389e-08
 32.79367    -94.6 1.339e+04 2.855e-08
 32.81327    -94.8 1.339e+04 2.925e-08
 32.83287    -94.8 1.304e+04 2.515e-08
 32.85248    -94.7 1.244e+04 1.734e-08
 32.86339    -94.8 1.187e+04 1.132e-08
 32.87319    -95.4 1.171e+04 9.656e-09
 32.89169    -95.6 1.135e+04 6.726e-09
 32.91129    -95.6 1.111e+04 5.125e-09
 32.93089    -95.3 1.095e+04 4.239e-09
 32.95050    -94.9 1.081e+04 3.700e-09
 32.97010    -94.4 1.068e+04 3.379e-09
 32.98252    -93.8 1.058e+04 3.251e-09
 32.99232    -93.3 1.064e+04 3.445e-09
 33.01921    -92.8 1.052e+04 3.151e-09
 33.04861    -90.5 1.047e+04 2.988e-09
 33.06812    -90.3 1.044e+04 2.978e-09
 33.08772    -89.0 1.041e+04 2.984e-09
 33.10732    -88.3 1.045e+04 2.998e-09
 33.12693    -87.5 1.061e+04 3.283e-09
 33.14653    -87.0 1.074e+04 3.671e-09
 33.17603    -86.5 1.086e+04 4.125e-09
 33.21296    -85.5 1.111e+04 5.139e-09
 33.23256    -86.2 1.148e+04 6.596e-09
 33.25455    -85.7 1.165e+04 6.983e-09
 33.28385    -84.9 1.160e+04 6.649e-09
 33.30336    -84.8 1.164e+04 6.606e-09
 33.32296    -84.6 1.171e+04 6.579e-09
 33.34257    -84.8 1.189e+04 6.606e-09
 33.37207    -85.5 1.198e+04 6.218e-09
 33.41138    -85.1 1.195e+04 5.689e-09
 33.45058    -85.4 1.205e+04 5.402e-09
 33.48979    -85.8 1.215e+04 5.350e-09
 33.52900    -86.5 1.223e+04 5.344e-09
 33.56820    -87.3 1.224e+04 5.314e-09
 33.60741    -87.8 1.202e+04 4.720e-09
 33.64662    -88.0 1.174e+04 3.576e-09
 33.68583    -88.2 1.156e+04 2.475e-09
 33.71266    -88.2 1.136e+04 1.874e-09
 33.73226    -87.2 1.101e+04 1.780e-09
 33.76424    -86.3 1.085e+04 1.538e-09
 33.80345    -85.1 1.081e+04 1.447e-09
 33.84265    -83.7 1.080e+04 1.463e-09
 33.88186    -82.2 1.081e+04 1.731e-09
 33.92107    -80.5 1.088e+04 2.317e-09
 33.96028    -78.8 1.101e+04 3.120e-09
 33.99948    -77.0 1.116e+04 3.763e-09
 34.03869    -75.3 1.122e+04 3.935e-09
 34.07790    -73.7 1.117e+04 3.805e-09
 34.09776    -71.8 1.109e+04 2.960e-09
 34.11736    -72.4 1.108e+04 2.361e-09
 34.15631    -70.6 1.105e+04 1.574e-09
 34.19275    -68.7 1.098e+04 1.145e-09
 34.21236    -68.0 1.104e+04 2.196e-09
 34.23473    -66.1 1.086e+04 1.634e-09
 34.27393    -64.0 1.071e+04 1.238e-09
 34.31314    -61.7 1.059e+04 9.762e-10
 34.35235    -59.3 1.051e+04 8.293e-10
 34.39155    -56.8 1.046e+04 7.449e-10
 34.43076    -54.1 1.042e+04 6.870e-10
 34.46997    -51.4 1.040e+04 6.402e-10
 34.50918    -48.6 1.038e+04 6.035e-10
 34.54838    -45.7 1.040e+04 5.794e-10
 34.58759    -42.8 1.043e+04 5.715e-10
 34.62680    -40.1 1.060e+04 5.926e-10
 34.66600    -37.7 1.077e+04 7.074e-10
 34.69245    -35.2 1.077e+04 1.032e-09
 34.71205    -34.9 1.075e+04 1.482e-09
 34.74442    -32.5 1.094e+04 2.099e-09
 34.78363    -30.2 1.117e+04 2.789e-09
 34.82283    -28.0 1.132e+04 3.358e-09
 34.86204    -25.6 1.142e+04 3.712e-09
 34.90125    -23.3 1.150e+04 4.015e-09
 34.94046    -21.1 1.155e+04 4.163e-09
 34.97966    -18.8 1.160e+04 4.186e-09
 35.01887    -16.6 1.174e+04 4.286e-09
 35.05808    -14.3 1.194e+04 4.370e-09
 35.09728    -12.3 1.212e+04 4.687e-09
 35.12659    -11.5 1.185e+04 3.866e-09
 35.14610     -9.8 1.202e+04 5.248e-09
 35.16570     -8.7 1.217e+04 6.603e-09
 35.18215     -7.0 1.252e+04 9.519e-09
 35.19205     -7.6 1.223e+04 6.391e-09
 35.21491     -5.7 1.233e+04 8.974e-09
 35.25411     -3.6 1.271e+04 1.199e-08
 35.28342     -2.8 1.315e+04 1.680e-08
 35.30293     -1.6 1.338e+04 1.952e-08
 35.32194     -0.6 1.370e+04 2.428e-08
 35.33174     -1.0 1.351e+04 2.076e-08
 35.34213      0.2 1.370e+04 2.212e-08
 35.36174      1.4 1.385e+04 2.264e-08
 35.38134      2.5 1.393e+04 2.176e-08
 35.40094      3.6 1.396e+04 1.781e-08
 35.42055      4.5 1.389e+04 1.551e-08
 35.43200      5.4 1.386e+04 1.385e-08
 35.44180      5.5 1.391e+04 1.646e-08
 35.45975      6.4 1.377e+04 1.502e-08
 35.47936      7.4 1.384e+04 1.523e-08
 35.49896      8.0 1.385e+04 1.806e-08
 35.51857      8.8 1.384e+04 1.988e-08
 35.53817      9.7 1.396e+04 2.170e-08
 35.55777     10.3 1.420e+04 2.554e-08
 35.57738     10.8 1.438e+04 2.797e-08
 35.59698     11.0 1.472e+04 2.975e-08
 35.61658     10.5 1.533e+04 3.040e-08
 35.63619      9.1 1.592e+04 3.233e-08
 35.65579      7.7 1.584e+04 3.685e-08
 35.67205      6.7 1.524e+04 4.118e-08
 35.68185      4.8 1.420e+04 3.884e-08
 35.69500      5.0 1.346e+04 3.174e-08
 35.71460      5.1 1.282e+04 2.158e-08
 35.73420      4.8 1.216e+04 1.399e-08
 35.75381      4.9 1.164e+04 9.751e-09
 35.77341      4.9 1.141e+04 7.436e-09
 35.80292      2.9 1.044e+04 4.002e-09
 35.84222      4.0 9.752e+03 2.556e-09
 35.88143      6.0 9.462e+03 1.867e-09
 35.92063      8.1 9.310e+03 1.388e-09
 35.95984     10.5 9.163e+03 1.226e-09
 35.99905     13.3 9.048e+03 1.235e-09
 36.03826     16.2 8.998e+03 1.321e-09
 36.07746     18.9 9.015e+03 1.449e-09
 36.11667     21.5 9.131e+03 1.605e-09
 36.15234     23.9 9.256e+03 1.807e-09
 36.17194     23.5 8.910e+03 1.470e-09
 36.19508     26.1 8.883e+03 1.651e-09
 36.23429     28.5 8.917e+03 1.728e-09
 36.27350     30.9 8.950e+03 1.723e-09
 36.31271     33.4 9.056e+03 1.706e-09
 36.35191     35.6 9.214e+03 1.770e-09
 36.39112     37.7 9.372e+03 1.848e-09
 36.43033     40.1 9.670e+03 1.909e-09
 36.45964     40.8 9.609e+03 1.809e-09
 36.47914     42.0 9.477e+03 1.707e-09
 36.49874     43.3 9.497e+03 1.733e-09
 36.51835     44.4 9.610e+03 1.900e-09
 36.53795     45.4 9.795e+03 2.213e-09
 36.55612     46.5 9.997e+03 2.624e-09
 36.56592     46.0 9.981e+03 2.647e-09
 36.57716     47.0 1.018e+04 3.102e-09
 36.59676     47.8 1.034e+04 3.567e-09
 36.61637     48.6 1.052e+04 4.037e-09
 36.63597     49.3 1.067e+04 4.663e-09
 36.65184     50.0 1.087e+04 5.689e-09
 36.66164     50.9 1.079e+04 5.595e-09
 36.67518     51.5 1.108e+04 6.920e-09
 36.69478     51.6 1.141e+04 8.699e-09
 36.71438     51.1 1.210e+04 1.152e-08
 36.73399     49.4 1.327e+04 1.881e-08
 36.75359     47.6 1.443e+04 3.502e-08
 36.77319     46.3 1.489e+04 4.778e-08
 36.79280     45.5 1.471e+04 4.511e-08
 36.81240     45.0 1.414e+04 3.304e-08
 36.83201     44.0 1.345e+04 2.010e-08
 36.85161     42.5 1.263e+04 1.278e-08
 36.87121     41.7 1.189e+04 9.828e-09
 36.89082     41.9 1.148e+04 8.699e-09
 36.90169     42.4 1.128e+04 7.989e-09
 36.91149     42.7 1.163e+04 1.019e-08
 36.93002     43.2 1.150e+04 9.544e-09
 36.94963     43.7 1.137e+04 8.856e-09
 36.96923     44.3 1.122e+04 8.177e-09
 36.98883     44.9 1.107e+04 7.546e-09
 37.00844     45.5 1.091e+04 6.917e-09
 37.02804     46.3 1.078e+04 6.284e-09
 37.04764     47.1 1.065e+04 5.642e-09
 37.06725     47.9 1.055e+04 5.025e-09
 37.08685     48.7 1.048e+04 4.484e-09
 37.10646     49.5 1.044e+04 4.117e-09
 37.12606     50.4 1.045e+04 4.116e-09
 37.14173     51.4 1.056e+04 4.317e-09
 37.15154     51.6 1.041e+04 3.886e-09
 37.16527     52.6 1.058e+04 4.396e-09
 37.17811     53.5 1.076e+04 5.336e-09
 37.18791     53.2 1.059e+04 4.699e-09
 37.20447     54.0 1.089e+04 6.223e-09
 37.22408     54.7 1.143e+04 9.221e-09
 37.24368     55.2 1.216e+04 1.454e-08
 37.26328     55.7 1.300e+04 2.283e-08
 37.28289     56.4 1.383e+04 3.252e-08
 37.30249     56.8 1.433e+04 3.580e-08
 37.32210     57.0 1.433e+04 3.376e-08
 37.34170     57.0 1.410e+04 2.702e-08
 37.36130     56.5 1.357e+04 1.970e-08
 37.38091     55.6 1.281e+04 1.526e-08
 37.39158     55.2 1.221e+04 1.353e-08
 37.40139     56.2 1.202e+04 1.235e-08
 37.42011     56.0 1.198e+04 1.265e-08
 37.43972     56.1 1.204e+04 1.401e-08
 37.45932     55.9 1.241e+04 1.721e-08
 37.47892     55.2 1.335e+04 2.558e-08
 37.49853     53.8 1.474e+04 4.444e-08
 37.51813     52.1 1.597e+04 6.935e-08
 37.53278     50.7 1.672e+04 9.796e-08
 37.54254     49.8 1.720e+04 1.344e-07
 37.55234     49.2 1.721e+04 1.436e-07
 37.56214     48.5 1.711e+04 1.373e-07
 37.57194     48.1 1.656e+04 1.039e-07
 37.58174     47.1 1.597e+04 7.869e-08
 37.59650     45.8 1.506e+04 4.961e-08
 37.61615     43.0 1.359e+04 2.319e-08
 37.63163     39.6 1.219e+04 1.387e-08
 37.64143     40.6 1.204e+04 1.345e-08
 37.65536     39.0 1.139e+04 1.155e-08
 37.67496     38.6 1.127e+04 1.125e-08
 37.69456     38.4 1.122e+04 1.096e-08
 37.71417     38.2 1.115e+04 1.045e-08
 37.73377     37.8 1.105e+04 9.893e-09
 37.75337     37.4 1.094e+04 9.509e-09
 37.77298     37.2 1.082e+04 9.322e-09
 37.79030     37.1 1.071e+04 9.182e-09
 37.80010     36.2 1.087e+04 9.770e-09
 37.81218     36.4 1.072e+04 9.456e-09
 37.83179     36.8 1.049e+04 8.761e-09
 37.85139     37.5 1.022e+04 7.629e-09
 37.87100     38.2 9.930e+03 6.334e-09
 37.88148     38.8 9.664e+03 5.222e-09
 37.89128     38.7 9.926e+03 6.343e-09
 37.91020     39.3 9.736e+03 5.483e-09
 37.92981     39.8 9.612e+03 4.961e-09
 37.94941     40.5 9.479e+03 4.484e-09
 37.96901     40.8 9.501e+03 4.463e-09
 37.98862     41.7 9.298e+03 4.067e-09
 38.00822     42.5 9.202e+03 3.808e-09
 38.02782     43.9 8.988e+03 3.239e-09
 38.04743     44.3 8.977e+03 3.124e-09
 38.07693     46.0 8.874e+03 2.970e-09
 38.11192     48.5 8.862e+03 3.015e-09
 38.13143     48.8 8.907e+03 3.519e-09
 38.14545     50.8 8.912e+03 3.619e-09
 38.16505     51.6 9.008e+03 3.766e-09
 38.18465     53.6 9.067e+03 4.038e-09
 38.20426     54.6 9.123e+03 4.214e-09
 38.22386     56.9 9.306e+03 4.744e-09
 38.24346     58.3 9.553e+03 5.295e-09
 38.26307     59.3 9.786e+03 5.954e-09
 38.28267     60.4 9.947e+03 6.622e-09
 38.30227     61.7 1.009e+04 7.357e-09
 38.32188     63.0 1.029e+04 8.257e-09
 38.34148     64.2 1.049e+04 9.206e-09
 38.36109     65.5 1.069e+04 1.015e-08
 38.37138     66.7 1.092e+04 1.117e-08
 38.38118     66.6 1.123e+04 1.312e-08
 38.40029     67.6 1.155e+04 1.496e-08
 38.41229     68.5 1.188e+04 1.720e-08
 38.42209     68.3 1.245e+04 2.058e-08
 38.43950     69.1 1.288e+04 2.473e-08
 38.45910     69.8 1.324e+04 2.927e-08
 38.47871     70.7 1.346e+04 3.277e-08
 38.49831     71.5 1.337e+04 3.286e-08
 38.51791     72.5 1.319e+04 3.054e-08
 38.53752     73.6 1.283e+04 2.600e-08
 38.55712     74.7 1.242e+04 2.079e-08
 38.57672     75.4 1.201e+04 1.595e-08
 38.59633     75.8 1.164e+04 1.217e-08
 38.61142     75.9 1.133e+04 9.978e-09
 38.62122     76.1 1.201e+04 1.267e-08
 38.63554     76.2 1.169e+04 1.078e-08
 38.65514     76.4 1.150e+04 1.038e-08
 38.67474     76.7 1.152e+04 1.089e-08
 38.69435     77.0 1.168e+04 1.220e-08
 38.71395     77.5 1.189e+04 1.399e-08
 38.73355     78.1 1.206e+04 1.561e-08
 38.75316     78.9 1.212e+04 1.643e-08
 38.77276     79.6 1.209e+04 1.627e-08
 38.79236     80.3 1.201e+04 1.509e-08
 38.81197     80.7 1.191e+04 1.396e-08
 38.83157     81.1 1.181e+04 1.281e-08
 38.85117     81.3 1.167e+04 1.162e-08
 38.86127     81.6 1.154e+04 1.084e-08
 38.87107     81.5 1.154e+04 1.141e-08
 38.89038     81.7 1.159e+04 1.165e-08
 38.90999     81.6 1.178e+04 1.269e-08
 38.92959     81.3 1.213e+04 1.473e-08
 38.94919     81.0 1.260e+04 1.802e-08
 38.96880     80.6 1.314e+04 2.273e-08
 38.98840     80.3 1.365e+04 2.720e-08
 39.00800     79.7 1.389e+04 2.823e-08
 39.02448     79.3 1.387e+04 2.711e-08
 39.03428     75.7 1.454e+04 3.311e-08
 39.04721     75.1 1.437e+04 3.031e-08
 39.06681     74.6 1.426e+04 2.857e-08
 39.08642     74.1 1.428e+04 2.890e-08
 39.10132     74.0 1.446e+04 3.221e-08
 39.11112     73.7 1.459e+04 3.445e-08
 39.12562     73.8 1.494e+04 4.156e-08
 39.14523     74.1 1.544e+04 5.225e-08
 39.16483     74.6 1.607e+04 6.765e-08
 39.18444     75.0 1.681e+04 9.065e-08
 39.20404     75.0 1.751e+04 1.249e-07
 39.22364     75.0 1.798e+04 1.718e-07
 39.23830     74.9 1.820e+04 1.916e-07
 39.24805     74.8 1.813e+04 2.143e-07
 39.25785     74.7 1.793e+04 2.363e-07
 39.26765     74.7 1.778e+04 2.525e-07
 39.27745     74.9 1.771e+04 2.657e-07
 39.28726     75.2 1.776e+04 2.779e-07
 39.29706     75.5 1.777e+04 2.677e-07
 39.30686     75.9 1.765e+04 2.366e-07
 39.31666     76.3 1.746e+04 1.963e-07
 39.32646     76.7 1.736e+04 1.564e-07
 39.33537     76.9 1.735e+04 1.221e-07
 39.34028     75.7 1.752e+04 2.962e-07
 39.34607     76.5 1.727e+04 2.433e-07
 39.35107     77.5 1.724e+04 2.042e-07
 39.35597     77.3 1.733e+04 2.736e-07
 39.36567     78.2 1.750e+04 2.521e-07
 39.37547     78.9 1.770e+04 2.234e-07
 39.38527     79.4 1.787e+04 1.836e-07
 39.39508     79.8 1.793e+04 1.353e-07
 39.40488     80.5 1.798e+04 9.064e-08
 39.41468     81.3 1.827e+04 5.805e-08
 39.42448     81.9 1.857e+04 3.679e-08
 39.43428     81.6 1.825e+04 2.194e-08
 39.44409     81.1 1.701e+04 1.442e-08
 39.45389     80.8 1.498e+04 1.010e-08
 39.46369     80.5 1.311e+04 8.004e-09
 39.47844     81.2 1.230e+04 6.993e-09
 39.49809     81.7 1.130e+04 5.955e-09
 39.51770     82.5 1.076e+04 5.442e-09
 39.53730     83.1 1.040e+04 5.206e-09
 39.55690     83.5 1.035e+04 5.421e-09
 39.57651     83.8 1.035e+04 6.057e-09
 39.59121     83.9 1.045e+04 6.746e-09
 39.60102     84.1 1.051e+04 7.238e-09
 39.61571     83.8 1.052e+04 7.698e-09
 39.63532     83.6 1.057e+04 7.941e-09
 39.64647     83.5 1.061e+04 8.016e-09
 39.65132     81.7 1.163e+04 1.027e-08
 39.65972     81.9 1.128e+04 9.710e-09
 39.66953     82.3 1.095e+04 8.871e-09
 39.67933     82.5 1.073e+04 8.497e-09
 39.69408     82.5 1.103e+04 8.198e-09
 39.71373     83.7 1.069e+04 7.236e-09
 39.73334     85.1 1.044e+04 6.638e-09
 39.75294     86.7 1.029e+04 6.448e-09
 39.77254     88.3 1.026e+04 6.483e-09
 39.78720     89.9 1.021e+04 6.715e-09
 39.79695     90.7 1.029e+04 7.085e-09
 39.80675     91.4 1.045e+04 7.689e-09
 39.81655     91.9 1.059e+04 8.225e-09
 39.82636     92.5 1.075e+04 9.004e-09
 39.83607     93.0 1.093e+04 9.862e-09
 39.84097     93.6 1.135e+04 1.133e-08
 39.84596     93.7 1.175e+04 1.295e-08
 39.85576     93.6 1.231e+04 1.491e-08
 39.86556     93.2 1.317e+04 1.808e-08
 39.87536     92.3 1.426e+04 2.359e-08
 39.88517     90.9 1.592e+04 3.408e-08
 39.89497     88.7 1.847e+04 5.521e-08
 39.90477     86.2 2.103e+04 9.713e-08
 39.91457     84.0 2.215e+04 1.806e-07
 39.92437     82.3 2.190e+04 3.108e-07
 39.93418     81.4 2.119e+04 4.429e-07
 39.94398     80.8 2.075e+04 4.883e-07
 39.95246     80.3 2.063e+04 4.825e-07
 39.95736     77.2 2.056e+04 5.614e-07
 39.96099     76.4 2.154e+04 4.150e-07
 39.96589     74.3 2.157e+04 4.336e-07
 39.97338     73.3 2.184e+04 2.896e-07
 39.98318     72.2 2.213e+04 2.172e-07
 39.99299     71.9 2.206e+04 1.779e-07
 40.00279     71.8 2.160e+04 1.562e-07
 40.01259     71.5 2.040e+04 1.348e-07
 40.02734     72.8 2.061e+04 1.441e-07
 40.04699     72.1 1.861e+04 1.240e-07
 40.06660     72.1 1.725e+04 1.066e-07
 40.08111     72.8 1.641e+04 8.715e-08
 40.09091     71.1 1.707e+04 5.824e-08
 40.10580     72.1 1.706e+04 4.317e-08
 40.12541     72.8 1.679e+04 3.274e-08
 40.14501     73.1 1.615e+04 2.618e-08
 40.16461     73.7 1.530e+04 2.259e-08
 40.18422     74.7 1.452e+04 2.076e-08
 40.20382     75.8 1.403e+04 1.955e-08
 40.22343     77.0 1.372e+04 1.867e-08
 40.24303     78.4 1.364e+04 1.809e-08
 40.25866     79.7 1.369e+04 1.821e-08
 40.26846     78.3 1.332e+04 1.949e-08
 40.28224     79.3 1.334e+04 2.171e-08
 40.30184     80.3 1.346e+04 2.521e-08
 40.32116     81.5 1.376e+04 3.062e-08
 40.33096     80.4 1.373e+04 3.210e-08
 40.34105     81.5 1.439e+04 3.755e-08
 40.36065     82.2 1.520e+04 4.351e-08
 40.38025     82.6 1.536e+04 4.306e-08
 40.39986     82.8 1.534e+04 4.055e-08
 40.41946     82.7 1.494e+04 3.559e-08
 40.43906     82.6 1.418e+04 2.973e-08
 40.45867     82.5 1.325e+04 2.430e-08
 40.47827     82.5 1.242e+04 1.986e-08
 40.49788     82.6 1.178e+04 1.640e-08
 40.51748     82.9 1.132e+04 1.365e-08
 40.53708     83.2 1.096e+04 1.145e-08
 40.55669     83.5 1.061e+04 9.654e-09
 40.57101     83.6 1.025e+04 8.198e-09
 40.58081     81.3 1.002e+04 7.248e-09
 40.59589     81.4 9.799e+03 6.669e-09
 40.61550     81.5 9.718e+03 6.366e-09
 40.63510     81.6 9.735e+03 6.400e-09
 40.65470     81.7 9.811e+03 6.634e-09
 40.67431     81.7 9.955e+03 7.143e-09
 40.69391     81.7 1.012e+04 7.790e-09
 40.71352     81.6 1.028e+04 8.334e-09
 40.73312     81.5 1.041e+04 8.467e-09
 40.75272     81.3 1.042e+04 8.325e-09
 40.77233     80.9 1.037e+04 7.810e-09
 40.79193     80.5 1.016e+04 6.852e-09
 40.81105     80.2 9.828e+03 5.701e-09
 40.82086     79.2 9.762e+03 5.433e-09
 40.83114     79.2 9.387e+03 4.402e-09
 40.85074     79.1 9.083e+03 3.570e-09
 40.87034     79.2 8.878e+03 3.042e-09
 40.89985     79.0 8.833e+03 2.727e-09
 40.93915     79.2 8.717e+03 2.468e-09
 40.97836     79.9 8.663e+03 2.420e-09
 41.01757     80.8 8.724e+03 2.525e-09
 41.05130     81.4 8.852e+03 2.773e-09
 41.07080     81.1 8.865e+03 3.285e-09
 41.08598     81.8 9.009e+03 3.809e-09
 41.10559     82.5 9.327e+03 4.708e-09
 41.12519     83.0 9.758e+03 6.009e-09
 41.14479     83.4 1.023e+04 7.706e-09
 41.16440     83.6 1.067e+04 9.598e-09
 41.18400     83.6 1.098e+04 1.074e-08
 41.20360     83.3 1.102e+04 1.073e-08
 41.22321     82.8 1.095e+04 1.021e-08
 41.24281     82.1 1.065e+04 8.503e-09
 41.26242     81.1 1.021e+04 6.259e-09
 41.28202     79.5 9.689e+03 4.320e-09
 41.30095     77.7 9.240e+03 3.393e-09
 41.31075     79.4 9.575e+03 4.154e-09
 41.32123     78.1 9.436e+03 3.973e-09
 41.34083     77.1 9.518e+03 4.120e-09
 41.36043     75.5 1.006e+04 5.305e-09
 41.38004     73.5 1.122e+04 8.507e-09
 41.39964     71.8 1.250e+04 1.515e-08
 41.41924     71.0 1.336e+04 2.407e-08
 41.43885     70.3 1.379e+04 2.926e-08
 41.45845     69.3 1.386e+04 2.903e-08
 41.47805     67.8 1.389e+04 2.667e-08
 41.49283     65.9 1.386e+04 2.443e-08
 41.50264     66.1 1.381e+04 2.492e-08
 41.51726     64.1 1.382e+04 2.544e-08
 41.53687     62.9 1.352e+04 2.730e-08
 41.55080     63.0 1.336e+04 2.761e-08
 41.56060     65.3 1.325e+04 2.399e-08
 41.57607     65.1 1.311e+04 2.635e-08
 41.59568     65.4 1.301e+04 2.636e-08
 41.61528     65.7 1.280e+04 2.524e-08
 41.63488     65.9 1.252e+04 2.303e-08
 41.65449     66.0 1.213e+04 1.987e-08
 41.67409     66.2 1.171e+04 1.607e-08
 41.69369     66.3 1.130e+04 1.241e-08
 41.71330     66.2 1.100e+04 9.889e-09
 41.73290     66.1 1.068e+04 8.325e-09
 41.75251     66.1 1.038e+04 7.348e-09
 41.77211     66.2 1.002e+04 6.505e-09
 41.79085     66.3 9.864e+03 6.116e-09
 41.80065     67.0 9.654e+03 5.882e-09
 41.81132     67.2 9.534e+03 5.827e-09
 41.83092     67.4 9.549e+03 5.982e-09
 41.85052     67.5 9.658e+03 6.678e-09
 41.87013     67.8 9.947e+03 8.024e-09
 41.88973     68.0 1.041e+04 1.001e-08
 41.90933     67.8 1.111e+04 1.280e-08
 41.92894     67.4 1.206e+04 1.719e-08
 41.94854     66.8 1.294e+04 2.332e-08
 41.96814     66.6 1.343e+04 3.034e-08
 41.98775     66.5 1.352e+04 3.400e-08
 42.00735     66.5 1.343e+04 3.292e-08
 42.02696     66.6 1.312e+04 2.852e-08
 42.04069     66.4 1.269e+04 2.256e-08
 42.05050     66.4 1.321e+04 2.775e-08
 42.06616     65.6 1.265e+04 2.000e-08
 42.08577     64.6 1.231e+04 1.608e-08
 42.10502     63.6 1.222e+04 1.430e-08
 42.11482     63.8 1.227e+04 1.445e-08
 42.12497     63.0 1.214e+04 1.318e-08
 42.14458     62.8 1.191e+04 1.181e-08
 42.16418     62.7 1.170e+04 1.052e-08
 42.18378     62.6 1.152e+04 9.377e-09
 42.20339     62.5 1.131e+04 8.202e-09
 42.22299     62.4 1.107e+04 7.017e-09
 42.24259     62.3 1.082e+04 6.008e-09
 42.26220     62.1 1.067e+04 5.209e-09
 42.28074     62.1 1.062e+04 4.735e-09
 42.29054     61.9 1.063e+04 4.492e-09
 42.31130     61.9 1.052e+04 3.837e-09
 42.34071     60.6 1.060e+04 4.280e-09
 42.36022     60.3 1.067e+04 4.892e-09
 42.37982     60.1 1.078e+04 5.585e-09
 42.39942     59.9 1.089e+04 6.288e-09
 42.41903     59.5 1.102e+04 7.011e-09
 42.43863     58.9 1.116e+04 7.770e-09
 42.45823     58.4 1.128e+04 8.495e-09
 42.47784     58.2 1.129e+04 9.107e-09
 42.49744     58.3 1.112e+04 9.273e-09
 42.51704     58.4 1.098e+04 8.707e-09
 42.53059     58.5 1.079e+04 7.777e-09
 42.54039     57.9 1.070e+04 7.052e-09
 42.55625     57.6 1.058e+04 6.365e-09
 42.57586     57.2 1.048e+04 5.875e-09
 42.59546     56.8 1.038e+04 5.599e-09
 42.61506     56.6 1.025e+04 5.439e-09
 42.63467     56.5 1.014e+04 5.224e-09
 42.65427     56.2 1.005e+04 4.977e-09
 42.67387     55.8 1.002e+04 4.840e-09
 42.69348     55.2 1.004e+04 4.864e-09
 42.71308     54.3 1.012e+04 5.051e-09
 42.72701     52.9 1.035e+04 5.757e-09
 42.73681     53.9 1.017e+04 5.263e-09
 42.75229     52.4 1.053e+04 6.329e-09
 42.77064     50.7 1.105e+04 8.205e-09
 42.78044     49.8 1.090e+04 7.628e-09
 42.79150     48.1 1.142e+04 1.015e-08
 42.81110     46.3 1.185e+04 1.272e-08
 42.83070     44.3 1.222e+04 1.379e-08
 42.85031     41.8 1.227e+04 1.378e-08
 42.86991     39.0 1.229e+04 1.390e-08
 42.88951     35.8 1.247e+04 1.500e-08
 42.90912     33.4 1.267e+04 1.727e-08
 42.92872     31.6 1.281e+04 1.878e-08
 42.94832     30.5 1.264e+04 1.800e-08
 42.96793     28.9 1.279e+04 1.698e-08
 42.98753     27.2 1.290e+04 1.675e-08
 43.00713     25.5 1.300e+04 1.630e-08
 43.02049     24.5 1.287e+04 1.518e-08
 43.03029     22.8 1.287e+04 1.596e-08
 43.04634     21.3 1.268e+04 1.486e-08
 43.06595     20.3 1.246e+04 1.424e-08
 43.08555     19.1 1.239e+04 1.430e-08
 43.10515     17.5 1.243e+04 1.452e-08
 43.12476     15.4 1.260e+04 1.515e-08
 43.14436     15.2 1.251e+04 1.544e-08
 43.16396     13.8 1.306e+04 1.881e-08
 43.18357     14.3 1.270e+04 1.854e-08
 43.20317     14.8 1.241e+04 1.816e-08
 43.22277     15.2 1.235e+04 1.798e-08
 43.24238     15.3 1.255e+04 1.890e-08
 43.26053     14.6 1.333e+04 2.205e-08
 43.27034     11.4 1.398e+04 2.298e-08
 43.28158      9.5 1.489e+04 3.031e-08
 43.30119      7.9 1.559e+04 4.232e-08
 43.32079      5.0 1.749e+04 6.737e-08
 43.33920      1.6 1.877e+04 1.188e-07
 43.34900      5.7 1.787e+04 8.091e-08
 43.36000      2.5 1.856e+04 1.123e-07
 43.37960      0.6 1.813e+04 1.343e-07
 43.39921      0.1 1.716e+04 1.128e-07
 43.41881      0.0 1.608e+04 7.261e-08
 43.43841     -0.4 1.469e+04 4.054e-08
 43.45802     -1.5 1.318e+04 2.257e-08
 43.47762     -2.5 1.156e+04 1.405e-08
 43.49722     -3.1 1.048e+04 1.001e-08
 43.51038     -3.1 1.032e+04 9.337e-09
 43.52018     -5.9 1.021e+04 8.886e-09
 43.53643     -5.9 1.059e+04 9.825e-09
 43.55603     -5.9 1.104e+04 1.162e-08
 43.57564     -5.3 1.101e+04 1.189e-08
 43.59524     -4.9 1.110e+04 1.185e-08
 43.61485     -6.1 1.136e+04 1.193e-08
 43.63445     -7.6 1.130e+04 1.384e-08
 43.65405     -7.2 1.150e+04 1.592e-08
 43.67366     -6.2 1.189e+04 1.864e-08
 43.69326     -5.2 1.214e+04 1.969e-08
 43.71286     -4.9 1.221e+04 1.914e-08
 43.73247     -5.0 1.226e+04 1.813e-08
 43.75043     -6.2 1.292e+04 1.873e-08
 43.76023    -10.2 1.347e+04 2.274e-08
 43.77167    -10.7 1.367e+04 2.633e-08
 43.79128    -10.5 1.389e+04 3.059e-08
 43.81088     -9.6 1.424e+04 3.420e-08
 43.83049     -9.1 1.457e+04 3.578e-08
 43.85009     -9.5 1.470e+04 3.626e-08
 43.86969    -11.8 1.554e+04 3.904e-08
 43.88930    -16.7 1.751e+04 5.183e-08
 43.90890    -20.4 1.901e+04 8.100e-08
 43.92355    -25.3 1.699e+04 6.706e-08
 43.93331    -25.8 1.670e+04 6.575e-08
 43.94311    -27.2 1.556e+04 5.669e-08
 43.95291    -27.2 1.499e+04 5.023e-08
 43.96109    -27.0 1.431e+04 4.117e-08
 43.96599    -27.0 1.377e+04 3.518e-08
 43.97251    -26.7 1.361e+04 3.312e-08
 43.98726    -25.1 1.358e+04 2.776e-08
 44.00028    -25.3 1.301e+04 1.590e-08
 44.01008    -28.7 1.129e+04 8.534e-09
 44.02652    -32.7 9.007e+03 3.446e-09
 44.04612    -34.1 8.356e+03 2.378e-09
 44.06573    -34.1 8.324e+03 2.209e-09
 44.08533    -34.6 8.535e+03 2.302e-09
 44.10494    -35.3 8.849e+03 2.627e-09
 44.12454    -35.9 9.133e+03 3.209e-09
 44.14414    -36.1 9.479e+03 4.066e-09
 44.16375    -36.5 9.649e+03 4.890e-09
 44.18335    -37.2 1.015e+04 6.380e-09
 44.20295    -39.0 1.121e+04 9.243e-09
 44.22256    -41.5 1.258e+04 1.480e-08
 44.24033    -43.6 1.375e+04 2.356e-08
 44.25013    -42.6 1.279e+04 1.691e-08
 44.26176    -44.4 1.372e+04 2.361e-08
 44.28137    -46.1 1.421e+04 2.671e-08
 44.29602    -48.2 1.450e+04 2.798e-08
 44.30577    -49.0 1.487e+04 2.893e-08
 44.31558    -51.7 1.525e+04 2.930e-08
 44.32538    -53.3 1.581e+04 3.146e-08
 44.33518    -56.6 1.617e+04 3.448e-08
 44.34498    -58.1 1.658e+04 3.896e-08
 44.35973    -60.5 1.650e+04 4.059e-08
 44.37939    -63.4 1.609e+04 4.119e-08
 44.39899    -65.6 1.568e+04 3.849e-08
 44.41859    -67.4 1.511e+04 3.313e-08
 44.43820    -68.7 1.443e+04 2.732e-08
 44.45780    -69.5 1.377e+04 2.236e-08
 44.47740    -70.0 1.318e+04 1.797e-08
 44.49017    -70.4 1.259e+04 1.389e-08
 44.49998    -69.9 1.321e+04 1.806e-08
 44.51661    -70.6 1.263e+04 1.388e-08
 44.53621    -71.5 1.220e+04 1.106e-08
 44.55582    -72.1 1.209e+04 9.955e-09
 44.57338    -72.3 1.213e+04 9.806e-09
 44.58318    -73.7 1.332e+04 1.791e-08
 44.59502    -73.6 1.302e+04 1.790e-08
 44.61463    -73.1 1.285e+04 1.870e-08
 44.63423    -72.4 1.290e+04 1.995e-08
 44.65384    -71.9 1.307e+04 2.123e-08
 44.67344    -71.5 1.343e+04 2.261e-08
 44.69304    -71.5 1.391e+04 2.414e-08
 44.71265    -71.8 1.421e+04 2.536e-08
 44.73022    -72.6 1.425e+04 2.569e-08
 44.74002    -72.5 1.407e+04 2.504e-08
 44.75185    -73.2 1.365e+04 2.411e-08
 44.77146    -73.7 1.306e+04 2.244e-08
 44.79106    -73.8 1.253e+04 1.979e-08
 44.81066    -73.6 1.207e+04 1.575e-08
 44.83027    -73.6 1.157e+04 1.094e-08
 44.84987    -74.4 1.098e+04 6.895e-09
 44.86947    -75.9 1.029e+04 4.295e-09
 44.88908    -77.2 9.738e+03 3.037e-09
 44.90868    -77.9 9.520e+03 2.637e-09
 44.92829    -78.1 9.472e+03 2.561e-09
 44.94789    -78.2 9.486e+03 2.581e-09
 44.96749    -78.3 9.626e+03 2.919e-09
 44.98007    -78.0 9.752e+03 3.385e-09
 44.98987    -77.9 9.659e+03 3.168e-09
 45.00670    -77.5 9.798e+03 3.605e-09
 45.02630    -77.2 9.894e+03 3.938e-09
 45.04591    -76.8 9.909e+03 4.078e-09
 45.06551    -76.5 9.902e+03 4.097e-09
 45.08511    -76.2 9.822e+03 4.032e-09
 45.10472    -75.8 9.720e+03 3.865e-09
 45.12432    -75.5 9.634e+03 3.704e-09
 45.14393    -75.3 9.590e+03 3.615e-09
 45.16353    -75.2 9.580e+03 3.602e-09
 45.18313    -75.1 9.661e+03 3.748e-09
 45.19537    -75.2 9.809e+03 4.194e-09
 45.20517    -74.7 9.727e+03 4.014e-09
 45.22012    -74.5 9.834e+03 4.444e-09
 45.22992    -74.5 9.949e+03 5.013e-09
 45.24194    -74.3 1.008e+04 5.563e-09
 45.26155    -74.0 1.022e+04 6.057e-09
 45.28115    -73.7 1.034e+04 6.440e-09
 45.30075    -73.4 1.041e+04 6.698e-09
 45.32036    -73.1 1.046e+04 6.868e-09
 45.33996    -72.7 1.049e+04 6.980e-09
 45.35956    -72.4 1.054e+04 7.096e-09
 45.37917    -72.1 1.062e+04 7.324e-09
 45.39877    -71.9 1.074e+04 7.812e-09
 45.41838    -71.8 1.093e+04 8.785e-09
 45.43798    -72.0 1.128e+04 1.043e-08
 45.45758    -72.2 1.182e+04 1.285e-08
 45.46997    -72.5 1.236e+04 1.581e-08
 45.47977    -73.2 1.270e+04 1.842e-08
 45.49679    -73.3 1.291e+04 2.008e-08
 45.51639    -73.4 1.292e+04 2.024e-08
 45.53600    -73.5 1.268e+04 1.843e-08
 45.55560    -73.8 1.235e+04 1.544e-08
 45.57520    -74.4 1.201e+04 1.278e-08
 45.59481    -75.1 1.171e+04 1.104e-08
 45.61441    -75.6 1.143e+04 1.004e-08
 45.63401    -76.0 1.121e+04 9.712e-09
 45.65362    -76.2 1.108e+04 9.590e-09
 45.67322    -76.3 1.099e+04 9.429e-09
 45.69283    -76.3 1.089e+04 9.131e-09
 45.71001    -76.1 1.075e+04 8.595e-09
 45.71982    -76.4 1.046e+04 7.211e-09
 45.73203    -76.0 1.031e+04 6.894e-09
 45.75164    -75.5 1.015e+04 6.449e-09
 45.77124    -75.0 9.976e+03 5.814e-09
 45.79084    -74.5 9.787e+03 5.131e-09
 45.80756    -74.0 9.601e+03 4.528e-09
 45.81736    -72.1 9.633e+03 4.601e-09
 45.83005    -71.6 9.508e+03 4.276e-09
 45.84965    -71.1 9.401e+03 4.088e-09
 45.86926    -70.5 9.334e+03 3.926e-09
 45.88886    -69.8 9.302e+03 3.798e-09
 45.90846    -69.1 9.278e+03 3.619e-09
 45.92807    -68.3 9.240e+03 3.373e-09
 45.94767    -67.6 9.186e+03 3.108e-09
 45.95986    -67.0 9.134e+03 2.885e-09
 45.96966    -66.8 9.229e+03 3.209e-09
 45.98688    -66.1 9.186e+03 3.022e-09
 46.00648    -65.6 9.176e+03 2.948e-09
 46.02609    -65.1 9.202e+03 2.972e-09
 46.04569    -64.6 9.239e+03 3.141e-09
 46.06529    -64.2 9.341e+03 3.410e-09
 46.08490    -63.7 9.573e+03 3.833e-09
 46.10450    -63.3 9.893e+03 4.449e-09
 46.12410    -63.1 1.025e+04 5.295e-09
 46.14371    -63.1 1.063e+04 6.382e-09
 46.16331    -63.3 1.103e+04 7.791e-09
 46.18292    -63.5 1.143e+04 9.474e-09
 46.19991    -63.7 1.170e+04 1.102e-08
 46.20971    -63.5 1.180e+04 1.195e-08
 46.22212    -63.8 1.189e+04 1.296e-08
 46.24173    -63.9 1.184e+04 1.305e-08
 46.26133    -64.0 1.157e+04 1.176e-08
 46.28093    -64.0 1.119e+04 9.592e-09
 46.30054    -64.0 1.079e+04 7.368e-09
 46.32014    -64.2 1.039e+04 5.575e-09
 46.33974    -64.3 1.002e+04 4.251e-09
 46.35935    -64.3 9.667e+03 3.257e-09
 46.37895    -64.1 9.452e+03 2.570e-09
 46.39855    -63.8 9.500e+03 2.360e-09
 46.41984    -64.9 9.707e+03 2.458e-09
 46.43954    -60.7 9.580e+03 2.264e-09
 46.44995    -60.9 9.537e+03 2.241e-09
 46.46956    -60.1 9.470e+03 2.215e-09
 46.50657    -60.2 9.686e+03 2.514e-09
 46.53588    -61.5 9.865e+03 3.468e-09
 46.55538    -61.4 1.006e+04 4.440e-09
 46.57499    -61.3 1.035e+04 5.741e-09
 46.59459    -61.0 1.075e+04 6.896e-09
 46.61419    -61.2 1.101e+04 7.854e-09
 46.63380    -61.5 1.117e+04 8.472e-09
 46.65340    -61.9 1.123e+04 8.787e-09
 46.67300    -62.7 1.125e+04 8.929e-09
 46.68981    -63.9 1.133e+04 9.058e-09
 46.69961    -62.6 1.164e+04 1.028e-08
 46.71221    -64.2 1.187e+04 1.125e-08
 46.73182    -65.9 1.206e+04 1.298e-08
 46.75142    -67.4 1.216e+04 1.529e-08
 46.77102    -68.6 1.224e+04 1.688e-08
 46.79063    -70.1 1.232e+04 1.754e-08
 46.81023    -72.1 1.241e+04 1.807e-08
 46.82983    -74.4 1.251e+04 1.898e-08
 46.84944    -76.6 1.252e+04 1.976e-08
 46.86904    -78.5 1.245e+04 1.985e-08
 46.88864    -80.3 1.204e+04 1.699e-08
 46.90825    -83.0 1.147e+04 1.205e-08
 46.92785    -86.7 1.086e+04 8.601e-09
 46.93965    -90.5 1.061e+04 7.749e-09
 46.94946    -88.8 1.041e+04 7.343e-09
 46.96706    -91.6 1.026e+04 7.076e-09
 46.98666    -93.4 1.029e+04 7.698e-09
 47.00627    -94.5 1.042e+04 8.659e-09
 47.02587    -95.2 1.050e+04 9.163e-09
 47.04174    -95.9 1.056e+04 9.382e-09
 47.05154    -94.7 1.058e+04 9.164e-09
 47.06508    -95.5 1.075e+04 9.532e-09
 47.08468    -96.2 1.099e+04 1.041e-08
 47.10428    -96.8 1.133e+04 1.216e-08
 47.12389    -97.0 1.180e+04 1.484e-08
 47.14349    -96.9 1.231e+04 1.796e-08
 47.16309    -96.6 1.273e+04 2.087e-08
 47.17970    -96.2 1.304e+04 2.301e-08
 47.18950    -95.3 1.246e+04 1.900e-08
 47.20230    -95.0 1.284e+04 2.078e-08
 47.22191    -95.1 1.368e+04 2.358e-08
 47.24151    -96.4 1.501e+04 3.145e-08
 47.26111    -98.2 1.627e+04 5.035e-08
 47.28072    -99.7 1.712e+04 8.087e-08
 47.30032   -100.8 1.727e+04 1.074e-07
 47.31992   -101.4 1.703e+04 1.068e-07
 47.33458   -101.4 1.628e+04 8.029e-08
 47.34433   -101.3 1.581e+04 6.273e-08
 47.35263   -102.0 1.465e+04 3.791e-08
 47.35753   -101.1 1.545e+04 5.424e-08
 47.36393   -102.1 1.455e+04 3.555e-08
 47.37868   -103.9 1.329e+04 2.266e-08
 47.39834   -104.9 1.221e+04 1.504e-08
 47.41794   -105.2 1.115e+04 1.027e-08
 47.42955   -105.1 1.057e+04 8.375e-09
 47.43935   -104.4 1.076e+04 8.781e-09
 47.45715   -103.5 1.042e+04 7.610e-09
 47.47675   -102.1 1.038e+04 7.139e-09
 47.49636   -100.8 1.036e+04 6.822e-09
 47.51596    -99.4 1.034e+04 6.621e-09
 47.53556    -98.1 1.034e+04 6.570e-09
 47.55517    -96.9 1.037e+04 6.602e-09
 47.57477    -95.9 1.043e+04 6.778e-09
 47.59437    -94.8 1.052e+04 7.097e-09
 47.61398    -93.8 1.062e+04 7.507e-09
 47.63358    -92.8 1.069e+04 7.910e-09
 47.65318    -91.8 1.074e+04 8.210e-09
 47.66373    -90.8 1.075e+04 8.323e-09
 47.67034    -91.4 1.062e+04 7.648e-09
 47.67940    -91.2 1.065e+04 7.577e-09
 47.69239    -90.1 1.054e+04 7.283e-09
 47.71199    -89.0 1.036e+04 6.683e-09
 47.73160    -87.8 1.016e+04 5.840e-09
 47.75120    -86.5 9.971e+03 4.866e-09
 47.77081    -85.2 9.841e+03 3.908e-09
 47.79041    -84.0 9.749e+03 3.180e-09
 47.81001    -83.1 9.682e+03 2.934e-09
 47.83952    -81.5 9.606e+03 2.833e-09
 47.87882    -78.9 9.378e+03 2.464e-09
 47.90984    -76.1 9.184e+03 2.217e-09
 47.92944    -76.0 8.974e+03 1.507e-09
 47.95723    -73.1 8.914e+03 1.483e-09
 47.99644    -70.4 8.934e+03 1.499e-09
 48.03565    -68.0 9.106e+03 1.751e-09
 48.07486    -65.8 9.392e+03 2.198e-09
 48.11406    -63.8 9.732e+03 2.834e-09
 48.14337    -62.5 9.853e+03 3.410e-09
 48.15949    -62.0 9.987e+03 4.119e-09
 48.16930    -62.2 9.944e+03 3.698e-09
 48.18248    -61.3 1.008e+04 4.748e-09
 48.20208    -60.3 1.035e+04 5.672e-09
 48.22169    -59.6 1.058e+04 6.456e-09
 48.24129    -59.0 1.076e+04 6.918e-09
 48.26089    -58.5 1.088e+04 7.036e-09
 48.27591    -58.1 1.096e+04 6.917e-09
 48.28572    -59.2 1.081e+04 5.812e-09
 48.30010    -59.0 1.083e+04 5.553e-09
 48.31971    -58.9 1.082e+04 5.414e-09
 48.33931    -58.8 1.080e+04 5.477e-09
 48.35891    -58.7 1.083e+04 5.694e-09
 48.37852    -58.4 1.094e+04 6.124e-09
 48.39812    -58.3 1.113e+04 6.813e-09
 48.40934    -58.4 1.141e+04 7.867e-09
 48.41914    -58.4 1.129e+04 7.157e-09
 48.43733    -59.1 1.178e+04 8.951e-09
 48.45693    -60.2 1.252e+04 1.310e-08
 48.47653    -61.4 1.335e+04 2.109e-08
 48.49614    -62.3 1.415e+04 3.258e-08
 48.51574    -63.1 1.474e+04 4.181e-08
 48.53535    -64.5 1.492e+04 4.358e-08
 48.55495    -66.1 1.448e+04 3.664e-08
 48.57455    -67.6 1.340e+04 2.267e-08
 48.59416    -69.2 1.213e+04 1.358e-08
 48.61376    -70.3 1.121e+04 9.325e-09
 48.63336    -70.8 1.076e+04 7.412e-09
 48.64939    -71.1 1.058e+04 6.449e-09
 48.65919    -71.1 1.031e+04 5.460e-09
 48.67257    -71.4 1.016e+04 4.921e-09
 48.69217    -71.7 1.008e+04 4.749e-09
 48.71178    -72.0 9.981e+03 4.895e-09
 48.73138    -72.3 1.006e+04 5.527e-09
 48.75098    -72.5 1.020e+04 6.297e-09
 48.77059    -72.7 1.034e+04 7.075e-09
 48.79019    -72.9 1.048e+04 7.838e-09
 48.80980    -73.1 1.059e+04 8.563e-09
 48.82940    -73.3 1.073e+04 9.419e-09
 48.84900    -73.8 1.111e+04 1.094e-08
 48.86861    -74.4 1.170e+04 1.322e-08
 48.88810    -75.2 1.231e+04 1.608e-08
 48.89790    -77.4 1.345e+04 2.519e-08
 48.89924    -78.0 1.364e+04 2.882e-08
 48.90904    -78.4 1.431e+04 3.938e-08
 48.92742    -78.9 1.403e+04 3.780e-08
 48.94702    -79.3 1.341e+04 3.017e-08
 48.96662    -79.8 1.275e+04 2.274e-08
 48.98623    -80.5 1.219e+04 1.749e-08
 49.00583    -81.5 1.187e+04 1.461e-08
 49.02543    -82.6 1.181e+04 1.390e-08
 49.04504    -83.8 1.186e+04 1.401e-08
 49.06464    -85.3 1.225e+04 1.667e-08
 49.08425    -86.4 1.272e+04 2.126e-08
 49.10385    -87.2 1.314e+04 2.566e-08
 49.12345    -88.1 1.336e+04 2.760e-08
 49.13929    -89.2 1.337e+04 2.766e-08
 49.14909    -89.6 1.340e+04 2.814e-08
 49.16266    -90.5 1.305e+04 2.438e-08
 49.18226    -91.2 1.245e+04 1.872e-08
 49.20187    -92.0 1.188e+04 1.366e-08
 49.22147    -93.0 1.173e+04 1.097e-08
 49.24107    -94.6 1.179e+04 1.036e-08
 49.26068    -97.5 1.211e+04 1.052e-08
 49.28028   -101.4 1.356e+04 1.846e-08
 49.29988   -104.1 1.496e+04 4.026e-08
 49.31949   -106.2 1.605e+04 6.584e-08
 49.33909   -109.5 1.653e+04 7.417e-08
 49.35870   -113.7 1.656e+04 6.997e-08
 49.37830   -117.6 1.554e+04 4.210e-08
 49.38913   -121.0 1.362e+04 2.209e-08
 49.39894   -120.4 1.313e+04 1.894e-08
 49.41751   -122.2 1.162e+04 1.173e-08
 49.43711   -122.6 1.065e+04 8.548e-09
 49.45671   -122.5 1.006e+04 6.884e-09
 49.47632   -121.6 9.636e+03 5.785e-09
 49.49592   -120.3 9.372e+03 5.037e-09
 49.51009   -119.0 9.211e+03 4.496e-09
 49.51989   -118.0 9.137e+03 4.333e-09
 49.53513   -116.8 9.014e+03 3.965e-09
 49.55473   -115.5 8.936e+03 3.690e-09
 49.57434   -114.2 8.889e+03 3.508e-09
 49.59394   -113.0 8.873e+03 3.386e-09
 49.61354   -111.8 8.867e+03 3.327e-09
 49.62918   -110.6 8.868e+03 3.316e-09
 49.63898   -110.2 8.818e+03 3.173e-09
 49.65275   -109.0 8.896e+03 3.228e-09
 49.67235   -108.0 9.000e+03 3.430e-09
 49.69196   -106.9 9.114e+03 3.743e-09
 49.71156   -105.8 9.252e+03 4.167e-09
 49.73116   -104.8 9.418e+03 4.711e-09
 49.75077   -103.8 9.611e+03 5.386e-09
 49.77037   -102.7 9.830e+03 6.216e-09
 49.78997   -101.7 1.007e+04 7.203e-09
 49.80958   -100.8 1.033e+04 8.363e-09
 49.82918    -99.8 1.061e+04 9.739e-09
 49.84879    -98.9 1.089e+04 1.127e-08
 49.86839    -97.9 1.116e+04 1.284e-08
 49.87903    -96.9 1.140e+04 1.447e-08
 49.88883    -97.0 1.158e+04 1.588e-08
 49.90760    -96.0 1.173e+04 1.692e-08
 49.92720    -94.9 1.188e+04 1.791e-08
 49.94680    -93.8 1.200e+04 1.878e-08
 49.96641    -92.7 1.208e+04 1.932e-08
 49.98601    -91.6 1.210e+04 1.942e-08
 50.00561    -90.6 1.207e+04 1.910e-08
 50.02522    -89.4 1.193e+04 1.789e-08
 50.04482    -88.2 1.169e+04 1.600e-08
 50.06442    -87.0 1.138e+04 1.378e-08
 50.08403    -85.7 1.106e+04 1.163e-08
 50.10363    -84.4 1.075e+04 9.738e-09
 50.11908    -83.1 1.045e+04 8.165e-09
 50.12792    -83.2 1.025e+04 7.160e-09
 50.13208    -83.2 1.027e+04 7.066e-09
 50.14284    -81.8 1.008e+04 6.125e-09
 50.16244    -80.4 9.933e+03 5.390e-09
 50.18205    -79.2 9.796e+03 4.765e-09
 50.20165    -77.8 9.693e+03 4.263e-09
 50.22125    -76.3 9.655e+03 3.921e-09
 50.24086    -74.9 9.620e+03 3.682e-09
 50.26046    -73.6 9.558e+03 3.467e-09
 50.28006    -72.3 9.512e+03 3.356e-09
 50.29967    -70.7 9.510e+03 3.316e-09
 50.31927    -69.6 9.535e+03 3.310e-09
 50.33887    -68.0 9.611e+03 3.346e-09
 50.35848    -67.1 9.678e+03 3.413e-09
 50.36893    -65.7 9.812e+03 3.720e-09
 50.37873    -65.4 9.685e+03 3.347e-09
 50.39769    -64.4 9.776e+03 3.663e-09
 50.41729    -63.0 9.893e+03 4.112e-09
 50.43689    -61.6 1.001e+04 4.563e-09
 50.45650    -60.2 1.017e+04 5.087e-09
 50.47610    -58.9 1.032e+04 5.572e-09
 50.49570    -57.7 1.043e+04 5.941e-09
 50.51531    -56.3 1.053e+04 6.214e-09
 50.53491    -55.0 1.060e+04 6.315e-09
 50.55451    -53.6 1.066e+04 6.251e-09
 50.57412    -52.2 1.069e+04 6.009e-09
 50.59372    -50.7 1.075e+04 5.837e-09
 50.60897    -49.4 1.086e+04 5.696e-09
 50.61878    -48.8 1.075e+04 5.325e-09
 50.63293    -48.4 1.067e+04 5.167e-09
 50.66243    -45.6 1.051e+04 4.585e-09
 50.70174    -42.4 1.038e+04 4.107e-09
 50.74094    -39.3 1.027e+04 3.687e-09
 50.78015    -36.4 1.025e+04 3.453e-09
 50.81936    -33.9 1.029e+04 3.578e-09
 50.84922    -31.8 1.049e+04 4.880e-09
 50.86882    -31.5 1.112e+04 8.441e-09
 50.89777    -29.3 1.124e+04 1.044e-08
 50.93698    -27.0 1.119e+04 1.089e-08
 50.97619    -24.4 1.076e+04 8.679e-09
 51.01539    -21.8 1.030e+04 5.876e-09
 51.04470    -19.9 1.002e+04 3.980e-09
 51.06421    -19.2 9.872e+03 3.713e-09
 51.08381    -17.6 9.641e+03 3.014e-09
 51.09887    -16.0 9.648e+03 2.965e-09
 51.10867    -16.1 9.589e+03 2.876e-09
 51.12302    -14.5 9.739e+03 3.019e-09
 51.14262    -13.4 9.545e+03 3.068e-09
 51.16223    -11.1 9.531e+03 3.495e-09
 51.18183     -9.5 9.712e+03 3.689e-09
 51.20143     -7.2 9.704e+03 4.463e-09
 51.22104     -5.4 9.786e+03 4.529e-09
 51.24064     -3.3 9.831e+03 3.995e-09
 51.26024     -1.2 9.611e+03 4.100e-09
 51.27985      0.9 9.963e+03 4.334e-09
 51.29945      2.2 1.038e+04 4.927e-09
 51.31905      4.0 1.044e+04 5.666e-09
 51.33866      6.0 1.035e+04 6.395e-09
 51.34872      8.5 1.034e+04 7.261e-09
 51.35672      8.4 9.962e+03 4.998e-09
 51.36626      8.4 9.987e+03 5.217e-09
 51.37786     10.7 1.037e+04 6.629e-09
 51.39747     12.9 1.098e+04 8.763e-09
 51.41707     14.7 1.169e+04 1.171e-08
 51.43668     15.6 1.261e+04 1.666e-08
 51.45628     16.9 1.442e+04 3.660e-08
 51.47588     18.3 1.645e+04 7.670e-08
 51.49054     18.6 1.715e+04 1.067e-07
 51.50029     19.3 1.739e+04 1.376e-07
 51.51009     20.4 1.762e+04 1.690e-07
 51.51989     21.5 1.791e+04 1.904e-07
 51.52969     22.4 1.815e+04 1.916e-07
 51.53950     22.9 1.851e+04 1.792e-07
 51.54930     22.8 1.902e+04 1.597e-07
 51.55910     22.1 1.952e+04 1.473e-07
 51.56890     20.9 1.978e+04 1.531e-07
 51.57870     19.9 1.996e+04 1.861e-07
 51.58851     21.0 2.063e+04 3.336e-07
 51.59357     20.2 2.175e+04 3.291e-07
 51.59847     16.8 1.858e+04 6.883e-08
 51.60811     16.2 1.923e+04 7.539e-08
 51.61791     14.7 1.919e+04 7.777e-08
 51.62771     14.0 1.872e+04 7.539e-08
 51.63751     13.1 1.893e+04 8.100e-08
 51.64732     12.1 1.945e+04 1.009e-07
 51.65712     11.2 2.005e+04 1.419e-07
 51.66692     10.1 2.029e+04 2.251e-07
 51.67226      9.1 2.013e+04 4.006e-07
 51.67716      7.7 2.043e+04 5.109e-07
 51.68652      7.3 1.985e+04 8.450e-07
 51.69633      6.9 1.921e+04 1.328e-06
 51.70613      6.4 1.846e+04 2.452e-06
 51.71359      5.6 1.789e+04 4.148e-06
 51.71849      6.2 1.943e+04 8.231e-07
 51.72573      6.2 1.890e+04 1.253e-06
 51.73553      6.3 1.889e+04 1.458e-06
 51.74533      5.9 1.933e+04 1.299e-06
 51.75514      4.7 2.000e+04 9.889e-07
 51.76494      3.1 2.049e+04 7.078e-07
 51.77474      1.7 2.046e+04 5.201e-07
 51.78454      1.1 2.001e+04 4.026e-07
 51.79434      0.9 1.963e+04 3.377e-07
 51.80415      1.0 1.952e+04 2.883e-07
 51.81395      1.1 1.939e+04 2.477e-07
 51.82375      1.6 1.919e+04 2.126e-07
 51.83355      1.8 1.894e+04 1.900e-07
 51.83852      2.1 1.885e+04 1.667e-07
 51.84342      2.2 1.815e+04 1.322e-07
 51.85315      2.4 1.806e+04 1.238e-07
 51.86296      3.0 1.790e+04 1.142e-07
 51.87276      3.4 1.772e+04 1.008e-07
 51.88751      4.3 1.731e+04 8.952e-08
 51.90716      4.8 1.664e+04 6.334e-08
 51.92677      5.2 1.534e+04 4.530e-08
 51.94637      5.5 1.438e+04 3.557e-08
 51.96597      6.2 1.381e+04 3.204e-08
 51.97845      7.3 1.381e+04 3.259e-08
 51.98825      6.6 1.349e+04 2.832e-08
 52.00518      8.0 1.330e+04 2.734e-08
 52.02478      9.8 1.333e+04 2.636e-08
 52.04439     11.1 1.345e+04 2.557e-08
 52.06399     12.4 1.335e+04 2.293e-08
 52.07866     13.9 1.330e+04 2.077e-08
 52.08846     13.6 1.418e+04 3.103e-08
 52.10320     14.4 1.448e+04 3.098e-08
 52.12280     14.9 1.462e+04 3.143e-08
 52.14240     15.6 1.473e+04 3.322e-08
 52.16201     15.7 1.512e+04 3.759e-08
 52.18161     15.5 1.562e+04 4.538e-08
 52.20122     15.6 1.608e+04 5.678e-08
 52.22082     15.9 1.635e+04 6.709e-08
 52.24042     16.6 1.651e+04 7.489e-08
 52.26003     17.6 1.682e+04 8.261e-08
 52.27963     18.7 1.707e+04 9.010e-08
 52.29923     19.6 1.754e+04 9.546e-08
 52.31871     20.9 1.799e+04 1.026e-07
 52.32851     19.2 1.630e+04 9.150e-08
 52.33844     19.9 1.655e+04 8.756e-08
 52.35804     19.9 1.678e+04 8.658e-08
 52.37765     20.0 1.727e+04 9.306e-08
 52.39230     20.4 1.753e+04 1.046e-07
 52.40205     20.3 1.737e+04 1.032e-07
 52.41186     20.7 1.716e+04 1.026e-07
 52.42166     20.9 1.707e+04 9.996e-08
 52.43146     21.1 1.677e+04 9.014e-08
 52.44126     21.8 1.646e+04 7.895e-08
 52.44844     22.6 1.618e+04 6.552e-08
 52.45334     21.4 1.461e+04 4.225e-08
 52.46087     21.3 1.416e+04 3.594e-08
 52.47067     21.6 1.348e+04 2.819e-08
 52.48047     21.5 1.320e+04 2.529e-08
 52.49027     22.1 1.279e+04 2.122e-08
 52.50007     22.1 1.271e+04 2.058e-08
 52.50987     22.9 1.241e+04 1.817e-08
 52.51968     22.9 1.240e+04 1.795e-08
 52.52948     24.1 1.214e+04 1.632e-08
 52.53928     24.4 1.216e+04 1.625e-08
 52.55403     26.5 1.223e+04 1.645e-08
 52.56856     28.7 1.211e+04 1.534e-08
 52.57836     27.3 1.146e+04 1.253e-08
 52.59064     29.3 1.114e+04 1.094e-08
 52.60044     28.7 1.053e+04 6.961e-09
 52.61289     30.6 1.032e+04 6.104e-09
 52.63249     32.4 1.017e+04 5.450e-09
 52.65210     34.2 1.002e+04 4.949e-09
 52.67170     36.1 9.937e+03 4.670e-09
 52.69130     37.9 1.003e+04 4.710e-09
 52.71091     39.5 1.029e+04 5.104e-09
 52.73051     40.7 1.069e+04 6.037e-09
 52.75012     41.2 1.160e+04 7.852e-09
 52.76972     40.3 1.292e+04 1.145e-08
 52.78932     36.8 1.562e+04 2.381e-08
 52.80398     33.9 1.678e+04 3.707e-08
 52.81341     31.6 1.740e+04 5.044e-08
 52.81831     29.1 1.742e+04 5.960e-08
 52.82353     26.2 1.798e+04 7.969e-08
 52.83333     22.8 1.853e+04 1.047e-07
 52.84314     19.3 1.890e+04 1.415e-07
 52.85294     16.2 1.889e+04 1.727e-07
 52.86274     13.0 1.889e+04 1.748e-07
 52.87254     10.2 1.877e+04 1.657e-07
 52.88234      7.4 1.855e+04 1.397e-07
 52.89214      4.6 1.809e+04 1.095e-07
 52.90153      1.8 1.742e+04 8.044e-08
 52.90644      2.2 1.659e+04 6.608e-08
 52.91175      0.3 1.600e+04 5.705e-08
 52.92155     -1.4 1.571e+04 4.685e-08
 52.93135     -1.6 1.561e+04 4.571e-08
 52.94610     -2.8 1.478e+04 3.441e-08
 52.96576     -4.4 1.356e+04 2.485e-08
 52.98536     -4.6 1.277e+04 2.227e-08
 53.00496     -4.0 1.249e+04 2.152e-08
 53.02457     -3.2 1.271e+04 2.363e-08
 53.04417     -2.3 1.327e+04 2.857e-08
 53.05845     -0.8 1.369e+04 3.308e-08
 53.06826      0.3 1.289e+04 2.567e-08
 53.08338      1.2 1.343e+04 3.019e-08
 53.10298      2.1 1.378e+04 3.359e-08
 53.12258      2.7 1.402e+04 3.659e-08
 53.13724      3.1 1.453e+04 4.407e-08
 53.14699      3.4 1.472e+04 4.689e-08
 53.15679      3.7 1.490e+04 5.156e-08
 53.16659      4.0 1.498e+04 5.400e-08
 53.17640      4.6 1.505e+04 5.715e-08
 53.18328      4.9 1.511e+04 5.888e-08
 53.18818      5.4 1.445e+04 4.693e-08
 53.20095      6.0 1.469e+04 5.186e-08
 53.21263      6.9 1.452e+04 4.702e-08
 53.21748      7.5 1.441e+04 4.840e-08
 53.22540      7.6 1.443e+04 4.857e-08
 53.24016      8.1 1.455e+04 5.000e-08
 53.25981      8.7 1.451e+04 4.360e-08
 53.27941      9.4 1.402e+04 3.352e-08
 53.29850     10.1 1.332e+04 2.595e-08
 53.30830     11.4 1.328e+04 2.649e-08
 53.31862     12.1 1.274e+04 2.153e-08
 53.33822     12.9 1.238e+04 1.776e-08
 53.35783     13.6 1.212e+04 1.539e-08
 53.37743     14.3 1.186e+04 1.372e-08
 53.39703     15.1 1.166e+04 1.282e-08
 53.41664     16.1 1.165e+04 1.286e-08
 53.43624     17.2 1.175e+04 1.343e-08
 53.45584     18.3 1.182e+04 1.393e-08
 53.47545     19.4 1.189e+04 1.385e-08
 53.49505     20.6 1.202e+04 1.332e-08
 53.51466     21.6 1.216e+04 1.250e-08
 53.53426     22.4 1.216e+04 1.151e-08
 53.54835     23.1 1.195e+04 1.064e-08
 53.55815     23.9 1.249e+04 1.394e-08
 53.57347     24.7 1.225e+04 1.235e-08
 53.59307     25.5 1.188e+04 1.053e-08
 53.61267     26.5 1.146e+04 8.532e-09
 53.63228     27.5 1.109e+04 6.513e-09
 53.65188     28.4 1.076e+04 4.867e-09
 53.67148     29.1 1.054e+04 3.783e-09
 53.69109     29.8 1.041e+04 3.194e-09
 53.71069     30.6 1.036e+04 2.874e-09
 53.73029     31.6 1.035e+04 2.703e-09
 53.74990     32.8 1.044e+04 2.578e-09
 53.76950     33.7 1.052e+04 2.522e-09
 53.78840     35.0 1.054e+04 2.472e-09
 53.79820     34.9 1.062e+04 2.823e-09
 53.80871     36.1 1.064e+04 2.808e-09
 53.82482     37.4 1.066e+04 2.854e-09
 53.83462     37.9 1.072e+04 3.206e-09
 53.84792     39.1 1.077e+04 3.314e-09
 53.86752     40.3 1.079e+04 3.448e-09
 53.88712     41.5 1.082e+04 3.656e-09
 53.90673     42.7 1.089e+04 4.031e-09
 53.92633     43.8 1.099e+04 4.563e-09
 53.94593     44.9 1.105e+04 5.171e-09
 53.96554     46.0 1.113e+04 5.822e-09
 53.98514     47.1 1.120e+04 6.371e-09
 54.00475     48.1 1.120e+04 6.546e-09
 54.02435     49.1 1.117e+04 6.462e-09
 54.03825     50.1 1.106e+04 6.101e-09
 54.04805     50.0 1.117e+04 6.363e-09
 54.06356     51.1 1.098e+04 5.546e-09
 54.08316     52.1 1.080e+04 4.758e-09
 54.10276     52.9 1.070e+04 4.092e-09
 54.12237     53.6 1.062e+04 3.660e-09
 54.14197     54.3 1.051e+04 3.375e-09
 54.16157     55.2 1.041e+04 3.145e-09
 54.18118     56.2 1.034e+04 2.947e-09
 54.20078     57.1 1.029e+04 2.812e-09
 54.22038     57.9 1.028e+04 2.801e-09
 54.23999     58.6 1.031e+04 2.849e-09
 54.25959     59.2 1.036e+04 3.082e-09
 54.27829     59.8 1.043e+04 3.458e-09
 54.28809     59.4 1.044e+04 3.454e-09
 54.29880     60.0 1.051e+04 3.751e-09
 54.31840     60.6 1.054e+04 3.869e-09
 54.33801     61.2 1.059e+04 3.938e-09
 54.35761     61.2 1.066e+04 4.090e-09
 54.37721     60.2 1.095e+04 4.524e-09
 54.39682     57.1 1.224e+04 7.096e-09
 54.41642     54.2 1.366e+04 1.871e-08
 54.43602     52.5 1.446e+04 3.777e-08
 54.44681     51.2 1.457e+04 4.385e-08
 54.45661     52.4 1.413e+04 3.714e-08
 54.47523     51.4 1.378e+04 3.227e-08
 54.49483     50.5 1.296e+04 2.105e-08
 54.51444     49.1 1.185e+04 1.177e-08
 54.52814     47.6 1.070e+04 6.873e-09
 54.53794     46.6 1.007e+04 4.727e-09
 54.55365     46.4 9.665e+03 3.686e-09
 54.57325     46.6 9.464e+03 3.529e-09
 54.59285     46.9 9.480e+03 3.550e-09
 54.61246     47.1 9.567e+03 3.646e-09
 54.63206     46.9 9.995e+03 4.366e-09
 54.65166     46.8 1.076e+04 6.496e-09
 54.67127     46.9 1.149e+04 1.003e-08
 54.69087     47.2 1.209e+04 1.472e-08
 54.71047     47.7 1.254e+04 1.954e-08
 54.73008     48.2 1.284e+04 2.316e-08
 54.74968     48.8 1.293e+04 2.431e-08
 54.76819     49.3 1.280e+04 2.327e-08
 54.77799     49.8 1.263e+04 2.122e-08
 54.78889     50.3 1.246e+04 1.986e-08
 54.80849     50.8 1.225e+04 1.836e-08
 54.82810     51.4 1.200e+04 1.692e-08
 54.84770     52.0 1.171e+04 1.569e-08
 54.86730     52.8 1.150e+04 1.472e-08
 54.88691     53.3 1.156e+04 1.435e-08
 54.90651     52.8 1.200e+04 1.535e-08
 54.92611     49.8 1.378e+04 2.270e-08
 54.94572     46.6 1.571e+04 4.596e-08
 54.96532     44.5 1.589e+04 6.300e-08
 54.98492     43.4 1.535e+04 5.697e-08
 55.00453     43.4 1.401e+04 3.532e-08
 55.01804     42.7 1.242e+04 1.578e-08
 55.02784     42.5 1.240e+04 1.255e-08
 55.04373     39.0 1.040e+04 4.909e-09
 55.05899     37.5 9.528e+03 3.227e-09
 55.06880     38.7 9.595e+03 3.330e-09
 55.08294     38.8 9.263e+03 2.874e-09
 55.10255     39.5 9.182e+03 2.821e-09
 55.12215     40.3 9.418e+03 3.001e-09
 55.14175     40.3 9.835e+03 3.745e-09
 55.16136     40.0 1.043e+04 5.740e-09
 55.18096     39.3 1.129e+04 1.040e-08
 55.20056     39.0 1.235e+04 1.952e-08
 55.22017     39.3 1.315e+04 3.056e-08
 55.23977     39.5 1.345e+04 3.489e-08
 55.25809     39.6 1.329e+04 3.329e-08
 55.26789     39.1 1.330e+04 3.345e-08
 55.27898     39.1 1.287e+04 2.773e-08
 55.29858     38.5 1.237e+04 2.106e-08
 55.31819     37.4 1.174e+04 1.602e-08
 55.33779     36.7 1.107e+04 1.301e-08
 55.35739     36.7 1.059e+04 1.123e-08
 55.37700     36.9 1.022e+04 9.589e-09
 55.39660     37.1 9.904e+03 8.055e-09
 55.41620     37.0 9.632e+03 6.790e-09
 55.43581     36.8 9.416e+03 5.905e-09
 55.45541     36.4 9.231e+03 5.318e-09
 55.47501     36.1 9.052e+03 4.815e-09
 55.49462     35.8 8.893e+03 4.293e-09
 55.50793     35.2 8.771e+03 3.889e-09
 55.51774     35.7 8.774e+03 3.976e-09
 55.53382     34.8 8.672e+03 3.706e-09
 55.55343     33.9 8.695e+03 3.775e-09
 55.57303     32.9 8.834e+03 4.193e-09
 55.59264     31.7 9.236e+03 5.328e-09
 55.61224     29.9 1.003e+04 7.640e-09
 55.63184     27.8 1.131e+04 1.279e-08
 55.65145     26.2 1.242e+04 2.121e-08
 55.67105     25.3 1.296e+04 2.658e-08
 55.68098     24.4 1.286e+04 2.563e-08
 55.69079     24.9 1.250e+04 2.258e-08
 55.71026     24.3 1.205e+04 1.893e-08
 55.72986     23.6 1.134e+04 1.344e-08
 55.74798     22.7 1.055e+04 8.990e-09
 55.75778     23.8 1.061e+04 9.974e-09
 55.76907     23.1 9.865e+03 6.601e-09
 55.79857     23.0 9.366e+03 4.716e-09
 55.83788     23.3 8.732e+03 3.230e-09
 55.87708     24.6 8.663e+03 3.135e-09
 55.91629     26.5 8.670e+03 3.183e-09
 55.95550     28.6 8.628e+03 3.041e-09
 55.99470     30.7 8.519e+03 2.807e-09
 56.03391     32.7 8.380e+03 2.516e-09
 56.07312     34.8 8.236e+03 2.207e-09
 56.11233     36.9 8.077e+03 1.904e-09
 56.15153     39.2 8.008e+03 1.666e-09
 56.19074     41.6 8.048e+03 1.631e-09
 56.22827     44.0 8.147e+03 1.705e-09
 56.24787     45.4 7.991e+03 1.612e-09
 56.26915     47.9 8.113e+03 1.771e-09
 56.29337     50.3 8.173e+03 1.983e-09
 56.31297     50.9 8.040e+03 1.798e-09
 56.34757     53.4 8.046e+03 1.887e-09
 56.38678     55.8 8.019e+03 1.862e-09
 56.42598     58.4 7.965e+03 1.805e-09
 56.46519     61.2 7.986e+03 1.809e-09
 56.50440     64.0 8.128e+03 1.908e-09
 56.54360     66.3 8.475e+03 2.288e-09
 56.57291     67.7 8.602e+03 2.638e-09
 56.59242     68.4 8.806e+03 3.167e-09
 56.61202     69.2 9.336e+03 4.828e-09
 56.63163     70.1 9.995e+03 7.430e-09
 56.65123     71.2 1.071e+04 1.079e-08
 56.67083     72.1 1.138e+04 1.441e-08
 56.69044     72.3 1.197e+04 1.770e-08
 56.71004     72.0 1.263e+04 2.097e-08
 56.72777     70.7 1.342e+04 2.525e-08
 56.73757     72.8 1.223e+04 1.709e-08
 56.74925     70.7 1.312e+04 2.125e-08
 56.76885     68.3 1.372e+04 2.618e-08
 56.78350     67.4 1.412e+04 2.997e-08
 56.79326     65.1 1.540e+04 3.883e-08
 56.80306     60.8 1.764e+04 6.455e-08
 56.81286     56.2 1.910e+04 1.270e-07
 56.82266     52.8 1.940e+04 2.491e-07
 56.83246     50.5 1.936e+04 3.843e-07
 56.84227     48.5 1.915e+04 3.888e-07
 56.85207     47.2 1.895e+04 3.287e-07
 56.85750     45.5 1.914e+04 2.177e-07
 56.86240     47.1 1.898e+04 2.330e-07
 56.87167     43.4 1.981e+04 1.357e-07
 56.88147     36.0 2.011e+04 8.989e-08
 56.89128     27.9 1.861e+04 8.621e-08
 56.90108     21.3 1.865e+04 1.062e-07
 56.91016     16.3 1.916e+04 1.812e-07
 56.91506     14.5 2.038e+04 2.895e-07
 56.92068      8.1 2.028e+04 1.032e-06
 56.92801      2.5 1.944e+04 2.308e-06
 56.93288      2.1 1.954e+04 2.376e-06
 56.93778     -4.6 1.915e+04 3.440e-06
 56.94269     -5.3 1.927e+04 3.546e-06
 56.95006    -14.3 1.839e+04 5.066e-06
 56.95989    -22.2 1.799e+04 5.877e-06
 56.96969    -26.4 1.722e+04 8.759e-06
 56.97752    -27.9 1.717e+04 8.878e-06
 56.98243    -29.6 1.900e+04 2.332e-06
 56.98929    -31.0 2.088e+04 8.940e-07
 56.99909    -33.2 2.698e+04 1.326e-07
 57.00890    -39.4 2.186e+04 4.177e-08
 57.02365    -43.8 1.521e+04 3.656e-08
 57.04330    -43.7 1.455e+04 3.232e-08
 57.06290    -43.2 1.414e+04 2.928e-08
 57.08251    -42.9 1.380e+04 2.885e-08
 57.10211    -42.3 1.425e+04 3.243e-08
 57.12171    -41.8 1.465e+04 3.750e-08
 57.13637    -41.3 1.472e+04 3.900e-08
 57.14612    -41.2 1.474e+04 3.962e-08
 57.15592    -40.7 1.481e+04 4.124e-08
 57.16573    -40.5 1.481e+04 4.148e-08
 57.17553    -40.0 1.480e+04 3.960e-08
 57.18533    -39.9 1.476e+04 3.843e-08
 57.19513    -39.8 1.466e+04 3.455e-08
 57.20493    -39.8 1.466e+04 3.423e-08
 57.21762    -39.9 1.465e+04 3.339e-08
 57.22747    -39.9 1.617e+04 6.993e-08
 57.23934    -40.3 1.524e+04 4.778e-08
 57.25894    -40.7 1.445e+04 3.669e-08
 57.27854    -40.8 1.408e+04 3.279e-08
 57.29815    -40.6 1.398e+04 3.264e-08
 57.31775    -40.1 1.401e+04 3.368e-08
 57.33735    -39.7 1.413e+04 3.508e-08
 57.35696    -39.6 1.421e+04 3.611e-08
 57.37656    -39.6 1.422e+04 3.657e-08
 57.39617    -39.6 1.421e+04 3.772e-08
 57.41577    -39.4 1.427e+04 4.063e-08
 57.43537    -39.1 1.446e+04 4.549e-08
 57.45498    -38.4 1.479e+04 5.243e-08
 57.46752    -37.9 1.515e+04 5.932e-08
 57.47732    -38.0 1.530e+04 5.820e-08
 57.49418    -37.8 1.554e+04 6.164e-08
 57.51379    -38.0 1.555e+04 5.867e-08
 57.52735    -38.9 1.524e+04 4.851e-08
 57.53715    -39.3 1.350e+04 2.519e-08
 57.55299    -40.3 1.297e+04 2.180e-08
 57.57260    -41.3 1.255e+04 1.922e-08
 57.59220    -42.1 1.208e+04 1.643e-08
 57.61180    -42.9 1.194e+04 1.539e-08
 57.63141    -43.7 1.188e+04 1.364e-08
 57.65101    -44.5 1.175e+04 1.226e-08
 57.67062    -45.3 1.177e+04 1.173e-08
 57.69022    -47.0 1.260e+04 1.245e-08
 57.70757    -50.2 1.434e+04 2.086e-08
 57.71737    -50.4 1.385e+04 1.801e-08
 57.72943    -52.8 1.491e+04 3.458e-08
 57.74903    -54.2 1.549e+04 5.562e-08
 57.76863    -55.5 1.562e+04 6.333e-08
 57.78824    -56.8 1.509e+04 5.216e-08
 57.80784    -58.5 1.403e+04 3.092e-08
 57.82744    -60.8 1.282e+04 1.838e-08
 57.84705    -62.3 1.206e+04 1.377e-08
 57.86665    -62.7 1.174e+04 1.185e-08
 57.88625    -62.7 1.157e+04 1.042e-08
 57.90586    -62.5 1.140e+04 9.023e-09
 57.92546    -62.0 1.121e+04 7.676e-09
 57.94507    -61.3 1.105e+04 6.504e-09
 57.95741    -60.5 1.092e+04 5.504e-09
 57.96722    -59.9 1.080e+04 5.014e-09
 57.98427    -59.0 1.072e+04 4.304e-09
 58.00388    -58.1 1.065e+04 3.717e-09
 58.02348    -57.3 1.058e+04 3.287e-09
 58.04308    -56.4 1.052e+04 3.047e-09
 58.06269    -55.4 1.050e+04 2.986e-09
 58.08229    -54.4 1.054e+04 2.984e-09
 58.10189    -53.7 1.068e+04 3.175e-09
 58.12150    -52.9 1.077e+04 3.669e-09
 58.13954    -52.2 1.093e+04 4.366e-09
 58.14934    -51.9 1.105e+04 4.765e-09
 58.16070    -51.2 1.126e+04 5.556e-09
 58.18031    -50.6 1.149e+04 6.235e-09
 58.19746    -50.0 1.166e+04 6.603e-09
 58.20726    -49.3 1.160e+04 6.740e-09
 58.21952    -48.9 1.167e+04 6.861e-09
 58.23912    -48.4 1.170e+04 6.536e-09
 58.25872    -47.8 1.162e+04 5.489e-09
 58.27833    -47.2 1.147e+04 4.452e-09
 58.29793    -46.5 1.125e+04 3.608e-09
 58.31753    -45.6 1.103e+04 2.962e-09
 58.33714    -44.6 1.092e+04 2.523e-09
 58.35674    -43.6 1.091e+04 2.274e-09
 58.38624    -42.4 1.091e+04 2.103e-09
 58.42555    -40.1 1.074e+04 1.854e-09
 58.46476    -37.7 1.070e+04 1.771e-09
 58.50396    -35.2 1.073e+04 1.764e-09
 58.54317    -33.3 1.103e+04 2.016e-09
 58.57248    -31.5 1.121e+04 2.406e-09
 58.59198    -31.1 1.136e+04 2.905e-09
 58.61159    -30.3 1.156e+04 3.904e-09
 58.63119    -29.5 1.176e+04 5.063e-09
 58.65079    -28.8 1.192e+04 6.328e-09
 58.67040    -28.3 1.204e+04 7.516e-09
 58.68736    -28.1 1.205e+04 8.278e-09
 58.69716    -27.4 1.207e+04 7.785e-09
 58.70961    -27.4 1.211e+04 8.819e-09
 58.72921    -27.5 1.216e+04 1.028e-08
 58.74881    -27.5 1.230e+04 1.261e-08
 58.76153    -27.4 1.246e+04 1.566e-08
 58.77133    -27.3 1.244e+04 1.481e-08
 58.78802    -26.9 1.259e+04 1.739e-08
 58.80762    -26.5 1.268e+04 1.827e-08
 58.82723    -26.3 1.264e+04 1.717e-08
 58.84683    -26.2 1.250e+04 1.457e-08
 58.86643    -26.4 1.235e+04 1.234e-08
 58.88604    -26.4 1.225e+04 1.101e-08
 58.90564    -26.3 1.208e+04 1.149e-08
 58.92524    -25.9 1.208e+04 1.252e-08
 58.93721    -25.1 1.215e+04 1.408e-08
 58.94701    -24.8 1.227e+04 1.459e-08
 58.96445    -24.1 1.242e+04 1.620e-08
 58.98406    -23.3 1.259e+04 1.859e-08
 59.00366    -22.4 1.277e+04 2.094e-08
 59.02326    -21.5 1.299e+04 2.287e-08
 59.04287    -20.7 1.318e+04 2.385e-08
 59.06247    -20.1 1.333e+04 2.411e-08
 59.08207    -19.6 1.345e+04 2.435e-08
 59.10168    -19.3 1.361e+04 2.472e-08
 59.12128    -19.0 1.386e+04 2.597e-08
 59.14088    -19.0 1.421e+04 2.912e-08
 59.16049    -19.0 1.455e+04 3.414e-08
 59.17725    -19.0 1.487e+04 4.030e-08
 59.18705    -20.4 1.551e+04 5.661e-08
 59.19969    -20.3 1.562e+04 6.044e-08
 59.21930    -20.5 1.555e+04 5.905e-08
 59.23890    -21.5 1.547e+04 5.181e-08
 59.25851    -24.0 1.538e+04 4.729e-08
 59.27811    -27.4 1.552e+04 4.963e-08
 59.29771    -30.0 1.580e+04 6.292e-08
 59.31732    -31.1 1.607e+04 8.000e-08
 59.33692    -31.6 1.614e+04 8.403e-08
 59.35652    -32.3 1.596e+04 7.376e-08
 59.37372    -33.4 1.552e+04 5.822e-08
 59.38352    -31.8 1.665e+04 8.579e-08
 59.39573    -33.1 1.593e+04 6.376e-08
 59.41533    -34.1 1.527e+04 5.176e-08
 59.42710    -34.3 1.473e+04 4.404e-08
 59.43690    -32.0 1.502e+04 5.283e-08
 59.45454    -31.9 1.489e+04 5.082e-08
 59.47414    -31.6 1.478e+04 4.840e-08
 59.49375    -31.0 1.449e+04 4.196e-08
 59.51335    -30.4 1.396e+04 3.231e-08
 59.53296    -29.6 1.319e+04 2.248e-08
 59.55256    -28.8 1.226e+04 1.524e-08
 59.57216    -28.3 1.147e+04 1.028e-08
 59.59177    -27.8 1.074e+04 6.787e-09
 59.61137    -27.1 1.031e+04 4.960e-09
 59.63097    -26.5 1.025e+04 3.537e-09
 59.65058    -26.0 1.001e+04 3.208e-09
 59.66725    -25.2 9.844e+03 2.769e-09
 59.67705    -23.0 1.067e+04 5.715e-09
 59.68978    -22.3 1.052e+04 5.354e-09
 59.71929    -20.4 1.125e+04 6.525e-09
 59.75859    -19.6 1.163e+04 6.290e-09
 59.79780    -19.6 1.164e+04 7.475e-09
 59.83701    -20.2 1.135e+04 9.350e-09
 59.87621    -21.6 1.071e+04 9.539e-09
 59.91542    -23.1 9.346e+03 6.423e-09
 59.95463    -24.8 8.010e+03 3.340e-09
 59.98610    -25.2 7.642e+03 2.448e-09
 60.00570    -23.7 7.701e+03 2.513e-09
 60.03304    -23.7 7.461e+03 2.097e-09
 60.07225    -22.8 7.383e+03 1.908e-09
 60.11146    -21.8 7.413e+03 1.800e-09
 60.14744    -21.1 7.546e+03 1.789e-09
 60.16704    -21.4 7.841e+03 2.034e-09
 60.18987    -21.1 8.185e+03 2.471e-09
 60.22908    -20.2 8.582e+03 2.790e-09
 60.26829    -19.3 8.828e+03 2.844e-09
 60.30749    -18.5 9.141e+03 2.626e-09
 60.34670    -18.5 9.393e+03 3.203e-09
 60.37601    -20.3 1.090e+04 6.583e-09
 60.39551    -20.2 1.116e+04 7.480e-09
 60.40689    -19.6 1.251e+04 1.116e-08
 60.41670    -19.7 1.188e+04 9.068e-09
 60.43472    -19.5 1.306e+04 1.382e-08
 60.45432    -20.6 1.438e+04 2.067e-08
 60.47393    -22.9 1.600e+04 3.748e-08
 60.49353    -25.5 1.684e+04 7.296e-08
 60.51313    -27.2 1.725e+04 1.245e-07
 60.53274    -28.4 1.747e+04 1.548e-07
 60.55234    -29.9 1.742e+04 1.430e-07
 60.57195    -32.0 1.635e+04 6.608e-08
 60.59155    -34.6 1.484e+04 2.469e-08
 60.60790    -36.2 1.389e+04 1.435e-08
 60.61770    -35.0 1.412e+04 1.510e-08
 60.63076    -36.0 1.350e+04 1.115e-08
 60.64694    -36.2 1.335e+04 1.022e-08
 60.65674    -37.3 1.349e+04 1.126e-08
 60.66996    -36.9 1.346e+04 1.109e-08
 60.68957    -36.5 1.355e+04 1.114e-08
 60.70917    -36.0 1.362e+04 1.070e-08
 60.72877    -35.5 1.355e+04 9.521e-09
 60.74838    -35.2 1.342e+04 8.130e-09
 60.76798    -35.1 1.323e+04 6.999e-09
 60.78759    -34.8 1.314e+04 6.293e-09
 60.80719    -34.4 1.311e+04 6.059e-09
 60.82679    -33.8 1.309e+04 5.916e-09
 60.84640    -33.2 1.311e+04 5.726e-09
 60.86600    -32.6 1.311e+04 5.536e-09
 60.88560    -32.0 1.310e+04 5.465e-09
 60.89679    -31.3 1.305e+04 5.642e-09
 60.90659    -31.7 1.293e+04 4.786e-09
 60.92481    -30.8 1.295e+04 4.824e-09
 60.94441    -29.8 1.295e+04 4.856e-09
 60.96402    -28.7 1.297e+04 4.886e-09
 60.98362    -27.6 1.304e+04 5.013e-09
 61.00322    -26.7 1.308e+04 5.234e-09
 61.02283    -25.7 1.304e+04 5.492e-09
 61.04243    -24.7 1.296e+04 5.757e-09
 61.06204    -23.8 1.289e+04 5.988e-09
 61.08164    -22.7 1.282e+04 6.045e-09
 61.10124    -21.6 1.275e+04 5.828e-09
 61.12085    -20.5 1.274e+04 5.579e-09
 61.13684    -19.5 1.269e+04 5.112e-09
 61.14664    -19.3 1.260e+04 4.113e-09
 61.16005    -18.3 1.253e+04 3.815e-09
 61.17966    -17.3 1.248e+04 3.645e-09
 61.20916    -15.9 1.250e+04 3.263e-09
 61.23008    -13.8 1.232e+04 2.979e-09
 61.24968    -13.2 1.232e+04 2.945e-09
 61.28767    -11.0 1.198e+04 2.662e-09
 61.32688     -8.3 1.171e+04 2.447e-09
 61.36609     -5.7 1.174e+04 2.107e-09
 61.40529     -3.0 1.170e+04 1.788e-09
 61.44450     -0.4 1.166e+04 1.512e-09
 61.48371      2.3 1.163e+04 1.333e-09
 61.52291      5.2 1.164e+04 1.267e-09
 61.56212      8.1 1.172e+04 1.243e-09
 61.60133     10.9 1.184e+04 1.234e-09
 61.62693     13.3 1.201e+04 1.333e-09
 61.64653     13.7 1.194e+04 1.179e-09
 61.67974     16.5 1.189e+04 1.503e-09
 61.71895     19.3 1.206e+04 1.532e-09
 61.75816     21.9 1.224e+04 1.417e-09
 61.79736     24.2 1.243e+04 1.295e-09
 61.83657     26.7 1.256e+04 1.232e-09
 61.87578     29.3 1.261e+04 1.241e-09
 61.91499     31.9 1.277e+04 1.267e-09
 61.95419     34.7 1.291e+04 1.294e-09
 61.99340     37.4 1.294e+04 1.326e-09
 62.03261     40.0 1.286e+04 1.404e-09
 62.07182     42.5 1.265e+04 1.652e-09
 62.10702     45.0 1.260e+04 2.129e-09
 62.12663     45.3 1.277e+04 1.813e-09
 62.15023     47.8 1.289e+04 2.210e-09
 62.18944     49.9 1.279e+04 2.487e-09
 62.22864     51.9 1.268e+04 2.501e-09
 62.26785     54.0 1.249e+04 2.489e-09
 62.30706     56.0 1.233e+04 2.445e-09
 62.34627     58.1 1.222e+04 2.389e-09
 62.38547     60.2 1.212e+04 2.382e-09
 62.42468     62.2 1.202e+04 2.486e-09
 62.45399     63.6 1.187e+04 2.575e-09
 62.46406     64.8 1.180e+04 2.801e-09
 62.47387     64.7 1.180e+04 2.845e-09
 62.49310     65.6 1.184e+04 3.215e-09
 62.51270     66.4 1.188e+04 3.706e-09
 62.53230     67.0 1.196e+04 4.400e-09
 62.55191     67.6 1.216e+04 5.387e-09
 62.57151     68.0 1.242e+04 6.838e-09
 62.59111     68.1 1.272e+04 9.086e-09
 62.60653     68.1 1.306e+04 1.272e-08
 62.61633     67.5 1.337e+04 1.587e-08
 62.63032     67.5 1.370e+04 2.180e-08
 62.64993     67.4 1.403e+04 2.751e-08
 62.66953     67.1 1.425e+04 2.956e-08
 62.68913     66.4 1.426e+04 2.825e-08
 62.70874     65.6 1.407e+04 2.411e-08
 62.72834     64.7 1.372e+04 1.959e-08
 62.74794     64.0 1.333e+04 1.572e-08
 62.76755     63.8 1.298e+04 1.272e-08
 62.78715     63.8 1.272e+04 1.048e-08
 62.80675     64.2 1.250e+04 8.734e-09
 62.82636     64.5 1.232e+04 7.496e-09
 62.84596     65.0 1.211e+04 6.819e-09
 62.85637     65.6 1.190e+04 6.679e-09
 62.86618     65.5 1.223e+04 9.038e-09
 62.88517     66.2 1.222e+04 9.209e-09
 62.90477     67.0 1.225e+04 9.837e-09
 62.92438     67.7 1.237e+04 1.064e-08
 62.94398     68.5 1.249e+04 1.117e-08
 62.96358     69.2 1.252e+04 1.161e-08
 62.98319     69.7 1.262e+04 1.220e-08
 63.00279     70.2 1.277e+04 1.276e-08
 63.02239     70.5 1.286e+04 1.360e-08
 63.04200     70.9 1.288e+04 1.447e-08
 63.06160     71.4 1.287e+04 1.493e-08
 63.07625     71.9 1.285e+04 1.449e-08
 63.08605     72.1 1.285e+04 1.563e-08
 63.09642     72.7 1.285e+04 1.506e-08
 63.10622     72.6 1.397e+04 3.070e-08
 63.12041     73.0 1.393e+04 3.067e-08
 63.14002     73.6 1.375e+04 2.885e-08
 63.15962     74.2 1.345e+04 2.301e-08
 63.17922     74.9 1.303e+04 1.669e-08
 63.19883     75.5 1.256e+04 1.144e-08
 63.21843     76.0 1.210e+04 8.046e-09
 63.23803     76.6 1.172e+04 6.306e-09
 63.25764     77.3 1.147e+04 5.574e-09
 63.27724     78.2 1.134e+04 5.343e-09
 63.29684     79.1 1.129e+04 5.377e-09
 63.31645     80.0 1.129e+04 5.547e-09
 63.33605     80.9 1.131e+04 5.729e-09
 63.34627     81.8 1.135e+04 5.727e-09
 63.35607     81.8 1.137e+04 5.581e-09
 63.37526     82.6 1.136e+04 5.247e-09
 63.39486     83.4 1.137e+04 4.861e-09
 63.41447     84.2 1.137e+04 4.486e-09
 63.43407     85.2 1.137e+04 4.144e-09
 63.45367     86.2 1.138e+04 3.848e-09
 63.47328     87.2 1.140e+04 3.597e-09
 63.49288     88.1 1.143e+04 3.374e-09
 63.51248     89.2 1.147e+04 3.225e-09
 63.53209     90.3 1.149e+04 3.207e-09
 63.55169     91.4 1.150e+04 3.229e-09
 63.57129     92.5 1.149e+04 3.305e-09
 63.58632     93.7 1.151e+04 3.477e-09
 63.59612     93.4 1.144e+04 3.598e-09
 63.61050     94.6 1.146e+04 3.832e-09
 63.63010     95.9 1.146e+04 4.096e-09
 63.64971     97.4 1.151e+04 4.409e-09
 63.66931     98.5 1.169e+04 4.782e-09
 63.68844     98.5 1.192e+04 5.234e-09
 63.69824     98.4 1.177e+04 4.620e-09
 63.70852     98.1 1.205e+04 5.652e-09
 63.72812     96.9 1.259e+04 8.335e-09
 63.74773     95.0 1.341e+04 1.483e-08
 63.76733     93.1 1.440e+04 2.766e-08
 63.78693     91.6 1.530e+04 4.330e-08
 63.80654     90.3 1.598e+04 5.095e-08
 63.82614     89.0 1.604e+04 5.041e-08
 63.83617     88.5 1.601e+04 4.757e-08
 63.84597     89.0 1.524e+04 3.604e-08
 63.86535     88.6 1.515e+04 2.929e-08
 63.88495     88.6 1.535e+04 2.853e-08
 63.90455     89.0 1.569e+04 3.000e-08
 63.92416     89.6 1.647e+04 3.622e-08
 63.94376     89.8 1.740e+04 6.024e-08
 63.96337     90.8 1.838e+04 1.188e-07
 63.97802     91.3 1.880e+04 1.588e-07
 63.98777     91.7 1.916e+04 1.982e-07
 63.99757     91.9 1.947e+04 2.649e-07
 64.00424     91.7 1.966e+04 3.651e-07
 64.00914     91.8 1.976e+04 3.466e-07
 64.01718     91.8 1.980e+04 4.855e-07
 64.02698     91.9 1.975e+04 6.808e-07
 64.03678     91.8 1.970e+04 8.857e-07
 64.04658     91.2 1.969e+04 1.019e-06
 64.05639     90.2 1.964e+04 1.042e-06
 64.06619     88.6 1.965e+04 1.005e-06
 64.07599     86.2 1.972e+04 9.395e-07
 64.08102     82.9 1.998e+04 7.754e-07
 64.08592     82.6 2.097e+04 2.036e-07
 64.09559     80.5 2.037e+04 1.838e-07
 64.10539     79.5 1.973e+04 1.621e-07
 64.12015     81.1 1.865e+04 1.090e-07
 64.13980     82.1 1.742e+04 7.102e-08
 64.15940     83.7 1.637e+04 4.353e-08
 64.17901     85.1 1.559e+04 2.781e-08
 64.19861     86.6 1.498e+04 1.967e-08
 64.21821     88.4 1.448e+04 1.635e-08
 64.23782     90.3 1.428e+04 1.503e-08
 64.25742     92.2 1.427e+04 1.442e-08
 64.27702     93.9 1.426e+04 1.383e-08
 64.29663     95.7 1.418e+04 1.318e-08
 64.31043     97.4 1.403e+04 1.261e-08
 64.32023     96.2 1.405e+04 1.255e-08
 64.33583     97.7 1.389e+04 1.281e-08
 64.35544     98.9 1.369e+04 1.195e-08
 64.37504    100.1 1.358e+04 1.106e-08
 64.39464    101.1 1.366e+04 1.035e-08
 64.41425    101.3 1.397e+04 9.859e-09
 64.43385    101.2 1.445e+04 1.012e-08
 64.45346    100.5 1.500e+04 1.032e-08
 64.47306     98.1 1.451e+04 1.191e-08
 64.49266     94.7 1.442e+04 1.743e-08
 64.51227     92.4 1.485e+04 2.529e-08
 64.53187     91.1 1.451e+04 3.108e-08
 64.55147     91.0 1.395e+04 3.027e-08
 64.56611     91.0 1.367e+04 2.694e-08
 64.57591     90.7 1.391e+04 2.789e-08
 64.59068     90.7 1.359e+04 2.339e-08
 64.61028     90.8 1.329e+04 2.190e-08
 64.62989     91.3 1.316e+04 2.156e-08
 64.64949     92.3 1.312e+04 2.145e-08
 64.66909     93.3 1.307e+04 2.128e-08
 64.68870     94.3 1.297e+04 2.077e-08
 64.70830     95.3 1.282e+04 1.988e-08
 64.72791     96.1 1.265e+04 1.862e-08
 64.74751     97.0 1.241e+04 1.756e-08
 64.76711     97.8 1.223e+04 1.636e-08
 64.78672     98.6 1.211e+04 1.578e-08
 64.80616     99.6 1.212e+04 1.596e-08
 64.81596     98.4 1.301e+04 2.208e-08
 64.82592     99.2 1.311e+04 2.324e-08
 64.84553    100.0 1.323e+04 2.460e-08
 64.86513    100.9 1.341e+04 2.622e-08
 64.88473    101.6 1.368e+04 2.830e-08
 64.90434    102.2 1.412e+04 3.139e-08
 64.92262    102.0 1.471e+04 3.643e-08
 64.93242    101.0 1.471e+04 3.644e-08
 64.94354    100.5 1.530e+04 4.450e-08
 64.96315     99.7 1.592e+04 5.707e-08
 64.98275     98.6 1.651e+04 7.504e-08
 65.00236     97.5 1.701e+04 9.785e-08
 65.02196     96.3 1.698e+04 9.489e-08
 65.04156     95.0 1.677e+04 7.885e-08
 65.05601     93.5 1.616e+04 5.219e-08
 65.06581     90.1 1.370e+04 1.958e-08
 65.08077     87.7 1.208e+04 1.146e-08
 65.10037     85.9 1.085e+04 8.445e-09
 65.11998     85.3 1.030e+04 7.353e-09
 65.13958     85.5 1.010e+04 6.758e-09
 65.15918     86.1 9.975e+03 6.226e-09
 65.17879     86.8 9.867e+03 5.755e-09
 65.19839     87.5 9.756e+03 5.382e-09
 65.21800     88.2 9.624e+03 5.191e-09
 65.23760     89.0 9.550e+03 5.180e-09
 65.25720     89.8 9.548e+03 5.187e-09
 65.27681     90.5 9.567e+03 5.294e-09
 65.29605     91.2 9.654e+03 5.646e-09
 65.30585     91.1 9.610e+03 5.525e-09
 65.31601     91.6 9.724e+03 5.992e-09
 65.33562     92.0 9.824e+03 6.481e-09
 65.35522     92.4 9.886e+03 6.870e-09
 65.37482     92.8 9.929e+03 7.090e-09
 65.39443     93.2 9.967e+03 7.212e-09
 65.41403     93.6 1.000e+04 7.319e-09
 65.43363     93.9 1.007e+04 7.531e-09
 65.45324     94.1 1.020e+04 7.923e-09
 65.47284     94.1 1.042e+04 8.638e-09
 65.49245     94.0 1.074e+04 9.827e-09
 65.51205     93.2 1.133e+04 1.222e-08
 65.53165     91.7 1.240e+04 1.776e-08
 65.54461     89.9 1.362e+04 2.844e-08
 65.54906     91.7 1.321e+04 2.283e-08
 65.55570     90.6 1.414e+04 3.184e-08
 65.56591     89.6 1.472e+04 4.111e-08
 65.57566     88.7 1.543e+04 5.431e-08
 65.58546     87.8 1.603e+04 7.399e-08
 65.59527     87.1 1.640e+04 9.473e-08
 65.60507     85.5 1.779e+04 1.233e-07
 65.61487     81.2 2.046e+04 2.243e-07
 65.62467     74.4 2.132e+04 5.698e-07
 65.63447     66.9 2.046e+04 1.177e-06
 65.64428     60.6 1.989e+04 1.319e-06
 65.65408     56.4 1.948e+04 1.032e-06
 65.66388     53.5 1.957e+04 4.888e-07
 65.67073     50.4 1.974e+04 1.718e-07
 65.67563     46.3 1.956e+04 9.029e-08
 65.68348     43.0 1.877e+04 5.158e-08
 65.69328     40.0 1.780e+04 3.788e-08
 65.70804     35.1 1.678e+04 2.581e-08
 65.72769     28.3 1.410e+04 2.418e-08
 65.74729     25.2 1.436e+04 3.534e-08
 65.76690     24.2 1.499e+04 5.163e-08
 65.78595     23.7 1.507e+04 5.336e-08
 65.79575     23.1 1.523e+04 5.496e-08
 65.80610     22.0 1.478e+04 4.087e-08
 65.82571     19.3 1.451e+04 3.216e-08
 65.84531     15.1 1.542e+04 3.646e-08
 65.86491     11.5 1.658e+04 6.458e-08
 65.88452      9.9 1.744e+04 1.104e-07
 65.90412      8.3 1.794e+04 1.348e-07
 65.92372      6.1 1.789e+04 1.283e-07
 65.94333      4.2 1.706e+04 8.888e-08
 65.96293      2.6 1.548e+04 4.663e-08
 65.98253      1.1 1.364e+04 2.331e-08
 66.00214     -0.1 1.219e+04 1.257e-08
 66.02174     -0.8 1.145e+04 7.805e-09
 66.03580     -1.1 1.095e+04 5.847e-09
 66.04560     -2.4 1.077e+04 5.097e-09
 66.06095     -2.1 1.060e+04 4.427e-09
 66.08055     -1.5 1.044e+04 4.102e-09
 66.10016     -0.9 1.051e+04 3.647e-09
 66.11976     -0.4 1.052e+04 3.297e-09
 66.13936     -0.1 1.059e+04 2.959e-09
 66.15680      0.2 1.056e+04 2.872e-09
 66.16660      1.1 1.063e+04 3.248e-09
 66.17857      1.3 1.070e+04 3.273e-09
 66.19817      1.6 1.066e+04 3.658e-09
 66.21778      2.1 1.068e+04 3.899e-09
 66.23738      2.9 1.056e+04 4.293e-09
 66.25698      4.0 1.049e+04 4.137e-09
 66.27584      4.5 1.053e+04 3.801e-09
 66.28565      4.2 1.059e+04 3.852e-09
 66.29619      4.4 1.059e+04 3.646e-09
 66.31580      4.4 1.061e+04 3.722e-09
 66.33540      4.5 1.066e+04 4.069e-09
 66.35500      4.5 1.078e+04 4.806e-09
 66.37461      4.8 1.092e+04 5.894e-09
 66.39421      4.8 1.117e+04 7.116e-09
 66.41381      2.9 1.254e+04 1.022e-08
 66.43342     -0.5 1.352e+04 1.813e-08
 66.45302      0.1 1.354e+04 3.666e-08
 66.47262      1.5 1.349e+04 3.863e-08
 66.49223      2.6 1.341e+04 2.489e-08
 66.51183      1.4 1.280e+04 1.446e-08
 66.52569     -0.8 1.212e+04 6.191e-09
 66.53550     -1.7 1.211e+04 5.942e-09
 66.55104     -4.3 1.093e+04 3.729e-09
 66.57064     -5.5 1.041e+04 3.033e-09
 66.59025     -5.8 1.021e+04 2.746e-09
 66.60985     -6.0 1.011e+04 2.729e-09
 66.62945     -6.3 1.023e+04 2.760e-09
 66.64906     -7.4 1.043e+04 3.015e-09
 66.66866     -8.8 1.061e+04 3.703e-09
 66.68826    -10.3 1.080e+04 4.831e-09
 66.70787    -11.4 1.071e+04 6.472e-09
 66.72747    -12.4 1.068e+04 7.477e-09
 66.74707    -13.8 1.080e+04 7.797e-09
 66.76574    -15.8 1.095e+04 7.956e-09
 66.77554    -16.5 1.109e+04 9.123e-09
 66.77879    -18.2 1.131e+04 1.066e-08
 66.78859    -18.4 1.179e+04 1.375e-08
 66.80589    -20.9 1.219e+04 1.543e-08
 66.82549    -24.3 1.286e+04 2.010e-08
 66.84509    -27.2 1.348e+04 2.670e-08
 66.86470    -29.4 1.372e+04 2.959e-08
 66.88430    -31.8 1.353e+04 2.453e-08
 66.90390    -34.6 1.256e+04 1.197e-08
 66.92351    -38.2 1.145e+04 5.167e-09
 66.94311    -41.3 1.060e+04 2.752e-09
 66.97261    -43.7 9.977e+03 1.999e-09
 67.00598    -45.2 9.702e+03 1.898e-09
 67.02559    -44.2 1.006e+04 2.375e-09
 67.05113    -45.7 1.031e+04 3.078e-09
 67.09033    -46.7 1.075e+04 3.984e-09
 67.12954    -48.2 1.095e+04 4.060e-09
 67.15885    -49.8 1.090e+04 3.444e-09
 67.17835    -50.4 1.099e+04 3.508e-09
 67.19796    -51.9 1.109e+04 3.643e-09
 67.21756    -52.4 1.117e+04 3.791e-09
 67.23716    -53.7 1.124e+04 4.122e-09
 67.25564    -54.7 1.136e+04 4.450e-09
 67.26544    -54.9 1.138e+04 4.867e-09
 67.27637    -55.7 1.142e+04 5.332e-09
 67.29597    -56.3 1.144e+04 5.890e-09
 67.31558    -56.9 1.149e+04 6.546e-09
 67.33518    -57.6 1.155e+04 7.308e-09
 67.35479    -58.2 1.161e+04 7.961e-09
 67.37439    -58.8 1.164e+04 8.155e-09
 67.39098    -59.3 1.161e+04 8.075e-09
 67.40078    -58.8 1.195e+04 9.366e-09
 67.41360    -59.4 1.198e+04 9.336e-09
 67.43320    -60.0 1.205e+04 9.370e-09
 67.45280    -60.6 1.216e+04 9.728e-09
 67.47241    -61.1 1.226e+04 1.041e-08
 67.49201    -61.4 1.233e+04 1.117e-08
 67.50549    -61.5 1.235e+04 1.170e-08
 67.51529    -62.3 1.300e+04 1.732e-08
 67.53122    -62.3 1.297e+04 1.735e-08
 67.55082    -62.2 1.294e+04 1.685e-08
 67.57043    -62.1 1.295e+04 1.652e-08
 67.59003    -61.9 1.298e+04 1.636e-08
 67.60963    -61.7 1.300e+04 1.617e-08
 67.62924    -61.5 1.298e+04 1.557e-08
 67.64884    -61.4 1.285e+04 1.440e-08
 67.66844    -61.2 1.269e+04 1.313e-08
 67.68805    -61.0 1.252e+04 1.219e-08
 67.70765    -60.6 1.241e+04 1.181e-08
 67.72725    -60.1 1.238e+04 1.178e-08
 67.74553    -59.7 1.238e+04 1.208e-08
 67.75533    -61.3 1.237e+04 1.282e-08
 67.76646    -60.8 1.240e+04 1.317e-08
 67.78606    -60.4 1.242e+04 1.408e-08
 67.80567    -59.8 1.237e+04 1.504e-08
 67.82527    -59.3 1.247e+04 1.457e-08
 67.84488    -59.0 1.244e+04 1.375e-08
 67.86448    -58.9 1.237e+04 1.238e-08
 67.88408    -59.1 1.222e+04 1.079e-08
 67.90369    -59.5 1.205e+04 9.492e-09
 67.92329    -60.0 1.190e+04 8.592e-09
 67.94289    -60.4 1.177e+04 8.069e-09
 67.96250    -60.6 1.170e+04 7.659e-09
 67.98210    -60.8 1.164e+04 7.176e-09
 67.99538    -60.9 1.156e+04 6.580e-09
 68.00518    -61.8 1.138e+04 5.814e-09
 68.01297    -62.0 1.130e+04 5.217e-09
 68.02277    -62.8 1.120e+04 4.730e-09
 68.04091    -63.0 1.118e+04 4.412e-09
 68.06051    -63.2 1.118e+04 4.175e-09
 68.08012    -63.2 1.114e+04 3.959e-09
 68.09972    -63.3 1.108e+04 3.857e-09
 68.11933    -63.2 1.102e+04 3.868e-09
 68.14883    -62.9 1.098e+04 4.030e-09
 68.18813    -62.0 1.093e+04 4.119e-09
 68.22734    -61.0 1.084e+04 3.879e-09
 68.26655    -59.6 1.068e+04 3.294e-09
 68.30575    -58.1 1.049e+04 2.753e-09
 68.34496    -56.3 1.042e+04 2.572e-09
 68.38417    -54.4 1.041e+04 2.544e-09
 68.42338    -52.6 1.040e+04 2.516e-09
 68.46258    -50.8 1.041e+04 2.460e-09
 68.48547    -48.9 1.040e+04 2.354e-09
 68.50508    -49.5 1.016e+04 2.000e-09
 68.54100    -47.5 1.024e+04 1.979e-09
 68.58020    -45.6 1.056e+04 2.133e-09
 68.60951    -43.4 1.099e+04 2.492e-09
 68.62515    -43.4 1.112e+04 2.596e-09
 68.63496    -44.1 1.128e+04 2.785e-09
 68.64862    -43.8 1.139e+04 3.218e-09
 68.66823    -45.5 1.185e+04 4.514e-09
 68.68783    -48.9 1.352e+04 1.115e-08
 68.70743    -51.3 1.505e+04 3.335e-08
 68.72532    -52.2 1.637e+04 7.517e-08
 68.73513    -53.9 1.653e+04 8.062e-08
 68.74664    -56.4 1.703e+04 8.466e-08
 68.76624    -61.2 1.656e+04 4.714e-08
 68.78585    -67.9 1.404e+04 1.863e-08
 68.80545    -73.2 1.218e+04 1.198e-08
 68.82505    -75.6 1.216e+04 1.118e-08
 68.84466    -77.4 1.238e+04 1.091e-08
 68.86426    -79.4 1.243e+04 1.030e-08
 68.88387    -81.5 1.229e+04 9.688e-09
 68.90347    -83.3 1.217e+04 9.680e-09
 68.92307    -84.6 1.213e+04 1.043e-08
 68.94268    -85.3 1.219e+04 1.169e-08
 68.96228    -86.3 1.220e+04 1.398e-08
 68.97517    -86.8 1.207e+04 1.401e-08
 68.98498    -87.7 1.190e+04 1.192e-08
 69.00149    -88.1 1.157e+04 1.073e-08
 69.02109    -88.8 1.120e+04 7.961e-09
 69.04069    -89.9 1.087e+04 5.775e-09
 69.06030    -90.9 1.058e+04 4.667e-09
 69.07990    -91.5 1.043e+04 4.339e-09
 69.09950    -91.8 1.039e+04 4.279e-09
 69.11911    -92.0 1.038e+04 4.359e-09
 69.13871    -92.3 1.047e+04 4.744e-09
 69.15832    -92.6 1.062e+04 5.261e-09
 69.17792    -92.9 1.077e+04 5.754e-09
 69.19752    -93.4 1.088e+04 6.083e-09
 69.21522    -94.0 1.091e+04 6.201e-09
 69.22502    -94.6 1.089e+04 6.119e-09
 69.23673    -95.1 1.085e+04 5.875e-09
 69.24714    -95.6 1.076e+04 5.487e-09
 69.25695    -95.6 1.079e+04 5.451e-09
 69.27594    -96.0 1.065e+04 4.866e-09
 69.29554    -96.2 1.052e+04 4.354e-09
 69.31514    -96.2 1.044e+04 3.796e-09
 69.33475    -96.2 1.040e+04 3.196e-09
 69.36425    -95.9 1.030e+04 2.913e-09
 69.40356    -95.5 1.014e+04 2.565e-09
 69.44276    -94.8 9.858e+03 2.142e-09
 69.46526    -93.8 9.684e+03 1.917e-09
 69.48487    -94.1 9.633e+03 1.605e-09
 69.52118    -92.9 9.545e+03 1.536e-09
 69.56038    -91.5 9.486e+03 1.487e-09
 69.59959    -89.9 9.440e+03 1.440e-09
 69.63880    -88.2 9.424e+03 1.405e-09
 69.67801    -86.5 9.446e+03 1.393e-09
 69.71721    -84.9 9.485e+03 1.398e-09
 69.75642    -83.4 9.533e+03 1.412e-09
 69.79563    -81.9 9.603e+03 1.452e-09
 69.83483    -80.3 9.680e+03 1.543e-09
 69.85953    -78.6 9.743e+03 1.677e-09
 69.87913    -79.3 9.887e+03 1.729e-09
 69.91325    -77.5 9.942e+03 1.784e-09
 69.94536    -75.7 1.003e+04 1.807e-09
 69.96496    -76.2 1.018e+04 1.909e-09
 69.99166    -74.5 1.027e+04 2.010e-09
 70.03087    -73.0 1.039e+04 2.309e-09
 70.07008    -71.9 1.062e+04 3.045e-09
 70.10928    -71.0 1.097e+04 4.468e-09
 70.14849    -70.2 1.145e+04 6.812e-09
 70.17780    -69.2 1.173e+04 8.851e-09
 70.19501    -69.4 1.187e+04 9.601e-09
 70.20481    -70.0 1.209e+04 1.051e-08
 70.21691    -70.4 1.252e+04 1.356e-08
 70.23651    -70.9 1.268e+04 1.454e-08
 70.25612    -71.0 1.274e+04 1.489e-08
 70.27572    -71.1 1.274e+04 1.458e-08
 70.29532    -71.2 1.271e+04 1.361e-08
 70.31493    -71.5 1.263e+04 1.183e-08
 70.33453    -71.8 1.237e+04 9.831e-09
 70.35413    -72.0 1.222e+04 8.186e-09
 70.37374    -72.0 1.200e+04 6.794e-09
 70.39334    -71.6 1.188e+04 5.748e-09
 70.41294    -71.4 1.183e+04 5.162e-09
 70.43255    -71.1 1.182e+04 4.974e-09
 70.44486    -70.7 1.184e+04 4.964e-09
 70.45466    -71.0 1.175e+04 4.490e-09
 70.47152    -70.5 1.190e+04 4.889e-09
 70.48132    -70.9 1.202e+04 5.264e-09
 70.49136    -70.3 1.207e+04 5.869e-09
 70.51096    -69.4 1.219e+04 6.287e-09
 70.53057    -68.6 1.224e+04 6.550e-09
 70.55017    -67.8 1.228e+04 6.627e-09
 70.56977    -67.0 1.232e+04 6.675e-09
 70.58938    -66.3 1.236e+04 6.813e-09
 70.60898    -65.7 1.242e+04 6.988e-09
 70.62858    -65.0 1.248e+04 7.194e-09
 70.64819    -64.3 1.262e+04 7.402e-09
 70.66779    -63.7 1.282e+04 7.506e-09
 70.68491    -63.3 1.296e+04 7.530e-09
 70.69471    -63.6 1.298e+04 7.233e-09
 70.70700    -63.4 1.302e+04 7.585e-09
 70.72660    -63.3 1.305e+04 8.098e-09
 70.74621    -63.1 1.311e+04 8.849e-09
 70.76581    -63.0 1.323e+04 9.832e-09
 70.78541    -62.9 1.341e+04 1.087e-08
 70.80502    -62.7 1.362e+04 1.172e-08
 70.82462    -62.6 1.379e+04 1.212e-08
 70.84422    -62.3 1.391e+04 1.213e-08
 70.86383    -61.9 1.401e+04 1.200e-08
 70.88343    -61.6 1.407e+04 1.209e-08
 70.90303    -61.2 1.419e+04 1.310e-08
 70.92264    -60.7 1.443e+04 1.455e-08
 70.93476    -60.4 1.467e+04 1.523e-08
 70.94456    -61.0 1.452e+04 1.232e-08
 70.96185    -60.6 1.463e+04 1.230e-08
 70.98145    -60.5 1.463e+04 1.214e-08
 71.01095    -59.4 1.465e+04 1.188e-08
 71.05026    -58.4 1.460e+04 9.515e-09
 71.08390    -57.3 1.439e+04 7.270e-09
 71.10351    -58.2 1.416e+04 5.503e-09
 71.12867    -56.6 1.398e+04 4.376e-09
 71.16788    -55.0 1.385e+04 3.772e-09
 71.20709    -53.4 1.376e+04 3.897e-09
 71.24629    -51.8 1.362e+04 4.464e-09
 71.28550    -50.2 1.359e+04 4.850e-09
 71.32471    -48.7 1.349e+04 5.000e-09
 71.36391    -47.3 1.337e+04 4.661e-09
 71.40312    -45.9 1.336e+04 4.035e-09
 71.42485    -44.9 1.331e+04 3.429e-09
 71.44445    -45.0 1.328e+04 4.074e-09
 71.48154    -44.6 1.339e+04 4.171e-09
 71.51084    -43.9 1.360e+04 4.422e-09
 71.53035    -44.7 1.377e+04 5.312e-09
 71.54995    -45.6 1.412e+04 7.338e-09
 71.56956    -46.7 1.425e+04 1.280e-08
 71.58916    -47.4 1.453e+04 2.250e-08
 71.60876    -48.1 1.484e+04 3.063e-08
 71.62837    -49.4 1.486e+04 3.135e-08
 71.64797    -50.6 1.438e+04 2.272e-08
 71.66470    -51.7 1.372e+04 1.302e-08
 71.67450    -52.2 1.349e+04 1.078e-08
 71.68718    -52.8 1.301e+04 6.433e-09
 71.70570    -53.1 1.282e+04 4.192e-09
 71.71550    -53.6 1.283e+04 4.207e-09
 71.72638    -53.9 1.265e+04 3.004e-09
 71.74599    -54.1 1.228e+04 2.564e-09
 71.76559    -53.9 1.203e+04 2.429e-09
 71.78520    -53.3 1.205e+04 2.378e-09
 71.80480    -53.3 1.201e+04 2.376e-09
 71.83430    -52.3 1.174e+04 2.523e-09
 71.87361    -50.9 1.173e+04 2.834e-09
 71.90494    -50.0 1.188e+04 3.139e-09
 71.92455    -49.5 1.181e+04 2.643e-09
 71.95202    -49.1 1.184e+04 2.899e-09
 71.98133    -49.0 1.219e+04 3.609e-09
 72.00084    -49.5 1.226e+04 3.676e-09
 72.02044    -49.7 1.251e+04 4.171e-09
 72.04004    -50.3 1.260e+04 4.585e-09
 72.05965    -50.4 1.268e+04 5.234e-09
 72.07925    -51.1 1.262e+04 5.514e-09
 72.09885    -51.4 1.261e+04 5.690e-09
 72.11846    -51.8 1.245e+04 5.460e-09
 72.13806    -51.8 1.236e+04 4.954e-09
 72.15460    -51.9 1.229e+04 4.125e-09
 72.16440    -51.5 1.221e+04 3.640e-09
 72.17727    -51.8 1.213e+04 2.850e-09
 72.19687    -52.2 1.199e+04 2.457e-09
 72.21647    -52.4 1.192e+04 2.348e-09
 72.23608    -52.6 1.193e+04 2.489e-09
 72.25568    -52.8 1.194e+04 2.945e-09
 72.27529    -53.0 1.199e+04 3.549e-09
 72.29489    -53.1 1.211e+04 4.285e-09
 72.31449    -53.3 1.222e+04 4.984e-09
 72.32769    -53.7 1.232e+04 5.623e-09
 72.33749    -54.9 1.232e+04 5.454e-09
 72.35370    -55.7 1.234e+04 6.052e-09
 72.37330    -56.7 1.233e+04 6.831e-09
 72.39291    -57.9 1.239e+04 7.753e-09
 72.40454    -60.6 1.239e+04 8.119e-09
 72.41434    -58.0 1.239e+04 8.252e-09
 72.43211    -59.4 1.236e+04 8.221e-09
 72.46162    -60.4 1.202e+04 6.681e-09
 72.50092    -61.3 1.155e+04 4.049e-09
 72.54013    -61.6 1.106e+04 2.422e-09
 72.57934    -60.6 1.056e+04 1.447e-09
 72.61854    -59.0 1.041e+04 9.069e-10
 72.65775    -57.4 1.042e+04 7.709e-10
 72.69696    -55.7 1.037e+04 7.869e-10
 72.73616    -54.3 1.033e+04 1.061e-09
 72.77537    -52.8 1.047e+04 1.579e-09
 72.81458    -51.4 1.068e+04 2.172e-09
 72.85379    -50.2 1.077e+04 2.375e-09
 72.88473    -49.1 1.076e+04 2.168e-09
 72.90434    -49.0 1.088e+04 2.290e-09
 72.93220    -47.9 1.080e+04 1.907e-09
 72.97141    -46.8 1.104e+04 1.904e-09
 73.00072    -46.5 1.124e+04 2.548e-09
 73.02022    -47.0 1.134e+04 3.719e-09
 73.03983    -46.4 1.175e+04 5.662e-09
 73.05943    -46.2 1.200e+04 7.676e-09
 73.07903    -45.8 1.231e+04 9.366e-09
 73.09864    -46.0 1.239e+04 1.004e-08
 73.11824    -45.9 1.259e+04 1.098e-08
 73.13439    -46.3 1.266e+04 1.063e-08
 73.14419    -46.1 1.266e+04 1.066e-08
 73.16735    -46.9 1.235e+04 8.859e-09
 73.20665    -47.8 1.173e+04 4.202e-09
 73.24586    -48.4 1.104e+04 1.698e-09
 73.28507    -48.3 1.063e+04 1.167e-09
 73.32427    -47.0 1.049e+04 9.688e-10
 73.36348    -45.2 1.036e+04 8.877e-10
 73.38443    -43.3 1.028e+04 8.464e-10
 73.40404    -43.2 1.045e+04 9.508e-10
 73.44189    -41.3 1.037e+04 9.382e-10
 73.48110    -39.3 1.023e+04 9.512e-10
 73.52031    -37.2 1.009e+04 1.007e-09
 73.55226    -35.0 1.001e+04 1.075e-09
 73.57186    -35.8 9.959e+03 1.069e-09
 73.59872    -33.6 9.934e+03 1.141e-09
 73.63793    -31.5 9.883e+03 1.222e-09
 73.67714    -29.3 9.842e+03 1.268e-09
 73.71634    -27.0 9.783e+03 1.179e-09
 73.75555    -24.9 9.735e+03 1.040e-09
 73.79476    -23.1 9.729e+03 9.532e-10
 73.83397    -21.3 9.652e+03 1.080e-09
 73.86453    -19.3 9.614e+03 1.265e-09
 73.88413    -19.4 9.730e+03 1.372e-09
 73.91238    -17.4 9.754e+03 1.531e-09
 73.95159    -15.8 9.800e+03 1.569e-09
 73.99079    -14.4 9.785e+03 1.550e-09
 74.03000    -13.1 9.727e+03 1.597e-09
 74.06921    -12.1 9.689e+03 1.920e-09
 74.10842    -10.9 1.001e+04 2.685e-09
 74.14762    -10.4 1.039e+04 3.767e-09
 74.17415    -10.1 1.053e+04 4.838e-09
 74.18386    -10.6 1.040e+04 4.510e-09
 74.19644    -10.7 1.034e+04 4.757e-09
 74.21604    -10.7 1.027e+04 4.857e-09
 74.23564    -10.5 1.018e+04 4.824e-09
 74.25525    -10.3 1.012e+04 4.761e-09
 74.27485    -10.1 1.002e+04 4.534e-09
 74.29445     -9.9 9.933e+03 3.791e-09
 74.31406    -10.3 9.882e+03 3.409e-09
 74.34356     -9.4 9.674e+03 2.899e-09
 74.36422     -9.2 9.233e+03 2.235e-09
 74.38383     -8.5 9.248e+03 2.187e-09
 74.42207     -7.9 9.232e+03 2.261e-09
 74.46128     -6.9 9.227e+03 2.725e-09
 74.50049     -5.6 9.287e+03 3.135e-09
 74.53969     -4.9 9.346e+03 3.133e-09
 74.57890     -4.9 9.349e+03 3.021e-09
 74.61811     -5.3 9.433e+03 3.093e-09
 74.65732     -5.6 9.429e+03 3.127e-09
 74.69652     -5.8 9.394e+03 2.938e-09
 74.73573     -6.7 9.353e+03 2.972e-09
 74.77494     -7.4 9.191e+03 2.797e-09
 74.79624     -7.1 8.878e+03 2.199e-09
 74.81584     -7.1 9.048e+03 2.553e-09
 74.84432     -7.1 8.854e+03 1.927e-09
 74.86392     -6.5 8.997e+03 2.204e-09
 74.89256     -6.6 8.752e+03 1.581e-09
 74.93177     -6.4 8.552e+03 1.365e-09
 74.97097     -5.5 8.480e+03 1.402e-09
 75.01018     -4.4 8.500e+03 1.503e-09
 75.04939     -3.4 8.569e+03 1.638e-09
 75.08859     -2.4 8.721e+03 1.769e-09
 75.12780     -1.4 8.922e+03 1.865e-09
 75.15711     -0.1 9.030e+03 1.828e-09
 75.17662     -0.2 9.082e+03 1.862e-09
 75.19622     -1.2 9.301e+03 2.225e-09
 75.21582     -3.3 9.887e+03 3.512e-09
 75.23543     -5.4 1.053e+04 6.986e-09
 75.25503     -5.7 1.105e+04 1.276e-08
 75.27463     -5.4 1.132e+04 1.530e-08
 75.29424     -6.5 1.178e+04 1.578e-08
 75.31384     -8.4 1.175e+04 1.362e-08
 75.33344     -9.0 1.164e+04 1.297e-08
 75.34382    -10.8 1.170e+04 1.169e-08
 75.35362     -8.5 1.170e+04 1.165e-08
 75.37265     -9.0 1.144e+04 1.122e-08
 75.39226    -10.2 1.139e+04 1.145e-08
 75.40823    -10.4 1.126e+04 1.130e-08
 75.41804    -10.7 1.123e+04 1.077e-08
 75.44136    -10.3 1.137e+04 1.180e-08
 75.48067    -11.3 1.112e+04 1.044e-08
 75.51987    -12.3 1.098e+04 1.115e-08
 75.55908    -12.7 1.104e+04 1.305e-08
 75.59829    -12.6 1.097e+04 1.274e-08
 75.62760    -11.2 1.063e+04 1.021e-08
 75.64710    -10.9 1.048e+04 9.168e-09
 75.66671    -10.3 1.039e+04 7.861e-09
 75.68631    -10.1 1.033e+04 7.000e-09
 75.70591     -9.8 1.028e+04 6.350e-09
 75.72552     -9.5 1.016e+04 6.072e-09
 75.74512     -8.9 1.007e+04 5.720e-09
 75.76472     -8.2 1.001e+04 5.313e-09
 75.78433     -7.5 9.915e+03 4.788e-09
 75.80393     -6.8 9.783e+03 4.255e-09
 75.82353     -5.9 9.616e+03 3.717e-09
 75.83372     -5.2 9.478e+03 3.355e-09
 75.84352     -4.7 9.629e+03 3.495e-09
 75.87264     -3.2 9.500e+03 2.840e-09
 75.91195     -1.4 9.427e+03 2.316e-09
 75.95115      0.7 9.417e+03 2.170e-09
 75.99036      2.8 9.509e+03 2.270e-09
 76.02062      5.0 9.658e+03 2.454e-09
 76.04022      5.1 9.607e+03 2.431e-09
 76.05887      5.6 9.738e+03 3.033e-09
 76.07376      6.1 9.952e+03 4.043e-09
 76.08357      6.8 9.850e+03 3.188e-09
 76.09798      7.1 1.012e+04 4.585e-09
 76.11759      7.8 1.047e+04 6.761e-09
 76.13719      8.6 1.079e+04 9.157e-09
 76.15679      9.4 1.109e+04 1.081e-08
 76.17640      9.9 1.132e+04 1.137e-08
 76.19600     10.0 1.146e+04 1.141e-08
 76.21561      9.7 1.164e+04 1.167e-08
 76.23521      9.4 1.178e+04 1.277e-08
 76.25481      9.5 1.195e+04 1.372e-08
 76.27442      9.7 1.199e+04 1.353e-08
 76.29402      9.9 1.213e+04 1.263e-08
 76.31362      9.7 1.231e+04 1.153e-08
 76.32361      9.4 1.235e+04 1.120e-08
 76.33342     11.2 1.189e+04 8.282e-09
 76.35283     11.3 1.197e+04 8.603e-09
 76.37243     11.6 1.213e+04 9.305e-09
 76.39204     12.1 1.230e+04 1.013e-08
 76.41164     12.6 1.247e+04 1.092e-08
 76.43125     13.1 1.263e+04 1.165e-08
 76.45085     13.5 1.283e+04 1.253e-08
 76.47045     13.6 1.309e+04 1.400e-08
 76.49006     13.6 1.336e+04 1.620e-08
 76.50966     13.7 1.362e+04 1.882e-08
 76.52926     13.7 1.389e+04 2.129e-08
 76.54887     13.3 1.420e+04 2.351e-08
 76.56366     12.5 1.455e+04 2.655e-08
 76.57346     14.9 1.411e+04 2.235e-08
 76.58807     14.0 1.446e+04 2.496e-08
 76.60768     12.9 1.478e+04 2.783e-08
 76.62728     11.9 1.492e+04 2.852e-08
 76.64241     11.1 1.489e+04 2.658e-08
 76.65221     10.1 1.525e+04 3.237e-08
 76.66649      9.3 1.488e+04 2.613e-08
 76.68609      8.9 1.433e+04 2.001e-08
 76.70570      8.7 1.383e+04 1.505e-08
 76.73520      8.2 1.343e+04 8.268e-09
 76.77450      8.0 1.298e+04 4.054e-09
 76.80390      8.3 1.259e+04 3.002e-09
 76.82351     11.4 1.270e+04 3.559e-09
 76.85292     11.4 1.253e+04 4.022e-09
 76.89212     11.7 1.250e+04 5.160e-09
 76.93133     12.1 1.238e+04 6.362e-09
 76.97054     12.4 1.230e+04 6.429e-09
 77.00975     13.1 1.206e+04 5.407e-09
 77.04895     13.4 1.189e+04 4.121e-09
 77.08816     13.7 1.170e+04 3.127e-09
 77.12737     14.6 1.151e+04 2.304e-09
 77.16657     15.4 1.145e+04 1.605e-09
 77.20578     16.0 1.137e+04 1.338e-09
 77.24499     16.9 1.131e+04 1.387e-09
 77.28400     16.7 1.134e+04 2.197e-09
 77.30360     18.3 1.128e+04 1.927e-09
 77.32340     19.1 1.132e+04 2.667e-09
 77.36261     19.9 1.136e+04 3.594e-09
 77.40182     20.4 1.132e+04 3.822e-09
 77.44102     21.2 1.120e+04 3.493e-09
 77.48023     22.0 1.101e+04 2.678e-09
 77.51944     22.8 1.088e+04 1.986e-09
 77.55865     23.4 1.081e+04 1.535e-09
 77.59785     24.2 1.073e+04 1.525e-09
 77.63706     25.0 1.069e+04 1.630e-09
 77.67627     26.0 1.068e+04 1.878e-09
 77.71548     27.1 1.074e+04 2.186e-09
 77.75468     28.1 1.082e+04 2.517e-09
 77.78369     29.0 1.093e+04 2.668e-09
 77.80330     29.5 1.086e+04 2.888e-09
 77.83310     30.2 1.089e+04 2.813e-09
 77.87230     31.0 1.084e+04 2.399e-09
 77.91151     31.7 1.074e+04 1.837e-09
 77.95072     32.1 1.061e+04 1.499e-09
 77.98993     32.8 1.045e+04 1.466e-09
 78.02913     33.8 1.040e+04 1.500e-09
 78.06834     34.9 1.037e+04 1.507e-09
 78.10755     36.3 1.029e+04 1.448e-09
 78.14675     37.8 1.019e+04 1.254e-09
 78.18596     39.3 1.013e+04 1.020e-09
 78.22517     40.7 1.007e+04 8.404e-10
 78.26379     42.3 9.945e+03 7.889e-10
 78.28339     42.3 9.917e+03 8.003e-10
 78.30358     44.1 9.902e+03 8.101e-10
 78.34279     45.9 9.851e+03 8.852e-10
 78.38200     47.7 9.807e+03 1.051e-09
 78.42120     49.6 9.806e+03 1.238e-09
 78.46041     51.5 9.844e+03 1.377e-09
 78.48897     53.4 9.883e+03 1.493e-09
 78.50858     53.7 9.805e+03 1.542e-09
 78.53883     55.6 9.850e+03 1.746e-09
 78.57803     57.7 9.961e+03 2.112e-09
 78.61724     59.6 1.016e+04 2.530e-09
 78.64655     59.7 1.033e+04 3.035e-09
 78.66605     60.2 1.049e+04 3.900e-09
 78.68566     60.7 1.074e+04 5.445e-09
 78.70526     61.3 1.105e+04 7.602e-09
 78.72486     61.9 1.135e+04 9.999e-09
 78.74447     62.4 1.159e+04 1.206e-08
 78.76329     62.8 1.177e+04 1.318e-08
 78.77309     62.9 1.177e+04 1.311e-08
 78.78368     63.0 1.187e+04 1.358e-08
 78.80328     62.9 1.199e+04 1.404e-08
 78.82288     62.3 1.242e+04 1.558e-08
 78.84249     59.8 1.362e+04 2.196e-08
 78.86209     56.2 1.553e+04 4.708e-08
 78.88169     52.6 1.690e+04 9.448e-08
 78.90130     48.6 1.757e+04 1.132e-07
 78.92090     44.0 1.738e+04 1.034e-07
 78.94050     40.3 1.644e+04 7.077e-08
 78.96011     37.2 1.497e+04 3.932e-08
 78.97971     35.1 1.343e+04 2.179e-08
 78.99931     34.7 1.262e+04 1.453e-08
 79.01314     34.7 1.209e+04 9.950e-09
 79.02294     34.0 1.204e+04 9.986e-09
 79.04842     34.3 1.143e+04 5.097e-09
 79.08773     34.8 1.096e+04 2.077e-09
 79.12693     35.6 1.047e+04 1.357e-09
 79.16614     37.3 1.043e+04 1.360e-09
 79.20535     39.1 1.057e+04 1.570e-09
 79.24358     40.8 1.068e+04 2.233e-09
 79.26318     39.3 1.082e+04 3.459e-09
 79.28376     41.0 1.087e+04 4.376e-09
 79.31307     42.1 1.095e+04 4.957e-09
 79.33258     42.7 1.101e+04 5.427e-09
 79.35218     43.4 1.099e+04 5.892e-09
 79.37178     43.8 1.096e+04 6.317e-09
 79.39139     44.4 1.086e+04 6.329e-09
 79.41099     45.3 1.069e+04 6.111e-09
 79.43059     46.0 1.050e+04 5.473e-09
 79.45020     46.7 1.031e+04 4.736e-09
 79.46980     47.2 1.018e+04 4.110e-09
 79.48940     47.7 1.004e+04 3.671e-09
 79.50304     48.2 9.941e+03 3.395e-09
 79.51284     47.4 9.975e+03 3.215e-09
 79.52861     47.7 9.954e+03 3.163e-09
 79.54821     48.6 9.886e+03 3.145e-09
 79.56782     48.9 9.865e+03 3.153e-09
 79.58742     49.8 9.823e+03 3.161e-09
 79.60703     50.1 9.819e+03 3.180e-09
 79.62663     50.8 9.777e+03 3.222e-09
 79.64623     51.2 9.753e+03 3.280e-09
 79.66584     52.1 9.717e+03 3.461e-09
 79.68544     52.8 9.754e+03 3.736e-09
 79.70504     53.2 9.844e+03 4.066e-09
 79.72296     53.6 9.944e+03 4.473e-09
 79.73276     53.4 9.959e+03 4.560e-09
 79.74308     53.6 1.004e+04 4.984e-09
 79.75289     52.6 1.004e+04 4.965e-09
 79.76385     52.8 1.013e+04 5.193e-09
 79.78346     52.8 1.015e+04 5.085e-09
 79.80306     52.8 1.015e+04 4.758e-09
 79.82267     52.7 1.010e+04 4.327e-09
 79.84227     52.4 1.009e+04 4.097e-09
 79.86187     52.0 1.009e+04 4.163e-09
 79.88148     51.6 1.021e+04 4.433e-09
 79.90108     51.1 1.035e+04 5.021e-09
 79.92068     50.7 1.048e+04 5.898e-09
 79.94029     50.4 1.063e+04 6.957e-09
 79.95989     50.2 1.079e+04 8.094e-09
 79.97949     49.8 1.093e+04 9.072e-09
 79.99293     49.3 1.103e+04 9.662e-09
 80.00273     48.2 1.082e+04 9.499e-09
 80.01870     47.5 1.082e+04 9.566e-09
 80.03830     46.6 1.080e+04 9.577e-09
 80.05791     45.7 1.079e+04 9.597e-09
 80.07751     44.6 1.079e+04 9.694e-09
 80.09712     43.6 1.079e+04 9.766e-09
 80.11672     42.6 1.075e+04 9.586e-09
 80.13632     41.7 1.065e+04 9.100e-09
 80.15593     40.8 1.051e+04 8.248e-09
 80.17553     39.9 1.035e+04 7.268e-09
 80.19513     38.9 1.022e+04 6.806e-09
 80.21474     38.2 1.023e+04 6.865e-09
 80.23298     37.5 1.033e+04 7.403e-09
 80.24278     37.3 1.017e+04 6.733e-09
 80.25394     36.4 1.053e+04 8.463e-09
 80.27355     34.6 1.170e+04 1.351e-08
 80.29315     31.9 1.355e+04 2.820e-08
 80.31275     29.7 1.505e+04 5.943e-08
 80.33236     28.6 1.600e+04 9.683e-08
 80.34495     27.7 1.619e+04 1.067e-07
 80.35475     27.5 1.531e+04 6.795e-08
 80.37157     26.4 1.535e+04 7.154e-08
 80.39117     25.0 1.524e+04 6.383e-08
 80.41077     23.0 1.497e+04 5.503e-08
 80.43038     20.3 1.493e+04 5.351e-08
 80.44503     18.0 1.461e+04 4.519e-08
 80.45478     16.7 1.447e+04 4.345e-08
 80.46458     13.8 1.511e+04 4.994e-08
 80.47439     11.0 1.581e+04 6.197e-08
 80.48273      7.4 1.669e+04 9.021e-08
 80.48763      7.9 1.612e+04 7.149e-08
 80.49399      6.6 1.605e+04 8.739e-08
 80.50379      5.2 1.637e+04 1.028e-07
 80.51359      4.7 1.620e+04 9.913e-08
 80.52835      4.0 1.565e+04 7.940e-08
 80.54800      1.5 1.484e+04 4.005e-08
 80.56760     -4.4 1.310e+04 1.666e-08
 80.58720     -9.1 1.040e+04 9.634e-09
 80.60681     -9.2 9.951e+03 7.702e-09
 80.62641     -8.6 9.856e+03 6.915e-09
 80.64602     -8.3 9.873e+03 5.233e-09
 80.66562     -8.2 9.534e+03 4.173e-09
 80.68522     -7.8 9.246e+03 3.195e-09
 80.70483     -7.1 9.049e+03 2.661e-09
 80.72297     -7.6 9.008e+03 2.393e-09
 80.74267     -5.1 9.091e+03 2.467e-09
 80.77363     -4.5 8.791e+03 1.990e-09
 80.81284     -3.2 8.558e+03 1.990e-09
 80.85205     -1.7 8.679e+03 2.274e-09
 80.89126     -0.1 8.820e+03 2.607e-09
 80.92056      0.7 9.000e+03 3.285e-09
 80.94007      1.4 9.311e+03 3.995e-09
 80.95714      1.8 9.760e+03 5.767e-09
 80.96694      1.4 1.012e+04 7.136e-09
 80.97272      2.3 1.059e+04 9.405e-09
 80.98253      2.8 1.067e+04 9.792e-09
 80.99888      3.0 1.134e+04 1.355e-08
 81.01848      4.2 1.152e+04 1.587e-08
 81.03809      4.5 1.181e+04 1.649e-08
 81.05769      4.6 1.182e+04 1.631e-08
 81.07729      5.9 1.139e+04 1.383e-08
 81.09690      5.9 1.139e+04 1.342e-08
 81.11650      7.0 1.096e+04 1.040e-08
 81.13611      7.0 1.096e+04 9.967e-09
 81.15571      7.6 1.074e+04 8.784e-09
 81.17531      7.9 1.057e+04 8.145e-09
 81.19492      8.9 1.048e+04 7.907e-09
 81.21277      9.3 1.058e+04 8.105e-09
 81.22257      9.3 1.049e+04 7.588e-09
 81.23412      9.8 1.066e+04 8.305e-09
 81.25373     10.4 1.077e+04 8.937e-09
 81.28323     11.1 1.113e+04 1.076e-08
 81.31264     11.5 1.136e+04 1.278e-08
 81.33214     12.2 1.147e+04 1.355e-08
 81.35174     12.7 1.158e+04 1.386e-08
 81.37135     13.1 1.156e+04 1.349e-08
 81.39095     14.0 1.135e+04 1.195e-08
 81.41056     14.8 1.115e+04 1.007e-08
 81.43016     15.5 1.096e+04 8.253e-09
 81.44976     15.9 1.076e+04 6.814e-09
 81.46262     16.3 1.049e+04 5.722e-09
 81.47242     16.1 1.066e+04 6.371e-09
 81.48897     16.7 1.058e+04 5.847e-09
 81.50857     17.4 1.051e+04 5.688e-09
 81.52818     18.4 1.042e+04 5.624e-09
 81.54778     19.4 1.046e+04 5.768e-09
 81.56738     20.2 1.056e+04 6.261e-09
 81.57913     20.9 1.072e+04 7.170e-09
 81.58893     20.9 1.078e+04 7.219e-09
 81.60659     21.7 1.104e+04 8.670e-09
 81.62619     22.3 1.125e+04 1.015e-08
 81.64580     22.9 1.143e+04 1.146e-08
 81.66540     22.8 1.171e+04 1.302e-08
 81.68501     21.6 1.257e+04 1.762e-08
 81.70267     19.8 1.380e+04 3.023e-08
 81.71247     18.9 1.393e+04 3.469e-08
 81.72421     18.6 1.470e+04 5.083e-08
 81.74382     18.9 1.452e+04 5.175e-08
 81.76342     19.4 1.401e+04 3.972e-08
 81.78302     18.9 1.333e+04 2.385e-08
 81.80263     16.9 1.249e+04 1.388e-08
 81.82223     15.2 1.148e+04 1.074e-08
 81.84183     15.1 1.137e+04 1.078e-08
 81.86144     15.1 1.139e+04 1.150e-08
 81.88104     15.6 1.150e+04 1.270e-08
 81.90064     16.3 1.161e+04 1.356e-08
 81.92025     16.9 1.169e+04 1.385e-08
 81.93985     17.2 1.175e+04 1.401e-08
 81.95252     17.1 1.189e+04 1.444e-08
 81.96232     17.0 1.115e+04 8.884e-09
 81.97906     16.4 1.140e+04 9.779e-09
 81.99866     14.9 1.221e+04 1.364e-08
 82.01827     13.8 1.303e+04 1.975e-08
 82.03787     13.1 1.301e+04 2.147e-08
 82.05747     12.2 1.293e+04 2.118e-08
 82.07708     11.1 1.281e+04 1.875e-08
 82.09668      8.9 1.273e+04 1.547e-08
 82.11628      5.3 1.243e+04 1.494e-08
 82.13589      1.1 1.282e+04 1.833e-08
 82.15549     -5.9 1.518e+04 3.299e-08
 82.17510    -11.1 1.607e+04 6.600e-08
 82.19131    -14.6 1.571e+04 7.737e-08
 82.19898    -14.8 1.529e+04 6.240e-08
 82.20237    -15.3 1.512e+04 4.949e-08
 82.21430    -21.1 1.384e+04 2.238e-08
 82.23391    -28.0 1.147e+04 1.226e-08
 82.25351    -30.1 1.069e+04 1.005e-08
 82.27311    -30.7 1.051e+04 9.089e-09
 82.29272    -31.1 1.042e+04 7.768e-09
 82.31232    -31.7 1.032e+04 6.437e-09
 82.33192    -32.6 1.026e+04 5.675e-09
 82.35153    -33.3 1.028e+04 5.497e-09
 82.37113    -34.1 1.069e+04 5.641e-09
 82.39073    -35.0 1.093e+04 6.858e-09
 82.41034    -35.9 1.130e+04 9.269e-09
 82.42994    -37.1 1.212e+04 1.379e-08
 82.44241    -39.0 1.312e+04 2.175e-08
 82.45221    -38.7 1.314e+04 2.099e-08
 82.46915    -41.2 1.409e+04 3.407e-08
 82.48875    -43.0 1.489e+04 5.116e-08
 82.50836    -44.2 1.537e+04 6.179e-08
 82.52796    -46.0 1.536e+04 5.832e-08
 82.54756    -48.1 1.470e+04 3.612e-08
 82.56717    -50.8 1.380e+04 1.981e-08
 82.58677    -53.3 1.312e+04 1.417e-08
 82.60637    -54.5 1.289e+04 1.305e-08
 82.62598    -55.1 1.293e+04 1.334e-08
 82.64558    -55.4 1.316e+04 1.502e-08
 82.66518    -55.7 1.335e+04 1.688e-08
 82.68246    -55.9 1.340e+04 1.766e-08
 82.69226    -56.5 1.354e+04 2.048e-08
 82.70439    -56.6 1.353e+04 2.061e-08
 82.72400    -56.5 1.339e+04 1.853e-08
 82.74360    -56.5 1.324e+04 1.500e-08
 82.76320    -56.8 1.310e+04 1.217e-08
 82.78281    -57.3 1.298e+04 9.949e-09
 82.81231    -58.5 1.296e+04 9.434e-09
 82.85161    -59.5 1.280e+04 8.763e-09
 82.89082    -60.3 1.271e+04 8.552e-09
 82.93003    -61.1 1.261e+04 7.855e-09
 82.96924    -61.7 1.245e+04 6.676e-09
 83.00844    -62.1 1.217e+04 5.921e-09
 83.04765    -62.1 1.186e+04 5.509e-09
 83.08686    -61.6 1.159e+04 5.030e-09
 83.12606    -60.9 1.126e+04 4.210e-09
 83.15537    -60.4 1.108e+04 3.738e-09
 83.17236    -59.3 1.090e+04 3.104e-09
 83.18216    -60.2 1.095e+04 3.355e-09
 83.20438    -60.0 1.082e+04 2.724e-09
 83.24369    -59.5 1.073e+04 2.297e-09
 83.28289    -59.1 1.061e+04 2.151e-09
 83.32210    -58.6 1.055e+04 2.186e-09
 83.36131    -58.5 1.056e+04 2.805e-09
 83.39061    -58.9 1.102e+04 4.296e-09
 83.41012    -59.3 1.147e+04 6.818e-09
 83.42220    -59.4 1.167e+04 1.047e-08
 83.42777    -59.9 1.158e+04 1.168e-08
 83.43529    -60.5 1.169e+04 1.618e-08
 83.44933    -59.6 1.157e+04 1.660e-08
 83.46893    -58.9 1.142e+04 1.400e-08
 83.48854    -58.8 1.136e+04 1.039e-08
 83.50814    -59.1 1.127e+04 7.951e-09
 83.52774    -59.4 1.085e+04 6.763e-09
 83.54735    -59.6 1.032e+04 6.397e-09
 83.56695    -59.1 1.003e+04 6.413e-09
 83.58655    -58.3 9.890e+03 6.578e-09
 83.60616    -57.5 9.853e+03 6.619e-09
 83.62576    -56.6 9.810e+03 6.510e-09
 83.64536    -55.7 9.744e+03 6.067e-09
 83.66225    -54.7 9.652e+03 5.366e-09
 83.67205    -55.1 9.514e+03 4.621e-09
 83.68457    -54.2 9.425e+03 3.828e-09
 83.71407    -53.9 9.368e+03 3.134e-09
 83.75338    -53.0 9.232e+03 2.767e-09
 83.79259    -51.8 8.973e+03 2.484e-09
 83.83179    -50.2 8.803e+03 2.302e-09
 83.87100    -48.6 8.745e+03 2.161e-09
 83.91021    -47.1 8.760e+03 2.090e-09
 83.94941    -46.0 9.016e+03 2.107e-09
 83.98862    -45.6 9.351e+03 2.490e-09
 84.02783    -45.7 9.812e+03 3.272e-09
 84.04758    -46.3 1.002e+04 4.137e-09
 84.05728    -48.0 9.799e+03 4.737e-09
 84.07664    -48.1 9.860e+03 5.886e-09
 84.09625    -47.9 9.813e+03 6.547e-09
 84.11585    -47.6 9.772e+03 6.421e-09
 84.13545    -47.6 9.699e+03 5.309e-09
 84.15215    -48.2 9.534e+03 3.965e-09
 84.16195    -48.9 9.455e+03 3.708e-09
 84.17466    -49.7 9.251e+03 2.913e-09
 84.19426    -50.0 9.084e+03 2.599e-09
 84.22377    -50.2 9.109e+03 2.416e-09
 84.26307    -51.1 8.831e+03 1.884e-09
 84.30228    -51.6 8.567e+03 1.468e-09
 84.34149    -51.8 8.480e+03 1.296e-09
 84.38069    -51.7 8.453e+03 1.278e-09
 84.41990    -51.5 8.453e+03 1.403e-09
 84.45911    -51.3 8.482e+03 1.511e-09
 84.49832    -51.0 8.492e+03 1.534e-09
 84.53752    -50.8 8.497e+03 1.535e-09
 84.57673    -50.5 8.510e+03 1.574e-09
 84.61594    -50.2 8.571e+03 1.682e-09
 84.64224    -49.8 8.703e+03 1.853e-09
 84.65676    -50.0 8.619e+03 1.612e-09
 84.66967    -49.9 8.543e+03 1.660e-09
 84.69435    -49.1 8.676e+03 1.794e-09
 84.73356    -48.5 8.727e+03 1.808e-09
 84.77277    -47.9 8.716e+03 1.567e-09
 84.81197    -47.3 8.665e+03 1.316e-09
 84.85118    -46.5 8.654e+03 1.183e-09
 84.89039    -45.4 8.679e+03 1.115e-09
 84.92959    -44.1 8.709e+03 9.965e-10
 84.96880    -42.7 8.686e+03 8.243e-10
 85.00801    -41.5 8.611e+03 7.098e-10
 85.04722    -40.0 8.550e+03 6.959e-10
 85.08642    -38.5 8.625e+03 7.152e-10
 85.12233    -37.3 8.758e+03 8.883e-10
 85.14194    -36.8 8.741e+03 8.582e-10
 85.16484    -35.7 8.896e+03 1.373e-09
 85.20404    -34.2 9.139e+03 2.156e-09
 85.24325    -32.9 9.268e+03 2.739e-09
 85.28246    -31.9 9.250e+03 2.925e-09
 85.32167    -30.6 9.081e+03 2.646e-09
 85.36087    -29.1 8.955e+03 2.354e-09
 85.40008    -27.4 8.812e+03 2.150e-09
 85.43929    -25.7 8.802e+03 1.949e-09
 85.47849    -24.3 8.889e+03 1.920e-09
 85.51770    -23.3 9.061e+03 2.247e-09
 85.55691    -22.3 9.166e+03 2.932e-09
 85.59612    -21.0 9.238e+03 3.274e-09
 85.62203    -19.9 9.214e+03 2.818e-09
 85.64163    -18.8 9.183e+03 2.858e-09
 85.67453    -18.1 8.990e+03 2.367e-09
 85.71374    -17.0 8.692e+03 2.154e-09
 85.75294    -15.6 8.647e+03 2.065e-09
 85.79215    -14.3 8.763e+03 2.362e-09
 85.83136    -13.0 9.079e+03 3.263e-09
 85.86067    -11.9 9.393e+03 5.034e-09
 85.87168    -11.3 9.631e+03 5.553e-09
 85.88149    -10.9 9.494e+03 4.968e-09
 85.89385    -10.0 9.838e+03 6.543e-09
 85.90365     -9.9 1.022e+04 8.095e-09
 85.91938     -9.5 1.055e+04 9.147e-09
 85.93898     -9.7 1.087e+04 1.112e-08
 85.95859     -9.4 1.108e+04 1.220e-08
 85.97819     -9.2 1.128e+04 1.323e-08
 85.99779     -8.8 1.118e+04 1.282e-08
 86.01740     -8.4 1.099e+04 1.141e-08
 86.03700     -7.8 1.071e+04 9.132e-09
 86.05660     -7.6 1.054e+04 7.032e-09
 86.07621     -7.7 1.037e+04 5.557e-09
 86.09581     -7.6 1.009e+04 4.833e-09
 86.11173     -7.2 9.934e+03 4.607e-09
 86.12153     -6.9 1.003e+04 4.832e-09
 86.13502     -6.3 9.904e+03 4.444e-09
 86.15462     -5.6 9.878e+03 4.299e-09
 86.17423     -4.8 9.877e+03 4.287e-09
 86.19383     -4.0 9.902e+03 4.289e-09
 86.21343     -3.0 9.914e+03 4.104e-09
 86.23304     -2.5 1.003e+04 4.115e-09
 86.25264     -1.4 9.974e+03 4.004e-09
 86.27224     -0.9 1.011e+04 4.126e-09
 86.29185     -0.1 1.018e+04 4.384e-09
 86.31145      0.6 1.034e+04 4.704e-09
 86.33105      1.0 1.058e+04 5.559e-09
 86.35066      1.7 1.078e+04 6.474e-09
 86.36158      1.9 1.118e+04 7.918e-09
 86.37138      2.1 1.092e+04 6.787e-09
 86.38987      2.7 1.111e+04 7.920e-09
 86.40947      3.3 1.134e+04 9.137e-09
 86.42907      3.8 1.160e+04 1.032e-08
 86.44868      4.2 1.185e+04 1.142e-08
 86.46828      4.5 1.206e+04 1.211e-08
 86.48788      4.5 1.227e+04 1.247e-08
 86.50604      4.6 1.239e+04 1.255e-08
 86.51584      5.7 1.243e+04 1.265e-08
 86.52709      5.7 1.260e+04 1.304e-08
 86.54669      5.6 1.277e+04 1.342e-08
 86.56630      5.4 1.286e+04 1.326e-08
 86.58590      5.3 1.281e+04 1.210e-08
 86.60163      5.1 1.265e+04 9.909e-09
 86.61143      5.9 1.240e+04 8.742e-09
 86.62511      5.5 1.232e+04 6.776e-09
 86.64471      4.5 1.228e+04 5.178e-09
 86.66432      3.3 1.217e+04 4.463e-09
 86.68392      1.4 1.237e+04 4.967e-09
 86.70352     -2.5 1.346e+04 8.349e-09
 86.71818    -10.3 1.782e+04 2.149e-08
 86.72645    -16.8 1.952e+04 5.469e-08
 86.73136    -12.9 1.909e+04 3.098e-08
 86.73773    -18.4 1.860e+04 9.462e-08
 86.74753    -19.1 1.759e+04 1.935e-07
 86.75734    -18.2 1.775e+04 3.015e-07
 86.76714    -18.6 1.864e+04 2.993e-07
 86.77694    -22.1 1.899e+04 1.613e-07
 86.78674    -23.3 1.904e+04 1.409e-07
 86.80149    -32.3 1.796e+04 6.090e-08
 86.82114    -39.1 1.702e+04 4.645e-08
 86.84075    -41.8 1.651e+04 5.789e-08
 86.85148    -42.3 1.636e+04 8.489e-08
 86.86128    -41.3 1.562e+04 5.217e-08
 86.87996    -41.0 1.556e+04 6.327e-08
 86.89956    -40.3 1.570e+04 6.359e-08
 86.91916    -40.1 1.579e+04 5.818e-08
 86.93877    -40.7 1.580e+04 5.101e-08
 86.95837    -42.1 1.576e+04 4.691e-08
 86.97797    -44.3 1.553e+04 4.421e-08
 86.99758    -45.3 1.547e+04 4.745e-08
 87.01718    -45.0 1.534e+04 4.698e-08
 87.03678    -44.2 1.484e+04 3.797e-08
 87.05639    -43.6 1.432e+04 3.156e-08
 87.07599    -42.9 1.393e+04 2.793e-08
 87.09152    -41.9 1.365e+04 2.567e-08
 87.10133    -41.2 1.366e+04 2.562e-08
 87.11520    -40.1 1.355e+04 2.486e-08
 87.12803    -39.1 1.347e+04 2.472e-08
 87.13783    -38.2 1.206e+04 1.279e-08
 87.15441    -37.2 1.199e+04 1.237e-08
 87.17401    -36.1 1.205e+04 1.245e-08
 87.19361    -35.1 1.217e+04 1.316e-08
 87.21322    -34.1 1.224e+04 1.376e-08
 87.23282    -33.2 1.236e+04 1.456e-08
 87.25242    -32.6 1.243e+04 1.559e-08
 87.27203    -31.7 1.242e+04 1.644e-08
 87.29163    -30.8 1.239e+04 1.716e-08
 87.31123    -29.6 1.233e+04 1.742e-08
 87.33084    -28.4 1.220e+04 1.670e-08
 87.34137    -27.3 1.207e+04 1.542e-08
 87.35117    -27.6 1.192e+04 1.383e-08
 87.37004    -26.9 1.178e+04 1.288e-08
 87.38965    -25.9 1.191e+04 1.311e-08
 87.40925    -25.9 1.275e+04 1.609e-08
 87.42886    -26.5 1.385e+04 2.294e-08
 87.44846    -27.0 1.477e+04 3.632e-08
 87.46806    -25.8 1.553e+04 5.769e-08
 87.48767    -24.3 1.590e+04 7.061e-08
 87.50727    -23.5 1.564e+04 6.782e-08
 87.52687    -23.1 1.502e+04 5.204e-08
 87.54648    -23.1 1.419e+04 3.672e-08
 87.56608    -22.9 1.324e+04 2.628e-08
 87.58142    -21.9 1.237e+04 1.891e-08
 87.59122    -22.0 1.210e+04 1.775e-08
 87.60529    -20.9 1.188e+04 1.377e-08
 87.62489    -20.3 1.208e+04 1.089e-08
 87.64450    -20.2 1.222e+04 9.821e-09
 87.66410    -19.9 1.247e+04 1.008e-08
 87.68370    -19.4 1.254e+04 1.129e-08
 87.70331    -19.0 1.249e+04 1.307e-08
 87.72291    -18.5 1.240e+04 1.613e-08
 87.74022    -17.6 1.215e+04 2.034e-08
 87.75002    -15.4 1.210e+04 1.398e-08
 87.76212    -14.8 1.231e+04 1.541e-08
 87.78172    -14.7 1.199e+04 1.819e-08
 87.80132    -13.4 1.168e+04 2.166e-08
 87.82093    -11.9 1.166e+04 2.234e-08
 87.83127    -10.4 1.185e+04 2.074e-08
 87.84107    -10.6 1.186e+04 2.071e-08
 87.86013     -9.9 1.224e+04 1.861e-08
 87.87974    -10.0 1.275e+04 1.420e-08
 87.90924    -12.4 1.198e+04 9.655e-09
 87.93865    -14.0 1.143e+04 9.759e-09
 87.95815    -14.1 1.117e+04 9.091e-09
 87.97776    -15.3 1.102e+04 5.859e-09
 87.99736    -16.8 1.084e+04 5.352e-09
 88.01696    -19.0 1.088e+04 4.674e-09
 88.03657    -20.6 1.060e+04 4.958e-09
 88.05617    -21.7 1.035e+04 5.311e-09
 88.07132    -22.4 1.023e+04 5.199e-09
 88.08112    -23.1 1.033e+04 5.203e-09
 88.09538    -24.2 1.001e+04 4.362e-09
 88.11498    -25.6 1.005e+04 3.680e-09
 88.13458    -28.8 9.855e+03 3.284e-09
 88.15419    -34.3 1.087e+04 4.360e-09
 88.17379    -43.4 1.390e+04 1.841e-08
 88.19340    -48.7 1.649e+04 6.852e-08
 88.21300    -53.8 1.869e+04 1.407e-07
 88.23260    -62.6 1.960e+04 1.599e-07
 88.25221    -73.3 1.874e+04 1.176e-07
 88.27181    -81.5 1.580e+04 6.696e-08
 88.29141    -84.7 1.379e+04 3.939e-08
 88.31102    -86.4 1.217e+04 1.889e-08
 88.32116    -89.4 1.020e+04 7.712e-09
 88.33097    -90.1 9.388e+03 5.665e-09
 88.35022    -92.0 8.561e+03 3.470e-09
 88.36221    -92.4 8.310e+03 2.865e-09
 88.37201    -94.2 8.349e+03 3.073e-09
 88.38943    -94.2 8.270e+03 3.007e-09
 88.40903    -93.8 8.251e+03 3.003e-09
 88.42864    -93.2 8.325e+03 3.101e-09
 88.44824    -92.5 8.477e+03 3.243e-09
 88.46785    -92.2 8.569e+03 3.339e-09
 88.49735    -91.7 8.726e+03 3.599e-09
 88.53665    -90.8 8.692e+03 3.463e-09
 88.56141    -89.6 8.444e+03 2.979e-09
 88.58101    -88.4 8.472e+03 3.107e-09
 88.61507    -86.8 8.332e+03 2.824e-09
 88.65427    -85.1 8.196e+03 2.408e-09
 88.69348    -83.3 8.089e+03 1.951e-09
 88.73269    -81.6 8.020e+03 1.567e-09
 88.77190    -79.9 8.015e+03 1.362e-09
 88.81110    -78.6 8.032e+03 1.327e-09
 88.85031    -78.2 8.092e+03 1.413e-09
 88.88952    -79.4 9.468e+03 3.385e-09
 88.92873    -80.8 1.109e+04 9.821e-09
 88.95803    -82.0 1.187e+04 1.622e-08
 88.97439    -83.0 1.215e+04 1.770e-08
 88.98420    -83.1 1.285e+04 2.430e-08
 88.99714    -84.5 1.306e+04 2.527e-08
 89.01675    -86.9 1.291e+04 2.189e-08
 89.03635    -89.2 1.259e+04 1.854e-08
 89.05111    -91.1 1.230e+04 1.689e-08
 89.06091    -91.0 1.219e+04 1.578e-08
 89.07556    -92.1 1.176e+04 1.337e-08
 89.09516    -92.6 1.136e+04 1.071e-08
 89.11476    -92.8 1.103e+04 8.136e-09
 89.13437    -93.0 1.079e+04 6.210e-09
 89.15397    -93.1 1.059e+04 5.115e-09
 89.17357    -93.1 1.040e+04 4.647e-09
 89.19318    -92.8 1.025e+04 4.523e-09
 89.21278    -92.2 1.022e+04 4.504e-09
 89.23239    -91.8 1.019e+04 4.627e-09
 89.25199    -91.7 1.037e+04 5.265e-09
 89.27159    -91.8 1.076e+04 6.553e-09
 89.29115    -92.2 1.126e+04 8.819e-09
 89.31076    -92.0 1.192e+04 1.137e-08
 89.33040    -92.1 1.235e+04 1.640e-08
 89.35001    -92.0 1.288e+04 2.171e-08
 89.36961    -91.9 1.326e+04 2.628e-08
 89.38921    -91.9 1.350e+04 2.825e-08
 89.40882    -92.2 1.358e+04 2.857e-08
 89.42842    -92.6 1.354e+04 2.730e-08
 89.44802    -92.8 1.331e+04 2.492e-08
 89.46763    -92.8 1.306e+04 2.272e-08
 89.48723    -92.7 1.283e+04 2.030e-08
 89.50684    -92.3 1.257e+04 1.732e-08
 89.52644    -91.8 1.232e+04 1.395e-08
 89.54100    -91.4 1.206e+04 1.060e-08
 89.55081    -91.1 1.205e+04 9.488e-09
 89.56565    -91.0 1.170e+04 6.787e-09
 89.58525    -91.2 1.134e+04 4.960e-09
 89.59638    -91.3 1.100e+04 3.877e-09
 89.60619    -90.1 1.251e+04 1.051e-08
 89.62446    -90.5 1.193e+04 7.476e-09
 89.64406    -90.6 1.144e+04 5.840e-09
 89.66366    -90.3 1.115e+04 5.011e-09
 89.68327    -89.5 1.100e+04 4.498e-09
 89.70287    -88.5 1.095e+04 4.082e-09
 89.72247    -87.6 1.092e+04 3.733e-09
 89.74208    -86.7 1.091e+04 3.497e-09
 89.76168    -85.8 1.093e+04 3.351e-09
 89.78105    -84.8 1.097e+04 3.313e-09
 89.79085    -84.7 1.095e+04 3.201e-09
 89.80089    -83.7 1.095e+04 3.191e-09
 89.82049    -82.5 1.102e+04 3.216e-09
 89.84010    -81.5 1.109e+04 3.227e-09
 89.85970    -80.3 1.122e+04 3.341e-09
 89.87930    -79.4 1.129e+04 3.500e-09
 89.89891    -78.1 1.143e+04 3.858e-09
 89.91851    -77.3 1.155e+04 4.276e-09
 89.93811    -76.2 1.169e+04 4.960e-09
 89.95772    -75.2 1.181e+04 5.743e-09
 89.97732    -74.1 1.198e+04 6.848e-09
 89.99693    -73.0 1.222e+04 8.242e-09
 90.01653    -71.9 1.246e+04 9.811e-09
 90.03090    -70.8 1.271e+04 1.147e-08
 90.04070    -70.9 1.257e+04 1.091e-08
 90.05574    -69.9 1.275e+04 1.191e-08
 90.07534    -69.0 1.283e+04 1.231e-08
 90.09494    -68.1 1.284e+04 1.238e-08
 90.11455    -67.0 1.276e+04 1.176e-08
 90.13415    -65.7 1.265e+04 1.049e-08
 90.15375    -64.5 1.247e+04 8.891e-09
 90.17336    -63.1 1.231e+04 7.363e-09
 90.19296    -61.6 1.221e+04 5.978e-09
 90.20857    -60.2 1.223e+04 4.912e-09
 90.21837    -60.5 1.213e+04 4.779e-09
 90.23217    -59.3 1.203e+04 3.999e-09
 90.25177    -57.9 1.192e+04 3.489e-09
 90.27095    -56.5 1.191e+04 3.255e-09
 90.28075    -56.4 1.185e+04 2.955e-09
 90.30088    -54.9 1.201e+04 3.034e-09
 90.34018    -52.5 1.199e+04 2.983e-09
 90.37939    -50.1 1.208e+04 3.088e-09
 90.41860    -48.5 1.224e+04 3.816e-09
 90.44791    -46.8 1.243e+04 4.478e-09
 90.46741    -46.7 1.252e+04 4.743e-09
 90.48701    -46.5 1.302e+04 5.961e-09
 90.50662    -47.1 1.366e+04 7.940e-09
 90.52080    -47.9 1.430e+04 1.255e-08
 90.53060    -47.3 1.440e+04 1.361e-08
 90.54583    -48.2 1.481e+04 2.251e-08
 90.56543    -48.7 1.500e+04 3.430e-08
 90.58503    -48.9 1.524e+04 4.269e-08
 90.60464    -48.9 1.537e+04 4.380e-08
 90.62424    -48.9 1.537e+04 4.053e-08
 90.64384    -48.7 1.514e+04 2.916e-08
 90.66345    -48.5 1.478e+04 1.838e-08
 90.68305    -48.3 1.433e+04 1.176e-08
 90.70265    -47.8 1.394e+04 7.950e-09
 90.72226    -46.8 1.369e+04 5.598e-09
 90.74186    -45.7 1.362e+04 4.014e-09
 90.76084    -44.7 1.367e+04 2.911e-09
 90.77064    -44.3 1.364e+04 2.817e-09
 90.78107    -43.5 1.365e+04 2.203e-09
 90.81057    -42.6 1.353e+04 1.785e-09
 90.83076    -40.2 1.359e+04 1.776e-09
 90.84046    -39.7 1.372e+04 2.159e-09
 90.85948    -38.9 1.368e+04 2.136e-09
 90.87909    -37.5 1.384e+04 2.272e-09
 90.89869    -36.9 1.383e+04 2.406e-09
 90.91829    -35.7 1.395e+04 2.975e-09
 90.93790    -35.0 1.389e+04 3.533e-09
 90.95750    -34.1 1.394e+04 4.291e-09
 90.97710    -33.2 1.399e+04 5.022e-09
 90.99671    -32.4 1.405e+04 5.540e-09
 91.01069    -31.7 1.403e+04 5.816e-09
 91.02049    -31.5 1.402e+04 6.377e-09
 91.03592    -30.7 1.397e+04 6.388e-09
 91.05552    -29.8 1.391e+04 6.404e-09
 91.07512    -29.0 1.393e+04 6.321e-09
 91.09473    -28.1 1.386e+04 6.023e-09
 91.11433    -27.1 1.387e+04 6.030e-09
 91.13393    -26.1 1.384e+04 6.087e-09
 91.15354    -25.1 1.378e+04 6.023e-09
 91.17314    -24.1 1.381e+04 6.498e-09
 91.19274    -23.1 1.380e+04 7.317e-09
 91.21235    -22.3 1.376e+04 8.079e-09
 91.23195    -21.5 1.373e+04 9.786e-09
 91.25074    -20.6 1.378e+04 1.257e-08
 91.26054    -20.5 1.374e+04 1.078e-08
 91.27116    -19.6 1.375e+04 1.253e-08
 91.29076    -18.7 1.379e+04 1.449e-08
 91.31037    -17.7 1.384e+04 1.571e-08
 91.32997    -16.7 1.381e+04 1.444e-08
 91.34957    -15.6 1.367e+04 1.249e-08
 91.36918    -14.9 1.371e+04 9.599e-09
 91.38878    -14.0 1.363e+04 8.585e-09
 91.40838    -13.2 1.363e+04 8.013e-09
 91.42799    -12.4 1.374e+04 7.558e-09
 91.44275    -12.1 1.379e+04 8.770e-09
 91.45255    -11.7 1.401e+04 7.977e-09
 91.46719    -10.5 1.362e+04 1.250e-08
 91.48680     -9.4 1.405e+04 1.309e-08
 91.50059     -8.5 1.389e+04 1.514e-08
 91.51039     -8.6 1.397e+04 1.620e-08
 91.52600     -7.8 1.400e+04 1.797e-08
 91.54561     -7.4 1.433e+04 1.899e-08
 91.56521     -7.7 1.453e+04 2.540e-08
 91.58482     -7.5 1.485e+04 3.439e-08
 91.60442     -7.0 1.527e+04 4.566e-08
 91.62402     -6.2 1.522e+04 5.277e-08
 91.64363     -5.1 1.507e+04 5.011e-08
 91.66323     -4.3 1.498e+04 3.558e-08
 91.68283     -4.0 1.446e+04 3.194e-08
 91.70244     -2.9 1.406e+04 2.516e-08
 91.72204     -2.3 1.391e+04 2.142e-08
 91.74063     -1.3 1.380e+04 2.269e-08
 91.75044     -1.7 1.369e+04 2.063e-08
 91.76125     -0.6 1.367e+04 1.977e-08
 91.78085      0.2 1.388e+04 2.099e-08
 91.80045      0.1 1.428e+04 2.656e-08
 91.82006     -0.3 1.480e+04 3.742e-08
 91.83966     -0.4 1.521e+04 5.626e-08
 91.85927     -0.0 1.530e+04 6.913e-08
 91.87887      0.3 1.509e+04 6.185e-08
 91.89847     -0.4 1.493e+04 5.418e-08
 91.91808     -1.6 1.445e+04 4.884e-08
 91.93768     -2.2 1.408e+04 4.291e-08
 91.95728     -2.2 1.383e+04 3.746e-08
 91.97689     -2.5 1.363e+04 3.117e-08
 91.99048     -2.8 1.320e+04 2.532e-08
 92.00029     -2.8 1.334e+04 2.890e-08
 92.01609     -3.0 1.281e+04 2.334e-08
 92.03570     -3.0 1.234e+04 1.907e-08
 92.05494     -3.4 1.217e+04 1.568e-08
 92.06474     -4.4 1.295e+04 1.980e-08
 92.07490     -5.7 1.313e+04 2.176e-08
 92.09451     -6.7 1.332e+04 2.803e-08
 92.11411     -6.9 1.353e+04 3.430e-08
 92.13372     -6.3 1.338e+04 3.640e-08
 92.15332     -5.3 1.307e+04 2.950e-08
 92.17292     -5.8 1.285e+04 2.058e-08
 92.19253     -7.6 1.230e+04 1.543e-08
 92.21213     -8.6 1.182e+04 1.503e-08
 92.23053     -9.0 1.192e+04 1.678e-08
 92.24033     -9.8 1.208e+04 1.741e-08
 92.25134     -9.8 1.249e+04 2.180e-08
 92.27094    -10.2 1.306e+04 2.776e-08
 92.29054    -11.8 1.427e+04 4.051e-08
 92.31015    -14.5 1.571e+04 7.020e-08
 92.32480    -15.7 1.628e+04 1.126e-07
 92.33455    -16.3 1.674e+04 1.244e-07
 92.34436    -17.4 1.697e+04 1.643e-07
 92.35416    -17.9 1.725e+04 1.757e-07
 92.36026    -18.9 1.704e+04 1.700e-07
 92.36516    -19.3 1.666e+04 1.300e-07
 92.37074    -20.3 1.648e+04 1.090e-07
 92.37564    -20.2 1.667e+04 1.167e-07
 92.38851    -22.2 1.600e+04 7.950e-08
 92.40817    -24.8 1.478e+04 4.099e-08
 92.42777    -27.3 1.356e+04 2.042e-08
 92.44737    -29.1 1.249e+04 1.224e-08
 92.46698    -29.8 1.192e+04 9.414e-09
 92.48038    -29.8 1.172e+04 8.316e-09
 92.49018    -29.4 1.171e+04 7.374e-09
 92.50618    -29.2 1.159e+04 6.568e-09
 92.52579    -28.9 1.148e+04 5.983e-09
 92.54539    -28.5 1.137e+04 5.575e-09
 92.56499    -28.0 1.125e+04 5.263e-09
 92.58460    -27.3 1.110e+04 4.922e-09
 92.60420    -26.6 1.103e+04 4.609e-09
 92.62381    -26.1 1.094e+04 4.354e-09
 92.65331    -25.0 1.069e+04 3.549e-09
 92.69261    -22.7 1.043e+04 2.327e-09
 92.73182    -21.0 1.037e+04 1.692e-09
 92.77103    -19.5 1.028e+04 1.513e-09
 92.81023    -17.9 1.030e+04 1.530e-09
 92.84944    -17.2 1.057e+04 1.853e-09
 92.88865    -17.5 1.098e+04 3.152e-09
 92.91796    -17.9 1.135e+04 5.525e-09
 92.93746    -18.4 1.174e+04 7.829e-09
 92.95707    -18.6 1.202e+04 1.171e-08
 92.97028    -18.5 1.242e+04 1.526e-08
 92.98008    -19.2 1.284e+04 1.852e-08
 92.99627    -19.9 1.302e+04 1.797e-08
 93.01588    -20.7 1.289e+04 1.655e-08
 93.03548    -21.2 1.266e+04 1.507e-08
 93.05508    -21.3 1.239e+04 1.353e-08
 93.07469    -21.0 1.205e+04 1.118e-08
 93.09429    -20.5 1.185e+04 8.980e-09
 93.12379    -21.6 1.133e+04 6.288e-09
 93.16310    -20.2 1.088e+04 4.344e-09
 93.20231    -18.5 1.063e+04 3.828e-09
 93.24151    -16.3 1.053e+04 3.516e-09
 93.27951    -14.1 1.054e+04 3.113e-09
 93.29911    -13.3 1.066e+04 3.236e-09
 93.31993    -11.4 1.059e+04 2.932e-09
 93.35914     -9.5 1.072e+04 2.997e-09
 93.39834     -8.2 1.089e+04 3.722e-09
 93.43755     -6.6 1.094e+04 4.853e-09
 93.46037     -4.9 1.118e+04 5.452e-09
 93.47997     -5.1 1.096e+04 3.737e-09
 93.51596     -3.8 1.110e+04 3.954e-09
 93.55517     -2.8 1.121e+04 3.956e-09
 93.59438     -1.8 1.117e+04 3.672e-09
 93.63359     -0.8 1.119e+04 3.677e-09
 93.67279     -0.4 1.135e+04 4.325e-09
 93.71200     -0.7 1.177e+04 6.838e-09
 93.75121     -1.4 1.255e+04 1.232e-08
 93.79041     -2.7 1.288e+04 1.604e-08
 93.82962     -3.1 1.257e+04 1.116e-08
 93.86883     -3.6 1.197e+04 4.940e-09
 93.90804     -4.3 1.161e+04 3.055e-09
 93.94046     -3.4 1.150e+04 2.648e-09
 93.96006     -3.8 1.162e+04 2.393e-09
 93.98645     -2.1 1.158e+04 1.834e-09
 94.02566     -0.7 1.174e+04 1.325e-09
 94.06486      0.4 1.173e+04 1.159e-09
 94.10407      1.5 1.160e+04 1.289e-09
 94.14328      2.9 1.142e+04 1.618e-09
 94.18249      4.2 1.137e+04 1.964e-09
 94.22169      5.0 1.136e+04 2.232e-09
 94.26090      5.1 1.120e+04 2.678e-09
 94.29021      5.8 1.094e+04 3.090e-09
 94.30971      6.0 1.093e+04 3.228e-09
 94.32932      7.0 1.083e+04 3.230e-09
 94.34892      7.2 1.082e+04 3.208e-09
 94.37842      8.5 1.071e+04 2.912e-09
 94.41773      9.8 1.061e+04 2.850e-09
 94.44016     10.8 1.068e+04 3.397e-09
 94.44986     11.2 1.062e+04 2.873e-09
 94.46654     11.5 1.069e+04 3.264e-09
 94.49605     12.7 1.077e+04 4.723e-09
 94.52349     14.7 1.084e+04 6.010e-09
 94.54310     15.5 1.047e+04 4.360e-09
 94.57456     17.5 1.038e+04 4.275e-09
 94.61376     19.4 1.023e+04 3.644e-09
 94.65297     21.4 1.006e+04 2.961e-09
 94.69218     23.3 9.896e+03 2.509e-09
 94.73139     25.4 9.766e+03 2.366e-09
 94.77059     27.9 9.705e+03 2.318e-09
 94.80980     30.5 9.667e+03 2.267e-09
 94.84901     33.1 9.621e+03 2.184e-09
 94.88821     35.7 9.566e+03 2.119e-09
 94.92025     38.3 9.551e+03 2.150e-09
 94.93986     38.9 9.701e+03 2.353e-09
 94.96663     41.4 9.792e+03 2.300e-09
 95.00584     44.0 9.830e+03 2.245e-09
 95.04504     46.5 9.860e+03 2.236e-09
 95.08425     49.1 9.925e+03 2.283e-09
 95.12346     51.6 1.005e+04 2.371e-09
 95.16266     54.0 1.032e+04 2.529e-09
 95.20187     56.0 1.056e+04 2.753e-09
 95.24108     58.0 1.078e+04 2.938e-09
 95.28029     59.7 1.097e+04 3.028e-09
 95.31949     61.3 1.118e+04 3.114e-09
 95.34880     62.6 1.128e+04 3.450e-09
 95.36831     63.5 1.143e+04 3.782e-09
 95.38791     64.3 1.164e+04 4.020e-09
 95.40751     65.1 1.180e+04 4.164e-09
 95.41976     65.8 1.199e+04 4.147e-09
 95.42956     66.5 1.201e+04 5.097e-09
 95.44672     67.2 1.220e+04 4.978e-09
 95.46632     67.8 1.235e+04 4.694e-09
 95.48593     68.2 1.241e+04 4.325e-09
 95.50553     68.7 1.239e+04 3.959e-09
 95.52514     69.2 1.231e+04 3.678e-09
 95.54474     69.8 1.224e+04 3.467e-09
 95.56434     70.3 1.217e+04 3.315e-09
 95.58395     70.8 1.205e+04 3.160e-09
 95.60355     71.4 1.194e+04 3.104e-09
 95.62315     72.0 1.192e+04 3.136e-09
 95.64276     72.5 1.187e+04 3.306e-09
 95.65980     73.0 1.185e+04 3.702e-09
 95.66960     73.5 1.202e+04 4.711e-09
 95.68196     74.0 1.206e+04 5.410e-09
 95.70157     74.5 1.215e+04 6.114e-09
 95.72117     74.9 1.224e+04 6.853e-09
 95.74078     75.3 1.231e+04 7.445e-09
 95.75747     75.7 1.236e+04 7.865e-09
 95.76728     75.8 1.210e+04 6.117e-09
 95.77998     76.1 1.207e+04 6.106e-09
 95.79959     76.5 1.205e+04 6.212e-09
 95.81919     76.8 1.206e+04 6.407e-09
 95.83879     77.2 1.209e+04 6.644e-09
 95.85840     77.6 1.212e+04 6.893e-09
 95.87800     77.9 1.212e+04 7.118e-09
 95.89760     78.4 1.209e+04 7.282e-09
 95.90965     78.9 1.203e+04 7.396e-09
 95.91945     79.1 1.223e+04 8.138e-09
 95.93681     79.7 1.219e+04 8.237e-09
 95.95641     80.4 1.218e+04 8.384e-09
 95.97602     81.1 1.221e+04 8.730e-09
 95.99562     81.7 1.230e+04 9.342e-09
 96.01523     82.3 1.248e+04 1.050e-08
 96.03483     82.8 1.269e+04 1.193e-08
 96.05443     83.3 1.283e+04 1.340e-08
 96.07404     83.7 1.288e+04 1.457e-08
 96.09364     84.0 1.281e+04 1.505e-08
 96.11324     84.2 1.268e+04 1.462e-08
 96.13285     84.4 1.237e+04 1.355e-08
 96.14970     84.6 1.202e+04 1.224e-08
 96.15950     85.1 1.255e+04 1.457e-08
 96.17205     85.3 1.233e+04 1.323e-08
 96.19166     85.7 1.216e+04 1.163e-08
 96.21126     86.0 1.188e+04 9.756e-09
 96.23086     86.2 1.152e+04 7.947e-09
 96.25047     86.3 1.119e+04 6.488e-09
 96.27007     86.3 1.097e+04 5.494e-09
 96.28968     86.3 1.087e+04 4.876e-09
 96.30928     86.4 1.080e+04 4.513e-09
 96.32888     86.5 1.071e+04 4.314e-09
 96.34849     86.6 1.060e+04 4.290e-09
 96.36809     86.7 1.058e+04 4.417e-09
 96.37946     86.8 1.056e+04 4.727e-09
 96.38927     87.6 1.086e+04 5.447e-09
 96.39955     87.7 1.089e+04 5.997e-09
 96.40935     87.6 1.129e+04 7.941e-09
 96.42690     87.8 1.138e+04 8.938e-09
 96.44650     88.1 1.149e+04 1.003e-08
 96.46611     88.4 1.161e+04 1.101e-08
 96.48571     88.5 1.173e+04 1.175e-08
 96.50531     88.5 1.187e+04 1.213e-08
 96.52492     88.2 1.210e+04 1.265e-08
 96.54452     86.9 1.262e+04 1.455e-08
 96.56413     84.5 1.342e+04 1.948e-08
 96.57878     81.8 1.394e+04 2.430e-08
 96.58853     80.8 1.402e+04 2.601e-08
 96.59833     78.6 1.468e+04 3.372e-08
 96.60814     76.1 1.545e+04 4.828e-08
 96.61794     73.7 1.607e+04 6.648e-08
 96.62774     72.0 1.605e+04 7.585e-08
 96.63754     70.3 1.603e+04 7.463e-08
 96.64440     69.8 1.595e+04 7.295e-08
 96.64930     70.7 1.548e+04 5.940e-08
 96.66209     69.4 1.521e+04 5.020e-08
 96.68175     68.0 1.463e+04 2.508e-08
 96.70135     65.2 1.384e+04 1.039e-08
 96.72095     63.3 1.307e+04 8.175e-09
 96.74056     63.4 1.303e+04 8.239e-09
 96.76016     63.9 1.303e+04 8.577e-09
 96.77977     64.6 1.315e+04 9.317e-09
 96.79937     65.2 1.327e+04 1.008e-08
 96.81897     65.8 1.333e+04 1.074e-08
 96.83858     66.4 1.338e+04 1.122e-08
 96.85818     66.7 1.346e+04 1.180e-08
 96.87778     66.7 1.356e+04 1.296e-08
 96.88944     66.4 1.375e+04 1.600e-08
 96.89925     67.5 1.370e+04 1.563e-08
 96.91699     67.0 1.397e+04 2.075e-08
 96.93659     66.2 1.431e+04 2.890e-08
 96.95620     65.6 1.465e+04 4.014e-08
 96.97580     65.1 1.481e+04 4.901e-08
 96.99165     64.7 1.476e+04 4.886e-08
 97.00145     63.9 1.477e+04 4.869e-08
 97.01501     63.6 1.422e+04 3.888e-08
 97.03461     63.5 1.350e+04 2.656e-08
 97.05422     63.4 1.271e+04 1.662e-08
 97.08372     63.2 1.188e+04 7.085e-09
 97.12302     63.1 1.054e+04 3.632e-09
 97.16223     64.4 9.805e+03 3.343e-09
 97.20144     66.4 9.774e+03 3.576e-09
 97.24064     68.5 9.722e+03 4.074e-09
 97.27985     70.3 9.716e+03 4.749e-09
 97.31906     71.8 9.737e+03 5.484e-09
 97.35827     73.2 9.786e+03 6.292e-09
 97.37954     74.5 9.623e+03 6.028e-09
 97.39914     75.4 9.645e+03 6.188e-09
 97.43668     76.6 9.306e+03 5.407e-09
 97.47589     77.8 8.870e+03 3.973e-09
 97.51509     79.1 8.365e+03 2.627e-09
 97.55430     80.4 7.863e+03 1.857e-09
 97.59351     82.0 7.709e+03 1.756e-09
 97.63272     83.9 7.712e+03 1.813e-09
 97.67192     85.8 7.774e+03 2.011e-09
 97.71113     87.4 7.884e+03 2.246e-09
 97.75034     88.8 7.948e+03 2.337e-09
 97.78954     89.9 7.964e+03 2.382e-09
 97.82875     90.9 8.057e+03 2.493e-09
 97.85963     91.3 8.235e+03 2.697e-09
 97.87923     92.1 8.514e+03 3.189e-09
 97.90717     91.7 8.830e+03 3.601e-09
 97.94637     89.8 9.372e+03 4.193e-09
 97.97568     87.0 8.215e+03 3.080e-09
 97.99519     84.4 8.166e+03 3.235e-09
 98.01479     83.0 9.108e+03 3.842e-09
 98.03439     80.7 9.689e+03 4.396e-09
 98.05400     79.1 1.046e+04 5.536e-09
 98.07360     77.6 1.085e+04 6.474e-09
 98.09321     76.3 1.078e+04 6.737e-09
 98.10928     74.6 1.075e+04 7.033e-09
 98.11908     73.5 1.104e+04 8.732e-09
 98.13241     72.5 1.108e+04 8.889e-09
 98.15202     71.3 1.127e+04 9.552e-09
 98.17162     70.6 1.158e+04 1.021e-08
 98.19122     69.5 1.195e+04 1.158e-08
 98.21083     69.1 1.228e+04 1.293e-08
 98.22583     68.3 1.257e+04 1.498e-08
 98.23573     73.0 1.138e+04 7.731e-09
 98.25013     70.4 1.211e+04 1.130e-08
 98.26964     69.6 1.224e+04 1.324e-08
 98.28924     69.4 1.242e+04 1.411e-08
 98.30884     69.3 1.251e+04 1.410e-08
 98.32845     69.3 1.239e+04 1.322e-08
 98.34805     69.6 1.213e+04 1.178e-08
 98.35913     70.0 1.177e+04 9.538e-09
 98.36893     69.2 1.160e+04 8.477e-09
 98.38726     69.7 1.121e+04 6.448e-09
 98.40686     70.3 1.085e+04 4.948e-09
 98.42647     70.9 1.053e+04 3.926e-09
 98.44607     71.7 1.025e+04 3.245e-09
 98.46567     72.3 1.006e+04 2.880e-09
 98.48528     73.5 9.908e+03 2.758e-09
 98.50488     73.8 9.883e+03 2.737e-09
 98.53438     76.2 9.771e+03 2.755e-09
 98.57369     78.6 9.691e+03 2.917e-09
 98.61290     80.7 9.628e+03 3.162e-09
 98.65210     82.6 9.593e+03 3.238e-09
 98.69131     84.5 9.486e+03 3.123e-09
 98.73052     86.4 9.264e+03 2.798e-09
 98.76972     88.2 9.006e+03 2.412e-09
 98.80893     90.0 8.780e+03 2.082e-09
 98.83942     91.8 8.617e+03 1.837e-09
 98.85902     91.6 8.620e+03 1.832e-09
 98.88735     93.4 8.522e+03 1.646e-09
 98.92655     95.2 8.460e+03 1.510e-09
 98.96576     97.0 8.355e+03 1.457e-09
 99.00497     98.9 8.349e+03 1.464e-09
 99.04417    100.7 8.401e+03 1.535e-09
 99.08338    102.5 8.453e+03 1.758e-09
 99.12259    104.1 8.641e+03 2.114e-09
 99.16180    105.6 8.823e+03 2.439e-09
 99.20100    106.9 8.904e+03 2.476e-09
 99.24021    108.1 8.897e+03 2.395e-09
 99.27942    109.1 8.917e+03 2.097e-09
 99.31862    110.2 9.016e+03 1.813e-09
 99.33912    111.1 9.078e+03 1.816e-09
 99.35872    111.6 9.438e+03 2.410e-09
 99.39704    112.3 9.677e+03 2.685e-09
 99.42635    112.5 9.763e+03 2.838e-09
 99.44585    112.6 9.916e+03 3.271e-09
 99.46001    112.7 1.014e+04 4.169e-09
 99.46981    112.8 1.002e+04 3.839e-09
 99.48506    113.1 1.019e+04 4.705e-09
 99.50466    113.6 1.038e+04 5.562e-09
 99.52427    114.1 1.056e+04 6.242e-09
 99.54387    114.6 1.071e+04 6.716e-09
 99.56347    115.1 1.084e+04 7.126e-09
 99.57897    115.5 1.098e+04 7.680e-09
 99.58877    114.7 1.124e+04 9.354e-09
 99.60268    115.1 1.141e+04 1.020e-08
 99.62228    115.6 1.160e+04 1.120e-08
 99.64189    116.1 1.181e+04 1.232e-08
 99.66149    116.7 1.203e+04 1.344e-08
 99.68110    117.1 1.226e+04 1.447e-08
 99.70070    117.4 1.245e+04 1.534e-08
 99.72030    117.6 1.259e+04 1.587e-08
 99.73991    117.8 1.266e+04 1.613e-08
 99.75951    118.1 1.270e+04 1.619e-08
 99.77911    118.4 1.275e+04 1.617e-08
 99.79872    118.6 1.280e+04 1.613e-08
 99.81832    118.8 1.286e+04 1.613e-08
 99.82882    118.8 1.297e+04 1.634e-08
 99.83862    117.8 1.296e+04 1.585e-08
 99.85753    117.6 1.317e+04 1.637e-08
 99.87713    117.4 1.342e+04 1.849e-08
 99.89673    116.9 1.381e+04 2.116e-08
 99.91634    116.3 1.443e+04 2.681e-08
 99.93594    115.4 1.533e+04 3.945e-08
 99.95555    114.3 1.667e+04 7.339e-08
 99.97515    113.5 1.763e+04 1.276e-07
 99.98980    112.4 1.834e+04 1.842e-07
 99.99956    111.5 1.872e+04 2.269e-07
