# Columns:
#   distance along LOS (in CHIMPs)
#   peculiar velocity  (in km/s)
#   temperature (K)
#   HI number density
# pos=(115.996,52.457,110.325), angles=(1.60319,3.00168)
  0.00968     49.3 1.430e+04 2.791e-08
  0.02922     47.7 1.426e+04 2.807e-08
  0.04375     46.4 1.389e+04 2.346e-08
  0.05361     45.5 1.372e+04 2.059e-08
  0.06869     44.3 1.323e+04 1.210e-08
  0.08842     42.8 1.291e+04 6.305e-09
  0.10815     41.1 1.277e+04 3.321e-09
  0.12789     39.3 1.242e+04 2.558e-09
  0.14762     38.3 1.237e+04 2.583e-09
  0.16736     37.6 1.224e+04 2.795e-09
  0.18288     37.1 1.204e+04 3.430e-09
  0.19275     36.5 1.191e+04 3.845e-09
  0.20683     36.6 1.173e+04 4.451e-09
  0.22656     36.8 1.165e+04 4.775e-09
  0.24630     37.1 1.162e+04 4.688e-09
  0.26603     37.3 1.159e+04 4.503e-09
  0.28576     37.2 1.160e+04 4.261e-09
  0.30550     37.1 1.157e+04 4.070e-09
  0.32201     36.9 1.160e+04 4.040e-09
  0.33188     36.5 1.151e+04 4.098e-09
  0.34497     36.6 1.150e+04 4.326e-09
  0.35792     36.8 1.147e+04 4.616e-09
  0.36779     36.8 1.145e+04 4.509e-09
  0.38444     37.1 1.142e+04 4.590e-09
  0.40417     37.4 1.140e+04 4.567e-09
  0.42390     37.7 1.138e+04 4.516e-09
  0.44364     37.9 1.134e+04 4.450e-09
  0.46114     38.2 1.128e+04 4.344e-09
  0.47101     37.9 1.132e+04 5.308e-09
  0.48311     38.2 1.125e+04 5.307e-09
  0.50284     38.5 1.117e+04 5.232e-09
  0.52258     38.8 1.110e+04 5.091e-09
  0.54231     39.1 1.107e+04 5.001e-09
  0.56204     39.5 1.107e+04 4.973e-09
  0.58178     39.8 1.107e+04 4.934e-09
  0.60027     40.3 1.101e+04 4.729e-09
  0.61014     40.2 1.104e+04 5.021e-09
  0.62125     40.7 1.096e+04 4.612e-09
  0.64098     41.4 1.088e+04 3.704e-09
  0.66072     41.5 1.090e+04 3.263e-09
  0.69042     42.3 1.074e+04 2.476e-09
  0.72998     43.5 1.058e+04 1.732e-09
  0.76945     44.6 1.036e+04 1.462e-09
  0.80892     46.0 1.033e+04 1.478e-09
  0.84839     47.3 1.033e+04 1.626e-09
  0.87873     48.9 1.031e+04 1.875e-09
  0.89847     48.4 1.048e+04 2.167e-09
  0.92733     50.1 1.040e+04 2.452e-09
  0.96679     51.2 1.050e+04 3.078e-09
  1.00626     52.2 1.062e+04 3.877e-09
  1.04573     52.5 1.094e+04 5.080e-09
  1.08520     52.5 1.123e+04 6.438e-09
  1.12467     52.2 1.131e+04 7.203e-09
  1.15700     51.7 1.133e+04 7.382e-09
  1.17673     51.0 1.175e+04 1.006e-08
  1.20361     50.6 1.184e+04 1.001e-08
  1.24308     50.5 1.190e+04 9.805e-09
  1.27258     50.4 1.190e+04 9.545e-09
  1.29222     50.4 1.184e+04 8.974e-09
  1.30580     50.6 1.175e+04 8.138e-09
  1.31567     49.9 1.175e+04 8.066e-09
  1.33168     50.2 1.165e+04 6.880e-09
  1.35142     50.6 1.155e+04 5.648e-09
  1.37115     51.0 1.146e+04 4.508e-09
  1.39089     51.6 1.144e+04 3.499e-09
  1.41062     51.7 1.147e+04 2.884e-09
  1.43516     52.6 1.146e+04 2.612e-09
  1.45499     51.7 1.138e+04 2.359e-09
  1.47989     53.0 1.125e+04 2.068e-09
  1.51936     54.6 1.117e+04 1.826e-09
  1.55323     56.2 1.114e+04 1.597e-09
  1.57297     56.6 1.109e+04 1.222e-09
  1.59829     58.1 1.107e+04 1.073e-09
  1.63776     59.5 1.103e+04 9.325e-10
  1.67723     60.9 1.094e+04 8.585e-10
  1.71352     62.5 1.093e+04 8.621e-10
  1.73326     61.7 1.098e+04 1.069e-09
  1.75617     63.1 1.092e+04 1.218e-09
  1.79564     64.5 1.087e+04 1.462e-09
  1.83511     66.0 1.087e+04 1.740e-09
  1.87457     67.5 1.089e+04 2.021e-09
  1.91404     69.0 1.097e+04 2.309e-09
  1.95351     70.3 1.111e+04 2.633e-09
  1.99179     71.5 1.126e+04 3.009e-09
  2.01152     71.1 1.118e+04 2.837e-09
  2.03245     72.5 1.129e+04 3.519e-09
  2.07192     74.1 1.152e+04 4.604e-09
  2.11139     74.9 1.197e+04 5.867e-09
  2.14069     74.5 1.228e+04 6.352e-09
  2.15046     73.0 1.301e+04 9.895e-09
  2.16047     71.2 1.415e+04 2.250e-08
  2.18020     70.0 1.573e+04 6.150e-08
  2.20000     69.1 1.652e+04 1.046e-07
  2.21973     68.3 1.654e+04 1.063e-07
  2.23946     68.1 1.611e+04 8.099e-08
  2.25920     68.0 1.521e+04 3.964e-08
  2.27893     67.3 1.398e+04 1.434e-08
  2.28959     65.3 1.273e+04 5.933e-09
  2.30942     63.0 1.128e+04 3.468e-09
  2.34820     63.2 1.115e+04 3.526e-09
  2.37770     63.1 1.122e+04 3.991e-09
  2.39734     62.9 1.142e+04 4.631e-09
  2.41707     62.6 1.162e+04 5.624e-09
  2.42872     62.2 1.182e+04 7.211e-09
  2.43859     62.3 1.170e+04 7.000e-09
  2.45654     61.7 1.211e+04 1.009e-08
  2.47628     60.7 1.282e+04 1.605e-08
  2.49601     59.3 1.364e+04 2.569e-08
  2.51575     57.4 1.428e+04 3.588e-08
  2.53548     55.0 1.456e+04 4.044e-08
  2.55521     52.2 1.450e+04 3.980e-08
  2.56785     49.6 1.424e+04 3.829e-08
  2.57772     49.0 1.437e+04 4.322e-08
  2.59468     47.0 1.388e+04 3.884e-08
  2.61442     46.1 1.313e+04 3.166e-08
  2.63415     46.1 1.238e+04 2.226e-08
  2.65389     46.0 1.176e+04 1.380e-08
  2.67362     45.3 1.129e+04 8.368e-09
  2.69335     44.2 1.078e+04 6.005e-09
  2.70698     43.7 1.052e+04 5.807e-09
  2.71685     43.4 1.014e+04 4.486e-09
  2.73282     43.5 1.012e+04 4.664e-09
  2.75256     43.5 1.017e+04 5.251e-09
  2.76789     43.6 1.028e+04 6.188e-09
  2.77776     43.5 1.013e+04 5.441e-09
  2.79203     43.6 1.024e+04 6.367e-09
  2.81176     43.7 1.036e+04 7.245e-09
  2.83150     43.7 1.045e+04 7.794e-09
  2.84611     43.6 1.048e+04 7.869e-09
  2.85598     43.5 1.016e+04 5.974e-09
  2.87096     43.3 1.016e+04 5.944e-09
  2.89070     43.0 1.011e+04 5.796e-09
  2.91043     42.8 1.006e+04 5.590e-09
  2.93017     42.6 9.994e+03 5.378e-09
  2.94990     42.5 9.941e+03 5.178e-09
  2.96964     42.3 9.891e+03 4.931e-09
  2.98525     42.3 9.848e+03 4.695e-09
  2.99511     42.1 9.732e+03 4.329e-09
  3.00910     42.0 9.693e+03 4.068e-09
  3.02884     42.0 9.656e+03 3.901e-09
  3.04857     42.0 9.620e+03 3.738e-09
  3.06831     41.8 9.612e+03 3.712e-09
  3.08804     41.7 9.593e+03 3.785e-09
  3.10778     41.7 9.607e+03 4.006e-09
  3.12438     41.7 9.692e+03 4.071e-09
  3.13424     41.5 9.625e+03 3.874e-09
  3.14724     41.4 9.640e+03 3.832e-09
  3.17694     40.7 9.708e+03 3.449e-09
  3.21651     40.3 9.704e+03 3.052e-09
  3.25598     39.9 9.733e+03 2.943e-09
  3.29545     39.5 9.764e+03 3.054e-09
  3.32495     39.4 9.795e+03 3.643e-09
  3.34459     39.3 9.934e+03 4.225e-09
  3.36432     39.3 1.014e+04 4.835e-09
  3.37532     39.2 1.026e+04 4.922e-09
  3.38519     39.0 1.017e+04 4.186e-09
  3.40264     39.0 1.018e+04 4.031e-09
  3.41251     39.0 1.021e+04 4.428e-09
  3.42353     39.2 1.022e+04 3.950e-09
  3.44326     39.2 1.027e+04 3.244e-09
  3.46299     39.0 1.034e+04 2.718e-09
  3.48273     38.8 1.037e+04 2.692e-09
  3.50246     38.5 1.043e+04 2.805e-09
  3.52220     38.3 1.059e+04 3.357e-09
  3.54177     38.4 1.079e+04 4.442e-09
  3.55164     38.2 1.076e+04 4.534e-09
  3.56167     38.4 1.101e+04 5.866e-09
  3.58140     38.5 1.128e+04 7.348e-09
  3.60113     38.6 1.149e+04 8.879e-09
  3.62087     38.6 1.157e+04 1.033e-08
  3.64060     38.6 1.153e+04 1.136e-08
  3.66034     38.4 1.142e+04 1.167e-08
  3.68007     38.4 1.129e+04 1.149e-08
  3.69077     38.4 1.109e+04 1.099e-08
  3.70064     38.3 1.103e+04 1.024e-08
  3.71954     38.3 1.095e+04 1.018e-08
  3.73928     38.2 1.092e+04 1.027e-08
  3.75901     38.1 1.091e+04 1.060e-08
  3.77874     37.8 1.085e+04 1.078e-08
  3.79848     37.6 1.074e+04 1.068e-08
  3.81821     37.4 1.060e+04 1.033e-08
  3.82990     37.2 1.048e+04 9.809e-09
  3.83977     36.9 1.093e+04 1.261e-08
  3.85768     36.4 1.093e+04 1.276e-08
  3.87742     35.9 1.098e+04 1.330e-08
  3.89715     35.4 1.105e+04 1.413e-08
  3.91688     35.1 1.105e+04 1.460e-08
  3.93662     35.1 1.096e+04 1.413e-08
  3.95635     35.2 1.074e+04 1.264e-08
  3.96903     35.3 1.038e+04 1.061e-08
  3.97569     34.6 1.048e+04 1.013e-08
  3.98275     35.0 1.050e+04 1.080e-08
  3.99582     35.1 1.011e+04 8.372e-09
  4.01556     35.2 9.758e+03 6.612e-09
  4.03529     35.5 9.514e+03 5.600e-09
  4.05502     35.9 9.372e+03 5.082e-09
  4.07476     36.6 9.242e+03 4.699e-09
  4.09449     37.5 9.203e+03 4.579e-09
  4.10817     38.3 9.241e+03 4.682e-09
  4.11803     37.4 9.277e+03 4.660e-09
  4.13396     37.0 9.634e+03 5.111e-09
  4.15370     35.7 1.032e+04 7.317e-09
  4.17343     33.3 1.157e+04 1.499e-08
  4.19317     30.3 1.405e+04 4.089e-08
  4.21290     27.9 1.606e+04 9.556e-08
  4.23263     25.7 1.665e+04 1.166e-07
  4.24730     24.0 1.614e+04 8.925e-08
  4.25717     21.5 1.546e+04 6.466e-08
  4.27210     19.1 1.376e+04 2.876e-08
  4.29184     15.0 1.174e+04 1.162e-08
  4.31157     13.0 1.066e+04 7.616e-09
  4.33131     12.0 1.010e+04 6.120e-09
  4.35104     11.7 9.957e+03 6.125e-09
  4.37077     11.6 9.970e+03 6.234e-09
  4.38643     11.2 9.968e+03 6.353e-09
  4.39630     10.3 1.001e+04 6.385e-09
  4.41024      9.7 1.000e+04 6.634e-09
  4.42998      8.4 1.018e+04 7.483e-09
  4.44971      5.4 1.106e+04 9.926e-09
  4.46945      2.6 1.197e+04 1.631e-08
  4.48918      1.3 1.192e+04 1.833e-08
  4.50891      0.7 1.156e+04 1.548e-08
  4.52556     -0.8 1.116e+04 1.050e-08
  4.53543     -1.3 1.115e+04 8.644e-09
  4.54838     -4.3 1.037e+04 5.093e-09
  4.56812     -6.4 9.685e+03 3.941e-09
  4.58031     -7.3 9.602e+03 3.980e-09
  4.59017     -7.6 9.331e+03 3.150e-09
  4.60759     -8.2 9.473e+03 3.622e-09
  4.62732     -8.6 9.694e+03 4.547e-09
  4.64706     -8.9 9.991e+03 6.017e-09
  4.66469     -9.0 1.030e+04 7.936e-09
  4.67456     -8.8 1.026e+04 7.990e-09
  4.68652     -8.4 1.052e+04 9.903e-09
  4.70626     -8.0 1.083e+04 1.084e-08
  4.72599     -8.0 1.107e+04 1.113e-08
  4.74573     -8.0 1.104e+04 1.098e-08
  4.76546     -8.1 1.111e+04 1.113e-08
  4.78520     -8.1 1.110e+04 1.125e-08
  4.80382     -8.0 1.108e+04 1.132e-08
  4.81369     -7.6 1.068e+04 9.110e-09
  4.82466     -7.5 1.079e+04 9.677e-09
  4.84440     -7.4 1.091e+04 1.034e-08
  4.86413     -7.1 1.100e+04 1.092e-08
  4.88387     -6.9 1.108e+04 1.138e-08
  4.90360     -6.9 1.119e+04 1.201e-08
  4.92334     -7.1 1.137e+04 1.236e-08
  4.94296     -7.3 1.150e+04 1.264e-08
  4.95282     -7.0 1.133e+04 1.174e-08
  4.96280     -6.9 1.122e+04 1.085e-08
  4.98254     -6.8 1.098e+04 9.065e-09
  5.00227     -6.8 1.076e+04 7.192e-09
  5.02201     -6.9 1.053e+04 5.630e-09
  5.04174     -6.9 1.030e+04 4.440e-09
  5.06148     -6.8 1.017e+04 3.617e-09
  5.08121     -6.8 1.015e+04 3.102e-09
  5.09196     -6.9 1.017e+04 3.117e-09
  5.10182     -6.1 1.002e+04 2.817e-09
  5.12068     -7.2 1.057e+04 3.052e-09
  5.14041    -11.4 1.276e+04 6.181e-09
  5.16015    -15.6 1.356e+04 2.117e-08
  5.17787    -15.1 1.394e+04 5.502e-08
  5.18773    -15.0 1.380e+04 5.684e-08
  5.19962    -13.9 1.378e+04 4.725e-08
  5.21935    -13.7 1.378e+04 1.803e-08
  5.23109    -18.1 1.304e+04 6.145e-09
  5.24095    -15.9 1.391e+04 7.859e-09
  5.25882    -20.8 1.134e+04 3.735e-09
  5.27855    -21.9 1.109e+04 2.612e-09
  5.29829    -22.4 1.123e+04 2.205e-09
  5.31802    -22.7 1.119e+04 2.143e-09
  5.33776    -22.8 1.124e+04 2.262e-09
  5.35749    -23.1 1.140e+04 2.302e-09
  5.37022    -23.9 1.114e+04 2.834e-09
  5.38009    -24.0 1.108e+04 2.954e-09
  5.39696    -24.4 1.097e+04 3.381e-09
  5.41669    -24.6 1.084e+04 3.777e-09
  5.43643    -24.8 1.075e+04 3.998e-09
  5.45616    -25.1 1.061e+04 3.830e-09
  5.47590    -25.3 1.054e+04 3.674e-09
  5.50560    -25.8 1.048e+04 3.094e-09
  5.54516    -25.9 9.962e+03 2.409e-09
  5.58463    -25.7 9.524e+03 1.601e-09
  5.62410    -25.6 9.292e+03 9.880e-10
  5.64868    -25.6 9.087e+03 7.125e-10
  5.66841    -25.1 8.984e+03 5.991e-10
  5.70304    -24.6 8.833e+03 4.719e-10
  5.74251    -23.8 8.806e+03 3.799e-10
  5.78198    -23.3 8.807e+03 3.377e-10
  5.82144    -22.6 8.892e+03 3.434e-10
  5.86091    -22.2 8.924e+03 4.654e-10
  5.90038    -21.6 9.098e+03 7.134e-10
  5.92694    -21.5 9.438e+03 1.350e-09
  5.94667    -21.0 9.335e+03 1.234e-09
  5.97932    -20.4 1.002e+04 2.897e-09
  6.00882    -20.6 1.039e+04 5.087e-09
  6.02846    -21.6 1.111e+04 7.080e-09
  6.04819    -22.7 1.160e+04 1.051e-08
  6.06588    -23.7 1.206e+04 1.420e-08
  6.07574    -23.6 1.200e+04 1.412e-08
  6.08766    -24.6 1.224e+04 1.634e-08
  6.10740    -25.6 1.211e+04 1.609e-08
  6.12713    -25.9 1.178e+04 1.238e-08
  6.14687    -26.6 1.136e+04 8.551e-09
  6.16660    -27.4 1.091e+04 5.776e-09
  6.18633    -28.2 1.062e+04 4.405e-09
  6.20501    -28.9 1.051e+04 3.702e-09
  6.21488    -29.0 1.041e+04 3.517e-09
  6.22580    -29.5 1.037e+04 3.402e-09
  6.24554    -29.9 1.045e+04 3.586e-09
  6.26527    -30.2 1.044e+04 4.090e-09
  6.28501    -30.1 1.055e+04 4.499e-09
  6.30474    -30.1 1.060e+04 4.579e-09
  6.32447    -30.5 1.070e+04 4.476e-09
  6.34414    -31.3 1.090e+04 4.537e-09
  6.36387    -32.9 1.109e+04 5.584e-09
  6.38285    -33.6 1.134e+04 7.664e-09
  6.39272    -32.8 1.098e+04 5.323e-09
  6.40341    -33.3 1.128e+04 6.758e-09
  6.42315    -34.4 1.181e+04 9.363e-09
  6.44288    -37.1 1.297e+04 1.674e-08
  6.46262    -41.0 1.464e+04 3.919e-08
  6.48235    -44.1 1.591e+04 7.827e-08
  6.49314    -46.3 1.662e+04 1.122e-07
  6.50301    -46.3 1.524e+04 5.818e-08
  6.52182    -48.7 1.459e+04 4.627e-08
  6.54155    -50.8 1.333e+04 2.017e-08
  6.56129    -53.1 1.229e+04 7.586e-09
  6.58102    -55.0 1.162e+04 3.996e-09
  6.60076    -55.5 1.123e+04 3.016e-09
  6.62049    -55.4 1.105e+04 2.555e-09
  6.63227    -55.0 1.091e+04 2.288e-09
  6.64214    -54.1 1.072e+04 2.104e-09
  6.65996    -53.9 1.074e+04 2.113e-09
  6.68966    -53.3 1.080e+04 2.142e-09
  6.72922    -52.0 1.080e+04 2.214e-09
  6.76173    -50.6 1.089e+04 2.387e-09
  6.78146    -49.2 1.047e+04 1.664e-09
  6.80816    -48.0 1.063e+04 1.858e-09
  6.84763    -46.7 1.072e+04 2.130e-09
  6.88710    -45.3 1.082e+04 2.349e-09
  6.92657    -44.0 1.098e+04 2.608e-09
  6.96604    -42.8 1.119e+04 2.804e-09
  7.00551    -41.7 1.134e+04 2.870e-09
  7.03999    -40.5 1.156e+04 2.552e-09
  7.05973    -39.4 1.131e+04 2.517e-09
  7.08444    -38.2 1.142e+04 2.122e-09
  7.12391    -36.9 1.150e+04 1.771e-09
  7.16338    -35.3 1.159e+04 1.554e-09
  7.20285    -33.5 1.172e+04 1.319e-09
  7.24232    -31.6 1.187e+04 1.042e-09
  7.28179    -29.6 1.202e+04 7.639e-10
  7.31826    -27.6 1.228e+04 4.966e-10
  7.33799    -27.0 1.225e+04 4.895e-10
  7.36072    -25.2 1.247e+04 3.365e-10
  7.40019    -23.4 1.258e+04 2.777e-10
  7.43966    -21.2 1.265e+04 2.679e-10
  7.47913    -19.3 1.286e+04 2.908e-10
  7.51860    -17.6 1.275e+04 4.125e-10
  7.55807    -15.2 1.263e+04 6.572e-10
  7.58803    -12.9 1.264e+04 9.413e-10
  7.60675    -13.3 1.270e+04 7.250e-10
  7.61625    -12.9 1.264e+04 7.802e-10
  7.63700    -10.7 1.261e+04 9.558e-10
  7.67647     -8.6 1.279e+04 9.682e-10
  7.71594     -6.7 1.301e+04 9.273e-10
  7.75541     -5.0 1.316e+04 9.128e-10
  7.79488     -3.6 1.326e+04 1.002e-09
  7.83435     -2.4 1.326e+04 1.318e-09
  7.87382     -1.0 1.319e+04 1.972e-09
  7.89452      0.5 1.334e+04 2.489e-09
  7.91425      1.0 1.328e+04 2.450e-09
  7.95275      2.0 1.359e+04 2.587e-09
  7.99222      3.0 1.370e+04 2.171e-09
  8.03169      4.2 1.395e+04 1.396e-09
  8.07116      5.0 1.423e+04 9.365e-10
  8.11063      6.5 1.418e+04 9.169e-10
  8.15010      7.9 1.424e+04 1.048e-09
  8.17278      9.3 1.423e+04 1.572e-09
  8.19252      9.6 1.430e+04 1.534e-09
  8.22904     10.9 1.444e+04 2.313e-09
  8.26850     11.9 1.476e+04 2.947e-09
  8.30797     12.8 1.497e+04 2.771e-09
  8.34744     13.6 1.524e+04 2.064e-09
  8.38691     14.3 1.534e+04 1.666e-09
  8.42638     15.1 1.534e+04 1.769e-09
  8.45104     15.4 1.538e+04 2.357e-09
  8.47078     15.9 1.526e+04 2.164e-09
  8.50532     16.0 1.501e+04 3.068e-09
  8.53482     15.6 1.504e+04 4.039e-09
  8.55446     15.2 1.498e+04 4.919e-09
  8.57419     14.2 1.483e+04 6.713e-09
  8.58998     12.9 1.457e+04 1.028e-08
  8.59985     13.2 1.451e+04 8.807e-09
  8.61366     12.0 1.435e+04 1.096e-08
  8.63339     11.0 1.413e+04 1.014e-08
  8.65313     10.3 1.387e+04 6.968e-09
  8.67286      8.3 1.401e+04 4.402e-09
  8.70256      6.0 1.347e+04 4.537e-09
  8.72931      5.1 1.309e+04 4.425e-09
  8.74904      6.0 1.308e+04 3.685e-09
  8.78160      5.7 1.291e+04 3.603e-09
  8.80289      6.1 1.262e+04 2.911e-09
  8.82262      6.3 1.264e+04 3.213e-09
  8.86053      6.8 1.249e+04 2.114e-09
  8.90000      7.4 1.230e+04 1.590e-09
  8.93947      8.4 1.213e+04 1.364e-09
  8.97894      9.8 1.199e+04 1.146e-09
  9.00757     11.3 1.189e+04 9.052e-10
  9.02731     12.1 1.182e+04 8.656e-10
  9.05788     13.4 1.190e+04 6.410e-10
  9.09735     14.7 1.173e+04 5.799e-10
  9.13682     16.2 1.166e+04 5.924e-10
  9.17628     17.6 1.157e+04 6.733e-10
  9.21575     19.2 1.145e+04 8.257e-10
  9.25522     20.8 1.139e+04 9.496e-10
  9.28583     22.3 1.139e+04 9.522e-10
  9.30557     22.9 1.131e+04 1.034e-09
  9.33416     24.3 1.128e+04 9.900e-10
  9.37363     25.8 1.129e+04 9.668e-10
  9.41310     27.2 1.134e+04 9.939e-10
  9.45256     28.6 1.140e+04 1.152e-09
  9.49203     29.8 1.146e+04 1.512e-09
  9.53150     30.8 1.156e+04 2.088e-09
  9.56410     31.6 1.172e+04 2.784e-09
  9.58383     32.3 1.157e+04 2.789e-09
  9.61044     32.7 1.166e+04 3.096e-09
  9.64991     32.9 1.165e+04 3.043e-09
  9.68938     33.2 1.158e+04 2.702e-09
  9.72885     33.8 1.153e+04 1.984e-09
  9.76831     34.2 1.152e+04 1.337e-09
  9.80778     34.6 1.147e+04 1.036e-09
  9.84236     35.3 1.137e+04 1.004e-09
  9.86210     36.0 1.132e+04 8.764e-10
  9.88672     36.9 1.133e+04 8.916e-10
  9.92619     37.7 1.135e+04 9.144e-10
  9.96566     38.5 1.146e+04 8.610e-10
  9.99801     39.2 1.155e+04 7.340e-10
 10.01774     38.7 1.158e+04 7.199e-10
 10.04460     39.2 1.143e+04 6.339e-10
 10.08406     39.7 1.124e+04 6.407e-10
 10.12062     40.1 1.113e+04 7.324e-10
 10.14036     41.5 1.116e+04 7.294e-10
 10.16300     42.0 1.105e+04 8.282e-10
 10.20247     42.2 1.098e+04 1.000e-09
 10.24194     42.1 1.090e+04 1.265e-09
 10.28141     41.9 1.075e+04 1.641e-09
 10.32088     41.8 1.057e+04 2.070e-09
 10.36034     41.8 1.044e+04 2.336e-09
 10.39889     41.7 1.034e+04 2.215e-09
 10.41862     43.0 1.058e+04 3.013e-09
 10.43928     42.5 1.051e+04 2.915e-09
 10.47875     42.4 1.027e+04 2.403e-09
 10.51822     42.6 1.005e+04 1.668e-09
 10.55769     42.8 9.975e+03 1.078e-09
 10.59716     43.1 9.898e+03 7.883e-10
 10.63663     44.1 9.868e+03 7.771e-10
 10.67609     45.2 9.900e+03 8.378e-10
 10.69689     46.3 9.966e+03 1.077e-09
 10.71662     46.7 1.010e+04 1.124e-09
 10.75503     47.7 1.013e+04 1.639e-09
 10.79450     49.2 1.025e+04 2.498e-09
 10.83397     50.5 1.055e+04 3.559e-09
 10.86347     50.7 1.074e+04 3.977e-09
 10.88311     50.8 1.091e+04 4.373e-09
 10.90284     51.0 1.115e+04 4.868e-09
 10.92258     51.0 1.132e+04 5.170e-09
 10.94231     50.9 1.146e+04 5.359e-09
 10.96205     50.5 1.155e+04 5.577e-09
 10.97495     49.8 1.168e+04 5.915e-09
 10.98482     49.7 1.155e+04 6.515e-09
 11.00152     48.8 1.175e+04 6.769e-09
 11.02125     47.9 1.180e+04 6.698e-09
 11.04098     46.9 1.182e+04 6.171e-09
 11.06072     45.9 1.171e+04 4.383e-09
 11.08045     45.4 1.159e+04 3.972e-09
 11.11015     44.2 1.114e+04 2.621e-09
 11.14972     43.0 1.092e+04 2.417e-09
 11.18919     41.7 1.111e+04 2.782e-09
 11.21286     40.0 1.160e+04 5.257e-09
 11.23260     39.6 1.178e+04 5.765e-09
 11.25341     37.4 1.221e+04 1.107e-08
 11.27315     38.7 1.197e+04 8.591e-09
 11.29763     37.4 1.228e+04 1.157e-08
 11.31727     36.1 1.265e+04 1.480e-08
 11.33700     34.9 1.323e+04 1.862e-08
 11.35673     33.3 1.372e+04 2.211e-08
 11.37647     31.6 1.374e+04 2.201e-08
 11.39235     29.9 1.357e+04 2.017e-08
 11.40222     30.8 1.388e+04 2.391e-08
 11.41594     29.1 1.364e+04 2.031e-08
 11.43567     27.2 1.324e+04 1.695e-08
 11.45541     26.0 1.255e+04 1.189e-08
 11.47514     24.6 1.201e+04 9.356e-09
 11.50484     24.7 1.144e+04 5.697e-09
 11.53168     24.3 1.099e+04 3.567e-09
 11.55141     25.1 1.113e+04 4.186e-09
 11.58387     25.5 1.092e+04 3.650e-09
 11.62334     25.9 1.102e+04 3.925e-09
 11.66281     25.7 1.133e+04 5.695e-09
 11.70228     25.3 1.163e+04 8.411e-09
 11.74175     25.0 1.188e+04 9.122e-09
 11.77125     24.7 1.194e+04 8.095e-09
 11.79089     23.9 1.217e+04 6.686e-09
 11.80974     22.1 1.224e+04 6.132e-09
 11.81921     23.7 1.233e+04 6.632e-09
 11.82009     23.6 1.251e+04 8.058e-09
 11.83036     22.1 1.229e+04 7.844e-09
 11.86006     21.0 1.232e+04 8.046e-09
 11.88966     18.4 1.236e+04 1.053e-08
 11.90930     17.0 1.252e+04 1.231e-08
 11.92903     16.0 1.271e+04 1.349e-08
 11.94876     13.9 1.323e+04 1.720e-08
 11.95874     11.7 1.363e+04 2.286e-08
 11.96861     11.5 1.368e+04 2.449e-08
 11.98823      9.2 1.377e+04 2.706e-08
 12.00797      6.3 1.397e+04 2.644e-08
 12.02770      3.0 1.385e+04 2.539e-08
 12.04744      1.0 1.296e+04 2.246e-08
 12.06717      0.2 1.230e+04 1.569e-08
 12.08691     -1.2 1.231e+04 9.044e-09
 12.09787     -2.8 1.145e+04 7.049e-09
 12.10774     -2.1 1.118e+04 6.737e-09
 12.12637     -2.7 1.114e+04 4.690e-09
 12.14611     -3.4 1.087e+04 4.354e-09
 12.16584     -3.6 1.080e+04 4.192e-09
 12.18558     -4.2 1.097e+04 4.404e-09
 12.20531     -4.9 1.111e+04 5.266e-09
 12.22505     -5.5 1.121e+04 5.890e-09
 12.23701     -5.7 1.102e+04 6.834e-09
 12.24687     -4.7 1.108e+04 7.850e-09
 12.26451     -4.6 1.123e+04 8.074e-09
 12.29421     -5.8 1.091e+04 5.577e-09
 12.33378     -6.6 1.049e+04 3.116e-09
 12.36647     -7.7 1.016e+04 1.649e-09
 12.38620     -6.3 1.028e+04 2.369e-09
 12.40798     -7.8 1.011e+04 1.628e-09
 12.42772     -7.8 1.019e+04 2.281e-09
 12.45219     -8.6 9.903e+03 2.464e-09
 12.49165     -8.6 9.762e+03 4.466e-09
 12.53112     -8.5 9.670e+03 5.172e-09
 12.57059    -10.0 9.896e+03 5.524e-09
 12.60010    -10.7 1.044e+04 6.688e-09
 12.61973    -16.4 1.213e+04 1.476e-08
 12.63947    -21.2 1.364e+04 3.850e-08
 12.65440    -22.7 1.493e+04 8.132e-08
 12.66427    -21.7 1.423e+04 6.205e-08
 12.67894    -22.3 1.500e+04 7.925e-08
 12.69867    -26.0 1.486e+04 5.874e-08
 12.71840    -32.3 1.269e+04 2.332e-08
 12.73814    -38.0 1.107e+04 1.488e-08
 12.75787    -40.3 1.054e+04 1.297e-08
 12.77761    -41.4 1.031e+04 1.194e-08
 12.79353    -42.3 1.006e+04 1.037e-08
 12.80340    -41.4 1.022e+04 1.116e-08
 12.81708    -42.3 9.971e+03 9.845e-09
 12.83681    -43.0 9.687e+03 8.302e-09
 12.85654    -43.6 9.381e+03 6.706e-09
 12.87628    -44.2 9.043e+03 5.303e-09
 12.89601    -44.8 8.695e+03 4.222e-09
 12.92289    -45.5 8.352e+03 3.234e-09
 12.94263    -45.0 8.476e+03 3.606e-09
 12.96518    -44.9 8.442e+03 3.262e-09
 13.00475    -45.1 8.320e+03 2.792e-09
 13.04422    -45.4 8.214e+03 2.490e-09
 13.08369    -45.7 8.185e+03 2.450e-09
 13.12315    -46.3 8.336e+03 2.580e-09
 13.16262    -47.0 8.660e+03 2.891e-09
 13.20126    -47.9 8.996e+03 3.327e-09
 13.22099    -47.5 8.942e+03 3.106e-09
 13.24156    -48.3 9.150e+03 3.549e-09
 13.27106    -48.8 9.231e+03 3.699e-09
 13.29070    -49.1 9.303e+03 3.854e-09
 13.31043    -49.8 9.419e+03 4.254e-09
 13.33017    -50.1 9.555e+03 4.592e-09
 13.34990    -50.4 9.742e+03 4.886e-09
 13.35993    -50.7 9.968e+03 4.893e-09
 13.36979    -50.5 9.943e+03 4.815e-09
 13.39934    -51.1 1.007e+04 4.529e-09
 13.43890    -51.1 1.012e+04 4.431e-09
 13.47837    -51.0 1.046e+04 4.923e-09
 13.49925    -50.6 1.082e+04 5.932e-09
 13.50902    -50.4 1.070e+04 5.929e-09
 13.52751    -50.3 1.091e+04 6.285e-09
 13.54725    -50.1 1.116e+04 6.757e-09
 13.56698    -50.1 1.122e+04 6.840e-09
 13.58672    -49.9 1.131e+04 6.608e-09
 13.60645    -49.7 1.138e+04 5.687e-09
 13.62274    -49.5 1.148e+04 4.063e-09
 13.63260    -49.2 1.144e+04 4.888e-09
 13.63819    -48.9 1.153e+04 3.914e-09
 13.64806    -48.9 1.146e+04 3.710e-09
 13.67562    -48.2 1.153e+04 3.162e-09
 13.71518    -46.6 1.159e+04 2.421e-09
 13.75465    -44.7 1.147e+04 2.147e-09
 13.77752    -42.7 1.142e+04 2.070e-09
 13.79725    -42.7 1.164e+04 2.246e-09
 13.83359    -41.5 1.160e+04 2.544e-09
 13.87306    -40.7 1.170e+04 3.703e-09
 13.91253    -40.1 1.205e+04 6.777e-09
 13.95200    -39.8 1.255e+04 1.115e-08
 13.99147    -40.1 1.278e+04 1.309e-08
 14.03093    -40.7 1.269e+04 1.252e-08
 14.05578    -40.7 1.230e+04 9.323e-09
 14.07551    -41.5 1.208e+04 6.674e-09
 14.10987    -40.6 1.188e+04 4.952e-09
 14.13938    -39.6 1.193e+04 5.752e-09
 14.15901    -39.1 1.192e+04 5.398e-09
 14.17875    -38.5 1.191e+04 5.053e-09
 14.19472    -37.9 1.182e+04 4.725e-09
 14.20458    -37.9 1.185e+04 3.819e-09
 14.21821    -37.3 1.182e+04 3.570e-09
 14.23007    -36.7 1.174e+04 3.318e-09
 14.23993    -37.1 1.174e+04 2.999e-09
 14.25768    -36.4 1.163e+04 2.870e-09
 14.27742    -36.3 1.154e+04 2.813e-09
 14.30712    -35.4 1.128e+04 2.595e-09
 14.33404    -34.3 1.108e+04 2.177e-09
 14.35378    -33.8 1.111e+04 2.204e-09
 14.38615    -32.8 1.110e+04 1.904e-09
 14.42562    -31.8 1.107e+04 1.674e-09
 14.46509    -30.8 1.102e+04 1.481e-09
 14.50456    -29.7 1.096e+04 1.368e-09
 14.54403    -28.4 1.100e+04 1.309e-09
 14.58350    -27.0 1.102e+04 1.285e-09
 14.61231    -25.5 1.107e+04 1.266e-09
 14.63204    -25.2 1.109e+04 1.276e-09
 14.66243    -23.5 1.112e+04 1.199e-09
 14.70190    -21.6 1.112e+04 1.161e-09
 14.74137    -19.7 1.115e+04 1.163e-09
 14.78084    -18.4 1.129e+04 1.327e-09
 14.81795    -17.8 1.136e+04 2.076e-09
 14.83769    -17.5 1.133e+04 1.976e-09
 14.85978    -16.7 1.158e+04 3.739e-09
 14.89057    -16.4 1.204e+04 7.105e-09
 14.91030    -16.4 1.202e+04 5.692e-09
 14.93871    -16.9 1.240e+04 8.107e-09
 14.97818    -18.0 1.271e+04 1.033e-08
 15.01765    -19.0 1.302e+04 1.152e-08
 15.05712    -19.9 1.312e+04 1.132e-08
 15.09659    -20.4 1.299e+04 1.096e-08
 15.13606    -20.5 1.282e+04 9.757e-09
 15.16883    -20.3 1.259e+04 7.749e-09
 15.18857    -20.0 1.243e+04 6.006e-09
 15.21499    -19.5 1.221e+04 4.312e-09
 15.25446    -19.1 1.199e+04 3.356e-09
 15.29393    -18.3 1.186e+04 3.149e-09
 15.33340    -17.3 1.190e+04 2.956e-09
 15.37287    -16.2 1.195e+04 2.494e-09
 15.41234    -15.2 1.196e+04 1.952e-09
 15.44710    -14.2 1.196e+04 1.599e-09
 15.46683    -12.8 1.191e+04 1.621e-09
 15.49128    -11.7 1.189e+04 1.532e-09
 15.53074    -10.5 1.184e+04 1.558e-09
 15.57021     -9.9 1.201e+04 1.915e-09
 15.60968    -10.4 1.232e+04 2.843e-09
 15.64915    -11.1 1.270e+04 6.599e-09
 15.68862    -11.3 1.329e+04 1.164e-08
 15.72536    -12.5 1.335e+04 9.331e-09
 15.74509    -10.2 1.316e+04 1.006e-08
 15.76756    -10.4 1.319e+04 5.591e-09
 15.80703    -10.4 1.324e+04 2.963e-09
 15.84649     -9.6 1.313e+04 2.255e-09
 15.88596     -8.3 1.305e+04 2.204e-09
 15.92543     -6.9 1.288e+04 2.548e-09
 15.96490     -5.2 1.271e+04 2.937e-09
 16.00362     -3.7 1.259e+04 2.966e-09
 16.02336     -1.8 1.264e+04 3.141e-09
 16.03281     -0.4 1.254e+04 3.080e-09
 16.05254     -0.1 1.269e+04 3.129e-09
 16.08331      1.4 1.249e+04 3.496e-09
 16.12277      2.5 1.245e+04 4.273e-09
 16.16224      4.0 1.233e+04 4.830e-09
 16.20171      5.4 1.235e+04 5.454e-09
 16.24118      6.4 1.250e+04 5.995e-09
 16.28065      6.9 1.256e+04 8.558e-09
 16.30152      7.1 1.251e+04 1.018e-08
 16.31129      7.4 1.243e+04 1.034e-08
 16.32979      7.4 1.254e+04 1.127e-08
 16.34952      7.6 1.258e+04 1.227e-08
 16.36926      7.2 1.285e+04 1.459e-08
 16.38899      6.9 1.301e+04 1.714e-08
 16.40873      6.6 1.308e+04 1.885e-08
 16.42846      6.5 1.297e+04 1.874e-08
 16.44056      6.4 1.292e+04 1.693e-08
 16.45042      7.4 1.255e+04 1.396e-08
 16.46793      7.6 1.251e+04 1.330e-08
 16.48767      7.9 1.237e+04 1.236e-08
 16.50740      8.3 1.228e+04 9.935e-09
 16.52713      8.4 1.204e+04 9.080e-09
 16.54687      7.9 1.212e+04 7.340e-09
 16.56660      6.8 1.183e+04 7.021e-09
 16.57979      6.4 1.186e+04 8.565e-09
 16.58965      7.9 1.201e+04 9.760e-09
 16.60607      8.0 1.209e+04 1.088e-08
 16.62581      8.0 1.224e+04 1.204e-08
 16.64004      7.8 1.220e+04 1.145e-08
 16.64991      7.4 1.232e+04 1.152e-08
 16.66527      7.1 1.209e+04 1.069e-08
 16.68501      7.2 1.195e+04 1.007e-08
 16.70474      7.7 1.169e+04 8.917e-09
 16.71882      7.8 1.151e+04 8.209e-09
 16.72869      8.5 1.170e+04 8.694e-09
 16.75418      9.9 1.129e+04 7.846e-09
 16.79374     11.7 1.111e+04 6.632e-09
 16.82325     13.5 1.111e+04 6.649e-09
 16.84288     14.1 1.108e+04 6.745e-09
 16.85795     15.1 1.116e+04 6.852e-09
 16.86782     15.8 1.134e+04 8.433e-09
 16.88235     16.7 1.136e+04 9.044e-09
 16.90209     17.5 1.145e+04 8.817e-09
 16.92182     18.3 1.137e+04 8.849e-09
 16.94156     19.3 1.132e+04 7.953e-09
 16.96129     19.9 1.126e+04 7.601e-09
 16.98102     20.7 1.121e+04 7.304e-09
 16.99708     21.6 1.107e+04 7.202e-09
 17.00695     22.2 1.124e+04 8.054e-09
 17.02049     23.4 1.115e+04 7.694e-09
 17.04023     24.1 1.116e+04 7.839e-09
 17.05996     25.2 1.106e+04 7.298e-09
 17.07970     25.9 1.118e+04 7.387e-09
 17.09943     26.7 1.125e+04 7.444e-09
 17.11916     27.7 1.133e+04 7.485e-09
 17.13621     28.6 1.150e+04 7.756e-09
 17.14608     29.7 1.160e+04 8.945e-09
 17.15863     30.4 1.201e+04 1.015e-08
 17.17837     29.8 1.304e+04 1.448e-08
 17.19810     27.2 1.530e+04 3.581e-08
 17.21784     24.6 1.681e+04 9.258e-08
 17.23259     22.5 1.790e+04 2.110e-07
 17.24241     21.7 1.819e+04 2.572e-07
 17.25227     19.9 1.899e+04 3.908e-07
 17.26214     18.0 1.891e+04 3.422e-07
 17.27201     16.4 1.863e+04 2.610e-07
 17.28018     15.0 1.810e+04 2.011e-07
 17.28512     13.8 1.785e+04 1.789e-07
 17.29672     11.2 1.716e+04 9.885e-08
 17.31651      8.4 1.557e+04 4.108e-08
 17.33624      5.0 1.424e+04 2.416e-08
 17.35598      4.1 1.394e+04 2.736e-08
 17.37571      4.2 1.414e+04 2.784e-08
 17.39545      4.2 1.407e+04 2.854e-08
 17.41448      4.8 1.387e+04 2.981e-08
 17.42435      4.6 1.316e+04 1.752e-08
 17.43491      5.6 1.323e+04 2.019e-08
 17.45465      6.3 1.334e+04 2.175e-08
 17.47438      6.9 1.336e+04 2.349e-08
 17.49412      7.5 1.341e+04 2.438e-08
 17.51385      7.9 1.341e+04 2.361e-08
 17.53359      8.2 1.321e+04 2.387e-08
 17.55332      9.1 1.304e+04 2.422e-08
 17.56348     10.4 1.290e+04 2.048e-08
 17.57334      9.8 1.332e+04 2.937e-08
 17.59279     10.7 1.319e+04 2.198e-08
 17.61252     10.8 1.284e+04 1.606e-08
 17.63226     10.5 1.250e+04 1.346e-08
 17.65199     10.7 1.231e+04 1.342e-08
 17.67173     11.0 1.252e+04 1.351e-08
 17.69146     12.2 1.232e+04 1.819e-08
 17.70261     13.3 1.273e+04 1.696e-08
 17.71248     12.9 1.309e+04 1.861e-08
 17.73093     13.6 1.270e+04 1.854e-08
 17.75066     14.6 1.282e+04 1.423e-08
 17.77040     14.5 1.258e+04 1.229e-08
 17.79013     14.8 1.205e+04 1.211e-08
 17.80987     15.6 1.199e+04 1.112e-08
 17.82960     16.1 1.184e+04 1.119e-08
 17.84174     16.9 1.169e+04 1.018e-08
 17.84730     16.6 1.164e+04 1.065e-08
 17.85489     16.8 1.151e+04 1.031e-08
 17.86907     17.7 1.128e+04 9.594e-09
 17.88880     18.7 1.114e+04 8.062e-09
 17.90854     19.3 1.106e+04 7.805e-09
 17.92827     20.1 1.119e+04 8.053e-09
 17.94801     20.3 1.140e+04 9.177e-09
 17.96774     20.5 1.158e+04 1.065e-08
 17.98087     20.3 1.207e+04 1.335e-08
 17.99074     20.2 1.193e+04 1.294e-08
 18.00721     20.1 1.223e+04 1.635e-08
 18.02694     20.5 1.243e+04 2.037e-08
 18.04668     21.1 1.245e+04 2.075e-08
 18.06641     21.8 1.221e+04 1.896e-08
 18.08615     22.5 1.169e+04 1.378e-08
 18.10588     23.0 1.100e+04 9.458e-09
 18.12000     23.5 1.046e+04 5.952e-09
 18.12987     23.3 1.024e+04 5.398e-09
 18.14535     23.7 9.975e+03 4.189e-09
 18.16508     24.4 9.629e+03 3.293e-09
 18.18482     25.2 9.487e+03 3.028e-09
 18.20455     26.3 9.313e+03 2.875e-09
 18.22429     27.2 9.330e+03 2.924e-09
 18.24402     28.1 9.368e+03 3.111e-09
 18.25914     28.7 9.496e+03 3.586e-09
 18.26900     29.4 9.501e+03 3.596e-09
 18.28349     30.1 9.628e+03 4.162e-09
 18.30323     30.5 9.933e+03 4.993e-09
 18.32296     30.9 1.018e+04 5.848e-09
 18.34269     31.1 1.039e+04 6.163e-09
 18.36243     31.0 1.044e+04 5.910e-09
 18.38216     30.2 1.055e+04 5.406e-09
 18.39827     28.6 1.052e+04 5.204e-09
 18.40813     29.3 1.066e+04 5.574e-09
 18.42163     27.6 1.053e+04 5.341e-09
 18.44137     24.1 1.169e+04 5.911e-09
 18.45245      6.2 1.936e+04 2.061e-08
 18.46232      6.4 1.985e+04 2.302e-08
 18.47272     -3.0 1.883e+04 9.999e-08
 18.47760     -5.4 1.869e+04 1.418e-07
 18.48567     -8.3 1.699e+04 2.916e-07
 18.49554     -6.6 1.785e+04 3.869e-07
 18.50540    -10.4 2.079e+04 1.935e-07
 18.51527    -24.9 1.909e+04 2.254e-08
 18.52514    -32.6 1.495e+04 1.248e-08
 18.53735    -39.2 1.170e+04 7.460e-09
 18.54727    -39.9 1.143e+04 6.693e-09
 18.55977    -41.3 1.121e+04 5.485e-09
 18.57951    -41.8 1.111e+04 4.659e-09
 18.59924    -42.3 1.094e+04 3.803e-09
 18.61897    -42.4 1.083e+04 3.084e-09
 18.64867    -42.2 1.083e+04 2.467e-09
 18.68824    -41.4 1.074e+04 2.288e-09
 18.72771    -39.9 1.061e+04 2.223e-09
 18.76718    -38.2 1.056e+04 2.315e-09
 18.80599    -36.5 1.065e+04 2.506e-09
 18.82572    -35.6 1.047e+04 2.113e-09
 18.84612    -33.9 1.067e+04 2.418e-09
 18.88558    -32.4 1.081e+04 2.762e-09
 18.91509    -32.0 1.101e+04 3.771e-09
 18.93472    -31.6 1.108e+04 4.341e-09
 18.95446    -31.0 1.118e+04 5.047e-09
 18.96466    -30.5 1.127e+04 5.516e-09
 18.97453    -30.0 1.128e+04 5.652e-09
 18.99393    -29.7 1.142e+04 6.234e-09
 19.01366    -29.5 1.149e+04 6.515e-09
 19.04336    -28.9 1.140e+04 5.912e-09
 19.08293    -27.6 1.134e+04 4.802e-09
 19.10399    -26.1 1.123e+04 3.180e-09
 19.11376    -26.0 1.129e+04 3.569e-09
 19.13207    -25.5 1.125e+04 3.055e-09
 19.16177    -24.6 1.135e+04 2.432e-09
 19.20133    -23.1 1.136e+04 1.966e-09
 19.24080    -21.2 1.131e+04 1.792e-09
 19.28027    -19.2 1.136e+04 1.833e-09
 19.31974    -17.3 1.147e+04 2.242e-09
 19.35921    -15.3 1.139e+04 2.766e-09
 19.38215    -13.1 1.132e+04 3.198e-09
 19.39192    -13.2 1.133e+04 3.088e-09
 19.40835    -13.0 1.129e+04 3.232e-09
 19.42808    -11.4 1.143e+04 4.145e-09
 19.44782    -11.0 1.135e+04 4.255e-09
 19.46755     -9.7 1.147e+04 4.754e-09
 19.48729     -9.3 1.139e+04 4.651e-09
 19.50702     -8.2 1.149e+04 4.571e-09
 19.52119     -7.8 1.128e+04 4.270e-09
 19.53105     -7.8 1.127e+04 4.202e-09
 19.54649     -6.7 1.121e+04 3.812e-09
 19.56622     -6.4 1.107e+04 3.637e-09
 19.59592     -4.9 1.097e+04 2.924e-09
 19.63549     -3.0 1.080e+04 2.379e-09
 19.65764     -1.2 1.076e+04 2.035e-09
 19.66293     -0.8 1.063e+04 2.166e-09
 19.68025     -0.5 1.060e+04 2.131e-09
 19.71443      1.3 1.056e+04 1.687e-09
 19.75390      3.0 1.050e+04 1.573e-09
 19.79336      4.9 1.049e+04 1.805e-09
 19.83283      6.8 1.059e+04 2.335e-09
 19.87230      9.0 1.081e+04 3.010e-09
 19.91177     11.1 1.085e+04 3.202e-09
 19.93878     12.7 1.086e+04 2.729e-09
 19.95851     13.3 1.092e+04 3.003e-09
 19.99071     14.7 1.109e+04 2.940e-09
 20.02021     15.2 1.108e+04 2.843e-09
 20.03985     15.4 1.111e+04 2.953e-09
 20.05958     15.7 1.125e+04 3.281e-09
 20.07771     15.2 1.169e+04 3.830e-09
 20.08758     16.0 1.179e+04 4.224e-09
 20.09905     15.7 1.183e+04 5.759e-09
 20.11879     16.0 1.175e+04 7.459e-09
 20.13852     16.5 1.165e+04 8.032e-09
 20.15825     17.1 1.174e+04 7.051e-09
 20.17799     17.3 1.191e+04 5.374e-09
 20.19772     17.0 1.200e+04 4.032e-09
 20.21685     16.7 1.197e+04 3.250e-09
 20.22671     17.7 1.211e+04 5.169e-09
 20.23719     17.3 1.236e+04 3.893e-09
 20.25500     16.9 1.202e+04 3.762e-09
 20.26487     17.3 1.212e+04 4.274e-09
 20.27666     17.3 1.203e+04 4.262e-09
 20.29639     17.4 1.210e+04 4.362e-09
 20.31613     17.8 1.197e+04 4.765e-09
 20.33586     18.1 1.206e+04 4.568e-09
 20.35560     18.2 1.202e+04 4.377e-09
 20.36584     17.9 1.209e+04 4.039e-09
 20.37571     18.5 1.226e+04 5.583e-09
 20.39507     18.1 1.239e+04 4.917e-09
 20.41480     17.9 1.166e+04 5.410e-09
 20.43453     18.4 1.201e+04 3.887e-09
 20.45427     18.2 1.158e+04 3.583e-09
 20.47400     18.5 1.147e+04 3.122e-09
 20.49374     18.7 1.152e+04 2.747e-09
 20.50498     19.2 1.105e+04 3.048e-09
 20.51484     19.6 1.116e+04 4.404e-09
 20.53321     20.4 1.182e+04 3.601e-09
 20.55294     20.4 1.166e+04 4.005e-09
 20.57268     20.5 1.174e+04 4.463e-09
 20.59241     20.0 1.215e+04 5.355e-09
 20.61214     19.7 1.211e+04 8.384e-09
 20.63188     20.2 1.217e+04 1.135e-08
 20.64411     20.9 1.207e+04 1.244e-08
 20.65397     21.1 1.228e+04 1.542e-08
 20.67135     22.5 1.231e+04 1.042e-08
 20.69108     20.6 1.299e+04 7.100e-09
 20.71082     18.4 1.254e+04 8.148e-09
 20.73055     17.1 1.232e+04 1.027e-08
 20.75028     17.1 1.226e+04 1.369e-08
 20.77002     16.8 1.227e+04 1.405e-08
 20.78324     17.2 1.206e+04 1.099e-08
 20.79311     17.0 1.208e+04 1.086e-08
 20.80949     16.5 1.193e+04 7.022e-09
 20.82922     15.6 1.156e+04 4.886e-09
 20.84896     15.2 1.121e+04 3.742e-09
 20.86243     15.2 1.091e+04 3.205e-09
 20.87229     15.5 1.093e+04 3.205e-09
 20.89839     16.2 1.092e+04 2.558e-09
 20.93796     17.2 1.045e+04 2.144e-09
 20.97742     19.0 1.020e+04 1.714e-09
 21.01689     21.1 1.012e+04 1.247e-09
 21.05183     22.8 1.013e+04 9.287e-10
 21.07156     22.4 1.019e+04 1.115e-09
 21.09583     24.5 1.015e+04 1.066e-09
 21.13530     26.5 1.021e+04 1.202e-09
 21.17477     28.5 1.038e+04 1.677e-09
 21.21424     30.2 1.062e+04 2.418e-09
 21.24374     30.5 1.079e+04 3.454e-09
 21.26338     31.3 1.091e+04 4.437e-09
 21.28311     32.1 1.117e+04 5.472e-09
 21.30285     32.6 1.133e+04 6.215e-09
 21.32258     33.0 1.142e+04 6.921e-09
 21.33977     32.9 1.158e+04 7.959e-09
 21.34963     31.9 1.201e+04 1.075e-08
 21.36205     31.6 1.233e+04 1.414e-08
 21.38178     31.6 1.261e+04 1.806e-08
 21.40152     31.6 1.277e+04 1.894e-08
 21.42125     31.4 1.270e+04 1.663e-08
 21.44099     30.8 1.259e+04 1.375e-08
 21.45999     29.5 1.251e+04 1.108e-08
 21.46985     30.3 1.252e+04 1.185e-08
 21.47890     28.7 1.239e+04 1.038e-08
 21.48876     27.5 1.241e+04 1.056e-08
 21.50019     26.4 1.238e+04 1.133e-08
 21.51992     25.8 1.230e+04 1.208e-08
 21.53966     25.4 1.222e+04 1.143e-08
 21.55939     24.3 1.241e+04 1.022e-08
 21.57913     20.6 1.321e+04 1.179e-08
 21.59886     17.2 1.318e+04 1.938e-08
 21.61803     17.3 1.292e+04 3.158e-08
 21.62790     16.6 1.374e+04 4.767e-08
 21.63833     16.3 1.418e+04 3.039e-08
 21.65806     12.7 1.355e+04 1.998e-08
 21.67780     10.1 1.222e+04 1.408e-08
 21.69753      9.1 1.178e+04 1.023e-08
 21.71727      8.4 1.133e+04 7.866e-09
 21.73700      7.8 1.099e+04 6.230e-09
 21.75674      7.4 1.087e+04 5.814e-09
 21.76703      7.2 1.092e+04 6.065e-09
 21.77690      7.1 1.098e+04 6.841e-09
 21.79621      7.3 1.129e+04 8.205e-09
 21.81594      7.5 1.178e+04 1.038e-08
 21.83567      7.3 1.224e+04 1.336e-08
 21.85541      7.4 1.263e+04 1.721e-08
 21.87514      7.6 1.299e+04 1.910e-08
 21.89488      7.7 1.303e+04 2.001e-08
 21.90616      7.9 1.320e+04 1.877e-08
 21.91603      7.6 1.356e+04 2.351e-08
 21.93435      7.4 1.385e+04 1.898e-08
 21.95408      6.4 1.423e+04 1.423e-08
 21.97381      4.6 1.400e+04 1.092e-08
 21.99355      2.8 1.315e+04 1.071e-08
 22.01328      2.0 1.292e+04 1.332e-08
 22.03302      1.8 1.324e+04 1.346e-08
 22.04529      0.4 1.355e+04 1.187e-08
 22.05516     -0.5 1.333e+04 1.175e-08
 22.06741     -2.8 1.360e+04 1.192e-08
 22.07728     -1.9 1.589e+04 4.490e-08
 22.09222     -5.1 1.582e+04 4.795e-08
 22.11195     -7.0 1.576e+04 6.555e-08
 22.13169     -7.4 1.603e+04 8.292e-08
 22.15142     -8.2 1.601e+04 7.983e-08
 22.17116     -9.8 1.535e+04 5.355e-08
 22.18442    -11.6 1.444e+04 3.599e-08
 22.19429    -11.1 1.501e+04 4.859e-08
 22.21063    -12.2 1.411e+04 3.322e-08
 22.23036    -12.6 1.338e+04 2.280e-08
 22.25010    -12.9 1.281e+04 1.523e-08
 22.26983    -13.4 1.235e+04 1.050e-08
 22.28956    -13.8 1.198e+04 8.100e-09
 22.30930    -14.1 1.183e+04 7.395e-09
 22.32355    -14.2 1.182e+04 7.296e-09
 22.33342    -13.4 1.201e+04 8.269e-09
 22.34877    -13.4 1.212e+04 9.475e-09
 22.36850    -13.5 1.252e+04 1.205e-08
 22.38824    -14.9 1.367e+04 1.710e-08
 22.40299    -18.4 1.525e+04 2.360e-08
 22.41281    -22.7 1.739e+04 3.613e-08
 22.42267    -27.3 1.863e+04 8.558e-08
 22.43254    -29.6 1.835e+04 1.906e-07
 22.44241    -30.1 1.799e+04 3.255e-07
 22.45227    -29.9 1.786e+04 3.969e-07
 22.46214    -29.6 1.783e+04 4.003e-07
 22.46752    -29.7 1.786e+04 2.367e-07
 22.47246    -31.6 1.867e+04 2.329e-07
 22.48686    -34.5 1.755e+04 1.226e-07
 22.50664    -34.8 1.606e+04 7.099e-08
 22.52638    -34.2 1.523e+04 4.832e-08
 22.54611    -33.4 1.464e+04 3.562e-08
 22.56584    -32.4 1.405e+04 2.374e-08
 22.59554    -32.1 1.292e+04 1.208e-08
 22.63511    -29.7 1.209e+04 7.342e-09
 22.67458    -27.1 1.175e+04 5.183e-09
 22.71405    -25.0 1.174e+04 4.699e-09
 22.74114    -23.3 1.198e+04 5.307e-09
 22.76088    -23.1 1.158e+04 3.447e-09
 22.79299    -21.4 1.179e+04 4.893e-09
 22.83245    -19.9 1.201e+04 6.090e-09
 22.87192    -18.6 1.225e+04 7.010e-09
 22.91139    -17.9 1.251e+04 8.712e-09
 22.94089    -17.1 1.260e+04 1.078e-08
 22.96053    -16.6 1.273e+04 1.263e-08
 22.98027    -16.1 1.279e+04 1.332e-08
 23.00000    -15.5 1.268e+04 1.296e-08
 23.01921    -14.7 1.251e+04 1.067e-08
 23.02908    -14.1 1.236e+04 9.976e-09
 23.03947    -13.4 1.224e+04 8.021e-09
 23.05920    -12.7 1.210e+04 6.227e-09
 23.07894    -11.9 1.202e+04 4.701e-09
 23.09867    -11.2 1.192e+04 3.527e-09
 23.11841    -10.4 1.183e+04 2.839e-09
 23.14811     -9.1 1.182e+04 2.596e-09
 23.18767     -7.1 1.160e+04 2.382e-09
 23.22714     -4.8 1.155e+04 2.332e-09
 23.26273     -2.8 1.153e+04 2.450e-09
 23.28246     -2.6 1.137e+04 2.476e-09
 23.29767     -1.6 1.181e+04 2.923e-09
 23.31741      0.4 1.112e+04 2.269e-09
 23.34555      1.3 1.136e+04 2.432e-09
 23.38502      2.0 1.175e+04 4.235e-09
 23.42448      2.9 1.209e+04 6.934e-09
 23.44657      3.2 1.246e+04 8.381e-09
 23.45634      4.6 1.215e+04 7.579e-09
 23.47362      4.8 1.238e+04 7.841e-09
 23.49336      5.1 1.240e+04 7.713e-09
 23.51309      5.5 1.246e+04 7.448e-09
 23.53283      5.7 1.265e+04 6.706e-09
 23.55256      5.7 1.274e+04 6.275e-09
 23.57230      4.6 1.327e+04 6.284e-09
 23.58561      1.8 1.355e+04 9.317e-09
 23.59547      3.6 1.401e+04 9.228e-09
 23.61177      0.8 1.369e+04 2.063e-08
 23.63150      0.8 1.410e+04 3.801e-08
 23.65123      1.0 1.478e+04 4.149e-08
 23.67097     -2.1 1.491e+04 2.144e-08
 23.69070     -6.2 1.390e+04 1.287e-08
 23.71044     -8.2 1.345e+04 1.072e-08
 23.72474     -9.5 1.326e+04 9.788e-09
 23.73461     -8.7 1.337e+04 1.048e-08
 23.74991     -9.6 1.323e+04 1.005e-08
 23.76964    -10.3 1.312e+04 9.608e-09
 23.78937    -10.9 1.302e+04 9.178e-09
 23.80911    -11.4 1.289e+04 8.989e-09
 23.82884    -11.7 1.283e+04 8.953e-09
 23.84858    -12.0 1.281e+04 9.003e-09
 23.86387    -12.4 1.279e+04 9.388e-09
 23.87374    -12.0 1.293e+04 1.028e-08
 23.87983    -12.4 1.295e+04 1.112e-08
 23.88970    -12.9 1.298e+04 1.212e-08
 23.90778    -13.4 1.299e+04 1.351e-08
 23.92751    -13.8 1.298e+04 1.442e-08
 23.94725    -14.3 1.296e+04 1.452e-08
 23.96698    -14.8 1.272e+04 1.357e-08
 23.98672    -15.1 1.243e+04 1.206e-08
 24.00300    -15.2 1.214e+04 1.049e-08
 24.01287    -15.4 1.246e+04 1.329e-08
 24.02619    -15.3 1.211e+04 1.086e-08
 24.04592    -14.8 1.174e+04 8.246e-09
 24.06566    -14.3 1.140e+04 5.979e-09
 24.08539    -13.8 1.108e+04 4.260e-09
 24.10512    -13.2 1.088e+04 3.177e-09
 24.12486    -12.8 1.073e+04 2.488e-09
 24.14213    -12.5 1.062e+04 2.235e-09
 24.15200    -12.3 1.067e+04 2.403e-09
 24.16433    -11.2 1.063e+04 2.220e-09
 24.18406    -11.0 1.056e+04 2.155e-09
 24.21376     -9.3 1.058e+04 2.246e-09
 24.25333     -7.7 1.050e+04 2.360e-09
 24.29280     -6.1 1.041e+04 2.696e-09
 24.33226     -4.5 1.032e+04 2.950e-09
 24.37173     -2.9 1.021e+04 2.961e-09
 24.41072     -1.1 1.013e+04 2.820e-09
 24.43036     -1.0 1.007e+04 2.793e-09
 24.45057      1.0 1.004e+04 2.600e-09
 24.47758      3.0 9.918e+03 2.121e-09
 24.49732      2.4 9.642e+03 1.561e-09
 24.52961      4.4 9.498e+03 1.330e-09
 24.56908      6.6 9.439e+03 1.258e-09
 24.60855      8.8 9.403e+03 1.234e-09
 24.64801     11.0 9.384e+03 1.269e-09
 24.68748     12.9 9.377e+03 1.394e-09
 24.70872     14.8 9.430e+03 1.703e-09
 24.72846     15.0 9.423e+03 1.712e-09
 24.76642     17.1 9.692e+03 2.498e-09
 24.79592     18.0 9.650e+03 3.072e-09
 24.81556     18.7 9.664e+03 3.958e-09
 24.83529     19.4 1.012e+04 4.328e-09
 24.84766     20.0 1.013e+04 5.353e-09
 24.85753     20.0 1.012e+04 5.346e-09
 24.87476     20.5 1.032e+04 5.316e-09
 24.89450     20.9 1.027e+04 5.688e-09
 24.91423     21.2 1.041e+04 5.347e-09
 24.93397     21.5 1.031e+04 5.414e-09
 24.95370     21.9 1.036e+04 5.023e-09
 24.97344     22.4 1.022e+04 4.829e-09
 24.98679     23.2 1.011e+04 4.431e-09
 24.99666     22.7 9.933e+03 3.802e-09
 25.01290     23.4 9.889e+03 3.421e-09
 25.03264     24.2 9.885e+03 3.128e-09
 25.05237     24.8 9.823e+03 2.993e-09
 25.07211     25.5 9.917e+03 2.928e-09
 25.08481     25.6 1.017e+04 3.354e-09
 25.09468     26.0 1.015e+04 3.276e-09
 25.11158     26.3 1.036e+04 4.103e-09
 25.12592     26.6 1.058e+04 5.367e-09
 25.13579     25.2 1.071e+04 5.938e-09
 25.15104     25.7 1.103e+04 8.231e-09
 25.17078     26.0 1.145e+04 1.088e-08
 25.19051     25.7 1.198e+04 1.370e-08
 25.21025     25.3 1.233e+04 1.648e-08
 25.22998     25.0 1.251e+04 1.679e-08
 25.24972     24.5 1.247e+04 1.356e-08
 25.26505     23.5 1.229e+04 9.242e-09
 25.28489     18.9 1.182e+04 6.868e-09
 25.31898     17.0 1.159e+04 7.302e-09
 25.34849     16.5 1.167e+04 8.480e-09
 25.36812     16.5 1.167e+04 8.435e-09
 25.38786     16.4 1.157e+04 7.207e-09
 25.40419     16.5 1.142e+04 6.843e-09
 25.41405     16.0 1.125e+04 5.491e-09
 25.43729     16.6 1.150e+04 4.133e-09
 25.47686     16.7 1.132e+04 2.442e-09
 25.51633     16.7 1.121e+04 1.820e-09
 25.54351     16.1 1.137e+04 2.091e-09
 25.56325     16.7 1.088e+04 1.724e-09
 25.59526     16.7 1.113e+04 2.932e-09
 25.63473     16.8 1.074e+04 3.756e-09
 25.67270     17.3 1.079e+04 2.420e-09
 25.69244     16.9 1.114e+04 3.497e-09
 25.71367     16.8 1.097e+04 2.921e-09
 25.75314     17.4 1.112e+04 2.705e-09
 25.79261     18.3 1.114e+04 3.179e-09
 25.82178     19.7 1.111e+04 4.061e-09
 25.84151     20.5 1.086e+04 2.896e-09
 25.87154     22.4 1.098e+04 3.752e-09
 25.91101     24.2 1.129e+04 4.832e-09
 25.95048     25.8 1.156e+04 6.265e-09
 25.98995     27.4 1.172e+04 8.026e-09
 26.02942     28.8 1.172e+04 8.091e-09
 26.06889     30.5 1.159e+04 7.007e-09
 26.10004     32.1 1.147e+04 5.692e-09
 26.11977     32.5 1.116e+04 4.515e-09
 26.14782     34.1 1.110e+04 3.684e-09
 26.18729     35.6 1.102e+04 3.630e-09
 26.22676     36.6 1.133e+04 4.495e-09
 26.26623     37.3 1.191e+04 7.013e-09
 26.28990     38.3 1.196e+04 7.782e-09
 26.29967     37.7 1.218e+04 9.053e-09
 26.31537     38.0 1.244e+04 1.151e-08
 26.33511     38.5 1.267e+04 1.396e-08
 26.35484     38.8 1.294e+04 1.580e-08
 26.37457     39.1 1.302e+04 1.588e-08
 26.38797     39.6 1.294e+04 1.462e-08
 26.39784     40.0 1.268e+04 1.248e-08
 26.41404     40.7 1.252e+04 1.005e-08
 26.43378     41.2 1.239e+04 7.614e-09
 26.45351     41.6 1.237e+04 5.979e-09
 26.47325     41.9 1.235e+04 4.962e-09
 26.49298     42.5 1.221e+04 4.632e-09
 26.51271     43.4 1.222e+04 4.696e-09
 26.52711     44.3 1.226e+04 4.860e-09
 26.53697     44.6 1.216e+04 3.872e-09
 26.55218     45.4 1.220e+04 4.071e-09
 26.57192     46.4 1.226e+04 4.331e-09
 26.59165     47.2 1.233e+04 4.665e-09
 26.61139     48.0 1.240e+04 5.065e-09
 26.63112     48.7 1.252e+04 5.711e-09
 26.65086     49.1 1.273e+04 6.902e-09
 26.66624     49.2 1.298e+04 9.031e-09
 26.67610     49.5 1.299e+04 8.991e-09
 26.69032     49.4 1.328e+04 1.312e-08
 26.71006     49.3 1.361e+04 1.865e-08
 26.72979     48.9 1.389e+04 2.079e-08
 26.74953     48.5 1.380e+04 1.943e-08
 26.76926     48.4 1.346e+04 1.479e-08
 26.78900     48.3 1.307e+04 9.625e-09
 26.80537     48.0 1.275e+04 6.120e-09
 26.81524     48.2 1.297e+04 7.403e-09
 26.82846     47.8 1.271e+04 5.542e-09
 26.84820     47.7 1.254e+04 4.627e-09
 26.86793     47.7 1.241e+04 4.247e-09
 26.88736     47.8 1.240e+04 4.250e-09
 26.89723     47.8 1.235e+04 3.666e-09
 26.90740     47.9 1.237e+04 3.856e-09
 26.92714     47.8 1.244e+04 4.231e-09
 26.94450     47.5 1.258e+04 4.865e-09
 26.95437     46.8 1.299e+04 6.942e-09
 26.96660     45.7 1.342e+04 1.178e-08
 26.98634     44.8 1.398e+04 2.046e-08
 27.00607     44.1 1.433e+04 2.810e-08
 27.02581     42.9 1.477e+04 3.523e-08
 27.04554     42.1 1.480e+04 3.298e-08
 27.06528     41.0 1.459e+04 2.555e-08
 27.08363     40.9 1.391e+04 1.571e-08
 27.09350     38.8 1.386e+04 1.507e-08
 27.10475     38.1 1.367e+04 1.218e-08
 27.13444     39.2 1.327e+04 8.958e-09
 27.17401     39.6 1.295e+04 7.696e-09
 27.21309     40.9 1.299e+04 8.075e-09
 27.23273     39.6 1.275e+04 6.412e-09
 27.24289     40.8 1.282e+04 6.312e-09
 27.26262     41.0 1.288e+04 6.331e-09
 27.29232     41.9 1.276e+04 5.060e-09
 27.33189     42.4 1.274e+04 5.368e-09
 27.37135     43.1 1.279e+04 6.010e-09
 27.41082     43.7 1.287e+04 6.529e-09
 27.45029     44.1 1.294e+04 7.496e-09
 27.48976     44.8 1.289e+04 8.386e-09
 27.51109     45.8 1.284e+04 8.353e-09
 27.53082     47.5 1.257e+04 6.705e-09
 27.56870     48.6 1.261e+04 7.152e-09
 27.60817     49.7 1.265e+04 7.377e-09
 27.64764     50.9 1.267e+04 7.482e-09
 27.68710     52.0 1.266e+04 7.371e-09
 27.71661     52.8 1.266e+04 7.846e-09
 27.73624     53.3 1.258e+04 7.742e-09
 27.75598     53.9 1.249e+04 7.645e-09
 27.77571     54.4 1.240e+04 7.523e-09
 27.78916     54.9 1.235e+04 7.434e-09
 27.79902     55.2 1.238e+04 7.727e-09
 27.81518     55.6 1.232e+04 7.719e-09
 27.83492     56.0 1.226e+04 7.753e-09
 27.85465     56.3 1.222e+04 7.745e-09
 27.87438     56.6 1.218e+04 7.674e-09
 27.89412     57.0 1.210e+04 7.486e-09
 27.91385     57.2 1.206e+04 7.156e-09
 27.92829     57.5 1.191e+04 6.498e-09
 27.93816     57.9 1.195e+04 6.827e-09
 27.95332     58.2 1.181e+04 6.155e-09
 27.97306     58.5 1.165e+04 5.303e-09
 27.99279     58.8 1.147e+04 4.423e-09
 28.01253     59.2 1.130e+04 3.712e-09
 28.03226     59.4 1.120e+04 3.018e-09
 28.05199     59.4 1.115e+04 2.771e-09
 28.06752     60.0 1.128e+04 2.799e-09
 28.07739     60.4 1.118e+04 2.978e-09
 28.09146     60.4 1.119e+04 2.891e-09
 28.10231     61.5 1.126e+04 2.941e-09
 28.12214     61.7 1.106e+04 2.363e-09
 28.16073     62.7 1.105e+04 2.115e-09
 28.20020     63.8 1.112e+04 2.047e-09
 28.23967     64.5 1.120e+04 2.145e-09
 28.26917     64.9 1.115e+04 2.430e-09
 28.28881     65.1 1.118e+04 3.115e-09
 28.30854     65.2 1.126e+04 4.524e-09
 28.32827     65.3 1.139e+04 6.699e-09
 28.34568     65.3 1.159e+04 9.313e-09
 28.35555     65.4 1.167e+04 9.350e-09
 28.36774     65.1 1.170e+04 1.002e-08
 28.38748     64.8 1.159e+04 9.505e-09
 28.40721     64.5 1.127e+04 7.670e-09
 28.42695     64.1 1.093e+04 5.669e-09
 28.44668     63.5 1.066e+04 4.340e-09
 28.46642     63.0 1.038e+04 3.807e-09
 28.48482     63.1 1.024e+04 3.813e-09
 28.49468     63.2 1.020e+04 3.735e-09
 28.50588     63.4 1.020e+04 3.789e-09
 28.52562     63.6 1.025e+04 4.054e-09
 28.54535     63.6 1.049e+04 4.751e-09
 28.56509     63.4 1.089e+04 6.305e-09
 28.58482     62.9 1.150e+04 9.491e-09
 28.60456     62.3 1.225e+04 1.520e-08
 28.62395     61.9 1.298e+04 2.331e-08
 28.63381     61.9 1.297e+04 2.152e-08
 28.64402     61.4 1.373e+04 3.159e-08
 28.66376     59.9 1.498e+04 4.541e-08
 28.68349     55.3 1.774e+04 9.571e-08
 28.69825     52.0 1.915e+04 1.526e-07
 28.70328     49.7 1.917e+04 2.084e-07
 28.70476     49.4 1.928e+04 2.396e-07
 28.70954     51.2 1.963e+04 2.150e-07
 28.71793     49.0 1.925e+04 3.684e-07
 28.72780     47.5 1.898e+04 5.783e-07
 28.73766     46.6 1.882e+04 5.845e-07
 28.74753     45.2 1.877e+04 4.462e-07
 28.75740     44.5 1.834e+04 2.408e-07
 28.76727     42.6 1.781e+04 1.254e-07
 28.77290     39.6 1.709e+04 7.000e-08
 28.78281     37.8 1.719e+04 6.594e-08
 28.80190     31.4 1.400e+04 2.884e-08
 28.82163     29.3 1.275e+04 2.262e-08
 28.84137     29.1 1.250e+04 2.127e-08
 28.86110     29.0 1.230e+04 2.029e-08
 28.88084     28.9 1.198e+04 1.860e-08
 28.90057     29.1 1.152e+04 1.538e-08
 28.91208     29.0 1.109e+04 1.242e-08
 28.92195     27.4 1.084e+04 1.146e-08
 28.94004     27.1 1.057e+04 9.412e-09
 28.95977     26.7 1.035e+04 8.064e-09
 28.97951     26.3 1.009e+04 7.211e-09
 28.99924     25.7 9.924e+03 7.069e-09
 29.01898     25.4 9.832e+03 7.124e-09
 29.03871     25.4 9.782e+03 7.214e-09
 29.05121     25.6 9.716e+03 6.905e-09
 29.06108     24.6 9.730e+03 6.937e-09
 29.07818     24.8 9.555e+03 6.078e-09
 29.09791     24.6 9.378e+03 5.052e-09
 29.11765     23.8 9.497e+03 4.721e-09
 29.13738     21.9 9.931e+03 5.641e-09
 29.15712     19.7 1.047e+04 7.542e-09
 29.17685     19.5 1.052e+04 1.177e-08
 29.19034     20.2 1.062e+04 1.289e-08
 29.20021     19.7 1.085e+04 1.311e-08
 29.21632     19.4 1.101e+04 9.343e-09
 29.23605     17.2 1.083e+04 7.142e-09
 29.25579     14.9 1.065e+04 5.852e-09
 29.27552     13.4 1.080e+04 6.290e-09
 29.29526     12.6 1.124e+04 9.521e-09
 29.30720     11.7 1.221e+04 1.418e-08
 29.31707     11.4 1.248e+04 1.774e-08
 29.32947     11.0 1.317e+04 2.619e-08
 29.33934     10.5 1.377e+04 3.382e-08
 29.35446     10.9 1.405e+04 3.767e-08
 29.37420     11.0 1.400e+04 3.359e-08
 29.39393     10.6 1.393e+04 2.432e-08
 29.41366      9.1 1.362e+04 1.689e-08
 29.43340      7.1 1.335e+04 1.397e-08
 29.45313      4.2 1.430e+04 1.628e-08
 29.46860     -1.4 1.547e+04 3.585e-08
 29.47847     -1.7 1.523e+04 3.587e-08
 29.49260     -5.1 1.634e+04 7.635e-08
 29.51234     -6.2 1.761e+04 1.279e-07
 29.53207    -10.9 1.755e+04 1.164e-07
 29.55180    -15.9 1.582e+04 4.388e-08
 29.57154    -20.1 1.415e+04 2.011e-08
 29.59127    -22.9 1.312e+04 1.391e-08
 29.60774    -24.5 1.245e+04 1.180e-08
 29.61760    -24.2 1.210e+04 9.545e-09
 29.63074    -25.0 1.173e+04 8.843e-09
 29.65048    -25.5 1.146e+04 8.178e-09
 29.67021    -26.0 1.122e+04 7.586e-09
 29.68994    -26.6 1.103e+04 7.077e-09
 29.70968    -27.7 1.091e+04 6.544e-09
 29.72941    -29.4 1.093e+04 6.040e-09
 29.74687    -31.5 1.120e+04 6.054e-09
 29.75674    -31.7 1.149e+04 6.686e-09
 29.76888    -34.0 1.182e+04 8.205e-09
 29.78862    -35.7 1.192e+04 1.017e-08
 29.80835    -36.8 1.169e+04 1.082e-08
 29.82809    -37.7 1.129e+04 1.011e-08
 29.84782    -38.8 1.092e+04 9.083e-09
 29.86755    -39.9 1.062e+04 8.318e-09
 29.88600    -40.9 1.036e+04 7.771e-09
 29.89587    -41.1 1.022e+04 7.212e-09
 29.90476    -41.6 9.954e+03 6.795e-09
 29.91463    -43.2 9.910e+03 6.601e-09
 29.92676    -43.3 9.572e+03 5.817e-09
 29.94649    -43.1 9.221e+03 4.934e-09
 29.96623    -42.7 8.867e+03 4.024e-09
 29.98596    -42.3 8.586e+03 3.329e-09
 30.01536    -41.9 8.367e+03 2.824e-09
 30.03519    -41.4 8.309e+03 2.745e-09
 30.05523    -40.0 7.786e+03 1.923e-09
 30.09469    -38.0 7.268e+03 1.320e-09
 30.13416    -36.1 6.984e+03 9.983e-10
 30.17363    -34.3 6.815e+03 8.350e-10
 30.21310    -32.4 6.675e+03 7.571e-10
 30.25257    -30.3 6.568e+03 7.158e-10
 30.29204    -28.4 6.506e+03 6.970e-10
 30.31346    -26.4 6.457e+03 7.071e-10
 30.33319    -25.4 6.502e+03 7.807e-10
 30.37098    -23.7 6.516e+03 8.161e-10
 30.41044    -22.5 6.590e+03 9.213e-10
 30.44991    -21.6 6.786e+03 1.179e-09
 30.48938    -21.0 7.073e+03 1.614e-09
 30.51238    -20.6 7.419e+03 2.154e-09
 30.53212    -21.5 7.289e+03 1.967e-09
 30.56832    -21.7 7.730e+03 2.527e-09
 30.59172    -22.5 8.310e+03 3.411e-09
 30.60149    -21.3 8.257e+03 3.335e-09
 30.61746    -21.6 8.300e+03 3.455e-09
 30.63719    -22.6 8.620e+03 4.393e-09
 30.65693    -24.4 9.228e+03 5.687e-09
 30.67666    -27.2 1.037e+04 8.437e-09
 30.69640    -30.1 1.152e+04 1.377e-08
 30.71613    -32.2 1.228e+04 2.112e-08
 30.73066    -33.5 1.257e+04 2.606e-08
 30.74052    -33.8 1.298e+04 3.124e-08
 30.75560    -34.4 1.279e+04 2.894e-08
 30.77533    -34.8 1.206e+04 1.810e-08
 30.79507    -35.6 1.101e+04 8.987e-09
 30.81480    -36.7 1.010e+04 4.369e-09
 30.83454    -37.6 9.467e+03 2.530e-09
 30.85427    -37.9 9.114e+03 1.973e-09
 30.86989    -36.9 8.889e+03 1.697e-09
 30.88972    -38.0 8.575e+03 1.609e-09
 30.92354    -35.4 8.227e+03 1.192e-09
 30.96301    -32.9 8.154e+03 9.895e-10
 31.00247    -30.3 8.183e+03 8.938e-10
 31.04194    -27.7 8.194e+03 8.653e-10
 31.08141    -24.9 8.269e+03 8.558e-10
 31.12088    -22.2 8.381e+03 8.697e-10
 31.14825    -19.7 8.499e+03 9.503e-10
 31.16798    -19.9 8.513e+03 1.032e-09
 31.19982    -17.9 8.775e+03 1.295e-09
 31.23929    -16.1 9.059e+03 2.060e-09
 31.27876    -14.2 9.531e+03 3.523e-09
 31.31822    -12.5 1.009e+04 5.329e-09
 31.35769    -11.2 1.047e+04 6.214e-09
 31.39716    -10.6 1.068e+04 5.840e-09
 31.42651    -10.2 1.074e+04 5.331e-09
 31.44624    -10.6 1.075e+04 5.197e-09
 31.47610     -9.9 1.103e+04 5.248e-09
 31.51557     -8.9 1.127e+04 5.620e-09
 31.55504     -7.7 1.139e+04 5.072e-09
 31.59450     -6.4 1.152e+04 3.928e-09
 31.63397     -5.0 1.160e+04 2.928e-09
 31.67344     -3.4 1.160e+04 2.271e-09
 31.70477     -1.7 1.157e+04 1.865e-09
 31.71910     -2.2 1.148e+04 1.664e-09
 31.72724     -1.9 1.158e+04 1.805e-09
 31.75238     -0.4 1.151e+04 1.478e-09
 31.79185      1.0 1.144e+04 1.371e-09
 31.83132      2.1 1.145e+04 1.473e-09
 31.87079      3.0 1.150e+04 1.776e-09
 31.91025      4.2 1.149e+04 2.156e-09
 31.94972      5.6 1.146e+04 2.428e-09
 31.98304      6.8 1.141e+04 2.292e-09
 32.00277      6.6 1.148e+04 2.504e-09
 32.02866      7.3 1.145e+04 2.189e-09
 32.06813      8.3 1.139e+04 2.177e-09
 32.10760      9.4 1.135e+04 2.165e-09
 32.14707     10.8 1.133e+04 2.205e-09
 32.18654     12.6 1.151e+04 1.930e-09
 32.22600     14.3 1.162e+04 1.486e-09
 32.26130     15.9 1.159e+04 1.343e-09
 32.28103     15.7 1.161e+04 1.378e-09
 32.30494     17.6 1.172e+04 1.608e-09
 32.33445     18.7 1.163e+04 2.072e-09
 32.35408     19.7 1.165e+04 2.766e-09
 32.37382     20.8 1.181e+04 3.883e-09
 32.39355     20.8 1.259e+04 5.555e-09
 32.41010     16.9 1.515e+04 1.413e-08
 32.41997     15.8 1.554e+04 2.956e-08
 32.43302     16.5 1.583e+04 8.192e-08
 32.45275     17.0 1.591e+04 8.675e-08
 32.47249     16.8 1.587e+04 6.239e-08
 32.49222     14.5 1.551e+04 3.943e-08
 32.51196     12.2 1.479e+04 3.065e-08
 32.53169     11.3 1.423e+04 2.974e-08
 32.54924     11.7 1.378e+04 3.070e-08
 32.55910     11.6 1.337e+04 2.547e-08
 32.57116     12.4 1.332e+04 2.433e-08
 32.59089     12.7 1.342e+04 2.308e-08
 32.61063     12.6 1.352e+04 2.297e-08
 32.63036     12.1 1.382e+04 2.495e-08
 32.65010     11.2 1.417e+04 3.251e-08
 32.66983     10.8 1.443e+04 4.047e-08
 32.68837     10.6 1.444e+04 4.397e-08
 32.69823     10.5 1.394e+04 3.528e-08
 32.70930     10.5 1.360e+04 2.708e-08
 32.72903     10.0 1.303e+04 1.855e-08
 32.74877      9.2 1.248e+04 1.215e-08
 32.76850      9.0 1.181e+04 1.019e-08
 32.78824      9.7 1.147e+04 9.186e-09
 32.80797      9.9 1.181e+04 7.039e-09
 32.82750     10.5 1.140e+04 7.943e-09
 32.83737     10.1 1.143e+04 8.748e-09
 32.84744     10.6 1.177e+04 9.189e-09
 32.86718     10.7 1.200e+04 1.088e-08
 32.88691     10.8 1.226e+04 1.391e-08
 32.90664     11.0 1.258e+04 1.832e-08
 32.92216     10.7 1.322e+04 2.325e-08
 32.93203     12.4 1.247e+04 1.719e-08
 32.94611     12.1 1.299e+04 2.075e-08
 32.96585     11.5 1.336e+04 2.635e-08
 32.97650     11.3 1.347e+04 3.158e-08
 32.98636     10.6 1.365e+04 3.632e-08
 33.00532     11.2 1.367e+04 3.701e-08
 33.02505     11.7 1.343e+04 2.878e-08
 33.04478     11.5 1.312e+04 2.220e-08
 33.06452     10.9 1.291e+04 1.630e-08
 33.08425      9.7 1.275e+04 1.281e-08
 33.10399      8.3 1.267e+04 1.124e-08
 33.11563      7.3 1.210e+04 1.115e-08
 33.12550      7.8 1.184e+04 8.512e-09
 33.14346      7.5 1.105e+04 7.762e-09
 33.16319      7.6 1.055e+04 6.282e-09
 33.18292      7.3 1.028e+04 5.168e-09
 33.20266      6.4 1.011e+04 4.622e-09
 33.22239      3.9 1.130e+04 5.022e-09
 33.24213     -1.9 1.283e+04 1.099e-08
 33.25476     -4.4 1.288e+04 2.983e-08
 33.26463     -2.6 1.294e+04 2.156e-08
 33.28160     -2.4 1.402e+04 4.769e-08
 33.30133     -1.9 1.494e+04 5.885e-08
 33.32107     -6.9 1.526e+04 3.616e-08
 33.34080    -13.8 1.386e+04 2.033e-08
 33.36053    -19.7 1.249e+04 1.564e-08
 33.38027    -23.4 1.182e+04 1.365e-08
 33.39389    -25.7 1.148e+04 1.140e-08
 33.40376    -27.2 1.259e+04 1.549e-08
 33.41974    -30.3 1.246e+04 1.186e-08
 33.43947    -33.6 1.225e+04 1.072e-08
 33.45921    -35.7 1.205e+04 1.071e-08
 33.47894    -36.4 1.162e+04 1.105e-08
 33.49867    -36.6 1.111e+04 1.045e-08
 33.51841    -36.7 1.067e+04 9.079e-09
 33.52959    -36.8 1.021e+04 7.108e-09
 33.53434    -36.0 1.015e+04 6.956e-09
 33.54289    -37.6 1.018e+04 7.181e-09
 33.55788    -38.1 9.687e+03 5.172e-09
 33.57761    -38.4 9.311e+03 3.970e-09
 33.59735    -38.0 9.039e+03 3.384e-09
 33.61708    -37.5 8.934e+03 3.025e-09
 33.63681    -36.8 8.929e+03 2.773e-09
 33.65655    -36.0 8.936e+03 2.653e-09
 33.67225    -34.9 9.001e+03 2.551e-09
 33.69209    -34.9 8.936e+03 3.417e-09
 33.72581    -32.7 8.960e+03 3.231e-09
 33.76528    -31.9 9.714e+03 4.427e-09
 33.79479    -31.8 1.030e+04 6.600e-09
 33.81129    -32.0 1.050e+04 7.912e-09
 33.82115    -31.3 1.043e+04 8.277e-09
 33.83416    -31.3 1.114e+04 1.286e-08
 33.85389    -33.4 1.254e+04 1.854e-08
 33.87363    -37.4 1.469e+04 3.376e-08
 33.89336    -41.6 1.614e+04 6.913e-08
 33.91310    -44.3 1.696e+04 1.161e-07
 33.93283    -46.5 1.723e+04 1.341e-07
 33.95042    -48.6 1.688e+04 1.123e-07
 33.96029    -49.3 1.783e+04 1.717e-07
 33.97230    -51.1 1.673e+04 9.566e-08
 33.99203    -52.6 1.533e+04 4.968e-08
 34.01177    -53.7 1.452e+04 3.557e-08
 34.03150    -54.0 1.422e+04 3.172e-08
 34.05124    -53.6 1.408e+04 2.956e-08
 34.07097    -53.0 1.397e+04 2.695e-08
 34.08955    -52.6 1.378e+04 2.347e-08
 34.09942    -53.3 1.370e+04 2.276e-08
 34.11044    -52.8 1.339e+04 1.845e-08
 34.12715    -52.2 1.311e+04 1.469e-08
 34.13702    -52.8 1.284e+04 1.173e-08
 34.14991    -52.3 1.262e+04 9.511e-09
 34.16964    -51.6 1.249e+04 8.165e-09
 34.18938    -51.1 1.246e+04 7.576e-09
 34.20911    -50.5 1.247e+04 7.369e-09
 34.22868    -50.0 1.253e+04 7.394e-09
 34.23855    -50.9 1.295e+04 1.117e-08
 34.24858    -50.6 1.301e+04 1.176e-08
 34.26831    -50.5 1.303e+04 1.236e-08
 34.28805    -50.4 1.299e+04 1.304e-08
 34.30778    -50.3 1.292e+04 1.358e-08
 34.32752    -50.0 1.288e+04 1.331e-08
 34.34725    -49.7 1.276e+04 1.236e-08
 34.36699    -49.5 1.268e+04 1.157e-08
 34.37768    -49.3 1.263e+04 1.066e-08
 34.38755    -50.5 1.262e+04 9.679e-09
 34.40645    -50.7 1.264e+04 9.727e-09
 34.42619    -50.7 1.269e+04 1.050e-08
 34.44592    -50.6 1.278e+04 1.169e-08
 34.46566    -50.4 1.288e+04 1.286e-08
 34.48539    -50.0 1.296e+04 1.353e-08
 34.50513    -49.5 1.300e+04 1.365e-08
 34.51681    -48.8 1.300e+04 1.311e-08
 34.52668    -50.3 1.333e+04 1.538e-08
 34.54459    -49.7 1.332e+04 1.477e-08
 34.56433    -49.0 1.330e+04 1.432e-08
 34.58406    -48.4 1.337e+04 1.454e-08
 34.60380    -48.3 1.382e+04 1.658e-08
 34.62353    -49.3 1.499e+04 2.483e-08
 34.64327    -51.6 1.650e+04 5.245e-08
 34.65594    -53.7 1.791e+04 1.161e-07
 34.66581    -55.3 1.681e+04 7.316e-08
 34.68274    -58.5 1.736e+04 7.852e-08
 34.70247    -63.4 1.766e+04 5.096e-08
 34.72220    -69.0 1.664e+04 2.307e-08
 34.73458    -73.3 1.451e+04 1.114e-08
 34.74444    -71.2 1.549e+04 2.736e-08
 34.76167    -73.9 1.341e+04 1.068e-08
 34.78141    -74.9 1.235e+04 6.876e-09
 34.79508    -75.0 1.191e+04 6.105e-09
 34.80494    -73.9 1.178e+04 6.084e-09
 34.82088    -73.3 1.168e+04 5.850e-09
 34.84061    -72.3 1.164e+04 5.756e-09
 34.86034    -71.5 1.163e+04 5.785e-09
 34.88008    -70.8 1.165e+04 5.941e-09
 34.89981    -70.1 1.168e+04 6.207e-09
 34.91955    -69.4 1.171e+04 6.528e-09
 34.93421    -68.6 1.175e+04 6.859e-09
 34.94407    -68.6 1.159e+04 6.248e-09
 34.95902    -67.9 1.166e+04 6.520e-09
 34.97875    -67.2 1.176e+04 6.816e-09
 34.99848    -66.6 1.189e+04 7.184e-09
 35.01822    -66.1 1.209e+04 7.874e-09
 35.03795    -65.9 1.239e+04 9.455e-09
 35.05769    -65.9 1.286e+04 1.320e-08
 35.07334    -65.7 1.354e+04 2.076e-08
 35.08321    -65.5 1.301e+04 1.469e-08
 35.09716    -65.2 1.376e+04 2.338e-08
 35.11689    -64.7 1.462e+04 3.765e-08
 35.13663    -64.2 1.547e+04 5.773e-08
 35.15636    -63.8 1.617e+04 8.085e-08
 35.17609    -63.7 1.669e+04 1.030e-07
 35.19583    -64.0 1.712e+04 1.257e-07
 35.21247    -64.3 1.735e+04 1.514e-07
 35.22234    -64.7 1.744e+04 1.464e-07
 35.23530    -65.0 1.787e+04 1.790e-07
 35.25503    -65.5 1.818e+04 2.031e-07
 35.27477    -66.3 1.825e+04 2.085e-07
 35.29450    -66.8 1.800e+04 1.875e-07
 35.31423    -66.9 1.747e+04 1.423e-07
 35.33214    -67.0 1.682e+04 1.048e-07
 35.34200    -67.2 1.654e+04 9.397e-08
 35.35160    -67.2 1.604e+04 7.822e-08
 35.36147    -68.3 1.541e+04 6.107e-08
 35.37344    -67.9 1.491e+04 5.049e-08
 35.39317    -67.6 1.450e+04 4.219e-08
 35.41291    -67.2 1.408e+04 3.482e-08
 35.43264    -67.0 1.362e+04 2.790e-08
 35.45237    -66.7 1.312e+04 2.157e-08
 35.47211    -66.4 1.258e+04 1.633e-08
 35.49073    -65.9 1.205e+04 1.270e-08
 35.50060    -66.4 1.184e+04 1.276e-08
 35.51158    -65.6 1.161e+04 1.088e-08
 35.53131    -64.7 1.138e+04 9.500e-09
 35.55105    -63.8 1.121e+04 8.621e-09
 35.57078    -62.8 1.109e+04 8.099e-09
 35.59052    -61.8 1.101e+04 7.831e-09
 35.61025    -60.8 1.101e+04 7.772e-09
 35.62987    -59.9 1.099e+04 7.843e-09
 35.63973    -60.4 1.106e+04 8.988e-09
 35.64972    -59.5 1.103e+04 9.089e-09
 35.66945    -58.6 1.102e+04 9.195e-09
 35.68919    -57.8 1.103e+04 9.265e-09
 35.70892    -57.1 1.106e+04 9.140e-09
 35.72866    -56.3 1.103e+04 8.860e-09
 35.74839    -55.6 1.094e+04 8.330e-09
 35.76812    -54.9 1.083e+04 7.691e-09
 35.77886    -54.2 1.070e+04 7.019e-09
 35.78873    -54.6 1.054e+04 6.594e-09
 35.80759    -53.7 1.041e+04 5.965e-09
 35.82733    -52.7 1.029e+04 5.346e-09
 35.84706    -51.7 1.019e+04 4.741e-09
 35.86680    -50.7 1.011e+04 4.192e-09
 35.88653    -49.7 1.004e+04 3.707e-09
 35.90627    -48.6 9.948e+03 3.306e-09
 35.91800    -47.5 9.892e+03 3.050e-09
 35.93783    -47.5 9.839e+03 2.712e-09
 35.97553    -45.2 9.846e+03 2.593e-09
 36.01500    -43.3 9.953e+03 2.638e-09
 36.05447    -41.2 1.007e+04 2.737e-09
 36.09394    -39.4 1.012e+04 2.744e-09
 36.13341    -37.6 1.015e+04 2.585e-09
 36.17287    -35.8 1.018e+04 2.481e-09
 36.19646    -34.1 1.034e+04 2.680e-09
 36.21619    -34.4 1.033e+04 2.747e-09
 36.24185    -32.8 1.044e+04 3.033e-09
 36.26148    -32.2 1.059e+04 3.437e-09
 36.28122    -31.6 1.073e+04 3.871e-09
 36.30095    -31.1 1.088e+04 4.422e-09
 36.32069    -30.5 1.103e+04 5.097e-09
 36.33539    -30.1 1.116e+04 5.823e-09
 36.34526    -30.0 1.117e+04 5.931e-09
 36.36016    -29.5 1.129e+04 6.624e-09
 36.37989    -29.0 1.140e+04 7.236e-09
 36.39962    -28.7 1.156e+04 7.897e-09
 36.41936    -28.6 1.178e+04 8.686e-09
 36.43909    -28.7 1.205e+04 9.654e-09
 36.45883    -29.2 1.231e+04 1.089e-08
 36.47452    -29.8 1.258e+04 1.281e-08
 36.48439    -30.7 1.339e+04 1.950e-08
 36.49830    -31.3 1.380e+04 2.909e-08
 36.51803    -31.4 1.393e+04 3.595e-08
 36.53712    -31.3 1.387e+04 3.777e-08
 36.54699    -30.2 1.363e+04 3.001e-08
 36.55750    -29.9 1.332e+04 2.790e-08
 36.57723    -29.7 1.287e+04 2.056e-08
 36.59697    -29.6 1.249e+04 1.406e-08
 36.61365    -29.9 1.215e+04 9.665e-09
 36.62352    -29.9 1.244e+04 9.613e-09
 36.63644    -30.4 1.194e+04 6.267e-09
 36.65617    -30.6 1.167e+04 5.432e-09
 36.68587    -30.1 1.166e+04 6.004e-09
 36.72544    -30.1 1.164e+04 6.048e-09
 36.75298    -30.5 1.176e+04 8.491e-09
 36.77272    -29.9 1.140e+04 6.591e-09
 36.80437    -29.4 1.159e+04 9.236e-09
 36.84384    -28.7 1.172e+04 1.043e-08
 36.88331    -27.7 1.136e+04 9.335e-09
 36.92278    -25.8 1.080e+04 5.638e-09
 36.96225    -23.9 1.047e+04 3.334e-09
 37.00172    -22.3 1.043e+04 2.253e-09
 37.03124    -20.9 1.044e+04 1.989e-09
 37.05098    -20.3 1.038e+04 1.409e-09
 37.08065    -18.8 1.053e+04 1.501e-09
 37.12012    -17.8 1.054e+04 2.339e-09
 37.15959    -16.2 1.069e+04 3.569e-09
 37.19906    -14.6 1.083e+04 4.327e-09
 37.23853    -13.6 1.084e+04 4.141e-09
 37.27800    -12.8 1.077e+04 3.705e-09
 37.30951    -12.1 1.080e+04 3.447e-09
 37.32924    -10.7 1.093e+04 3.565e-09
 37.34697    -10.4 1.097e+04 3.262e-09
 37.36661    -10.3 1.095e+04 3.240e-09
 37.38634     -9.7 1.103e+04 3.300e-09
 37.40608     -9.4 1.111e+04 3.229e-09
 37.42581     -9.0 1.113e+04 3.155e-09
 37.44554     -8.7 1.122e+04 3.169e-09
 37.45831     -8.6 1.146e+04 3.430e-09
 37.46818     -8.2 1.136e+04 3.432e-09
 37.48501     -8.6 1.146e+04 4.135e-09
 37.50475     -8.7 1.151e+04 5.701e-09
 37.52448     -8.5 1.163e+04 7.846e-09
 37.54422     -8.4 1.201e+04 1.068e-08
 37.56395    -10.5 1.325e+04 1.621e-08
 37.58368    -14.8 1.494e+04 3.193e-08
 37.59744    -18.3 1.565e+04 7.008e-08
 37.60731    -18.5 1.494e+04 6.132e-08
 37.62315    -18.9 1.585e+04 1.051e-07
 37.64289    -19.1 1.601e+04 1.144e-07
 37.66262    -19.8 1.466e+04 5.637e-08
 37.68236    -22.2 1.256e+04 1.799e-08
 37.70209    -24.9 1.130e+04 1.085e-08
 37.72183    -25.4 1.090e+04 9.615e-09
 37.73658    -25.1 1.085e+04 9.503e-09
 37.74644    -25.3 1.081e+04 9.661e-09
 37.75198    -25.2 1.094e+04 1.071e-08
 37.76184    -25.0 1.127e+04 1.273e-08
 37.78103    -24.9 1.143e+04 1.357e-08
 37.80076    -24.9 1.153e+04 1.422e-08
 37.82050    -24.9 1.159e+04 1.479e-08
 37.84023    -24.9 1.161e+04 1.531e-08
 37.85997    -25.1 1.160e+04 1.563e-08
 37.87571    -25.6 1.157e+04 1.611e-08
 37.88557    -25.8 1.125e+04 1.431e-08
 37.89943    -26.3 1.134e+04 1.525e-08
 37.91917    -26.9 1.155e+04 1.676e-08
 37.93890    -27.5 1.189e+04 1.966e-08
 37.95864    -28.0 1.218e+04 2.293e-08
 37.97837    -28.1 1.243e+04 2.628e-08
 37.99811    -28.0 1.253e+04 2.767e-08
 38.01484    -27.8 1.249e+04 2.745e-08
 38.02471    -27.5 1.199e+04 2.176e-08
 38.03757    -27.3 1.195e+04 2.141e-08
 38.05731    -27.1 1.178e+04 1.908e-08
 38.07704    -27.0 1.158e+04 1.670e-08
 38.10674    -27.1 1.126e+04 1.355e-08
 38.14430    -26.2 1.070e+04 9.442e-09
 38.16403    -25.7 1.043e+04 8.756e-09
 38.18578    -25.3 1.001e+04 5.763e-09
 38.22525    -25.2 9.783e+03 4.209e-09
 38.26472    -25.0 9.737e+03 3.906e-09
 38.30418    -24.8 1.001e+04 4.607e-09
 38.34365    -24.5 1.034e+04 6.629e-09
 38.38312    -23.7 1.054e+04 7.922e-09
 38.42256    -23.2 1.051e+04 7.788e-09
 38.45207    -22.7 1.015e+04 5.212e-09
 38.47173    -22.3 1.007e+04 4.468e-09
 38.50143    -22.1 9.734e+03 2.594e-09
 38.54100    -21.4 9.551e+03 1.804e-09
 38.58046    -20.3 9.523e+03 1.673e-09
 38.61993    -19.5 9.895e+03 1.758e-09
 38.65940    -18.8 1.014e+04 2.309e-09
 38.69887    -18.1 1.020e+04 2.983e-09
 38.72056    -17.3 1.024e+04 3.486e-09
 38.74029    -17.3 1.026e+04 3.378e-09
 38.77781    -16.5 1.037e+04 4.136e-09
 38.81728    -16.1 1.050e+04 4.817e-09
 38.85675    -16.1 1.058e+04 5.605e-09
 38.89621    -16.3 1.073e+04 6.955e-09
 38.93568    -16.3 1.090e+04 8.303e-09
 38.95716    -16.5 1.098e+04 8.162e-09
 38.97689    -16.5 1.141e+04 1.176e-08
 38.99882    -16.7 1.101e+04 8.136e-09
 39.01856    -17.3 1.100e+04 7.761e-09
 39.05409    -17.2 1.032e+04 3.795e-09
 39.09356    -16.4 9.870e+03 2.079e-09
 39.13303    -15.2 9.620e+03 1.489e-09
 39.17250    -13.7 9.500e+03 1.219e-09
 39.21196    -11.9 9.374e+03 1.066e-09
 39.25143    -10.1 9.325e+03 1.013e-09
 39.27709     -8.9 9.773e+03 1.157e-09
 39.29682     -9.3 9.878e+03 1.329e-09
 39.33037     -9.8 1.032e+04 3.563e-09
 39.36984     -9.5 1.145e+04 1.071e-08
 39.39934     -9.9 1.225e+04 2.004e-08
 39.41602    -10.1 1.285e+04 2.775e-08
 39.42589    -10.2 1.273e+04 2.488e-08
 39.43871     -9.9 1.312e+04 2.809e-08
 39.45845    -10.8 1.319e+04 2.517e-08
 39.47818    -11.6 1.273e+04 1.811e-08
 39.49792    -12.4 1.214e+04 1.247e-08
 39.51765    -13.0 1.149e+04 8.597e-09
 39.53739    -13.0 1.106e+04 6.468e-09
 39.55525    -12.9 1.046e+04 3.954e-09
 39.57508    -12.7 1.050e+04 3.690e-09
 39.60665    -11.5 1.017e+04 1.876e-09
 39.64612    -10.4 9.971e+03 1.439e-09
 39.68559     -8.5 9.945e+03 1.415e-09
 39.72506     -6.7 1.004e+04 1.626e-09
 39.76453     -4.8 1.011e+04 1.971e-09
 39.80399     -2.8 1.027e+04 2.158e-09
 39.83361     -1.1 1.034e+04 2.176e-09
 39.85335     -1.5 1.046e+04 2.379e-09
 39.88293      0.1 1.054e+04 2.521e-09
 39.92240      1.6 1.065e+04 2.814e-09
 39.96187      3.2 1.087e+04 3.369e-09
 40.00134      4.6 1.111e+04 4.189e-09
 40.04081      6.1 1.129e+04 4.990e-09
 40.08028      7.8 1.135e+04 5.347e-09
 40.11188      9.8 1.134e+04 4.637e-09
 40.13161      9.5 1.151e+04 5.882e-09
 40.15228     11.6 1.148e+04 4.634e-09
 40.17201     11.8 1.155e+04 5.123e-09
 40.19868     13.1 1.163e+04 4.929e-09
 40.23815     13.8 1.183e+04 6.492e-09
 40.27762     14.8 1.204e+04 8.601e-09
 40.31709     15.2 1.228e+04 8.705e-09
 40.35656     15.1 1.236e+04 8.293e-09
 40.39014     15.2 1.224e+04 7.507e-09
 40.40987     16.0 1.221e+04 7.335e-09
 40.42553     16.1 1.232e+04 7.066e-09
 40.44517     16.2 1.232e+04 7.021e-09
 40.46490     16.4 1.227e+04 7.184e-09
 40.48463     16.8 1.214e+04 7.325e-09
 40.50437     17.0 1.225e+04 8.000e-09
 40.52410     17.2 1.248e+04 8.875e-09
 40.53894     17.4 1.266e+04 1.024e-08
 40.54881     17.9 1.272e+04 1.141e-08
 40.56357     18.2 1.286e+04 1.247e-08
 40.58331     18.4 1.303e+04 1.322e-08
 40.60304     18.7 1.313e+04 1.370e-08
 40.62277     19.0 1.338e+04 1.472e-08
 40.64251     18.8 1.378e+04 1.739e-08
 40.66224     18.1 1.433e+04 2.452e-08
 40.67807     17.4 1.495e+04 4.056e-08
 40.68794     17.8 1.455e+04 3.239e-08
 40.70171     16.8 1.527e+04 4.732e-08
 40.72145     15.2 1.596e+04 7.095e-08
 40.74118     14.0 1.605e+04 8.965e-08
 40.75951     13.7 1.609e+04 5.886e-08
 40.76938     12.8 1.657e+04 9.364e-08
 40.78065     11.0 1.689e+04 4.361e-08
 40.80038      6.5 1.548e+04 2.530e-08
 40.81721      4.7 1.445e+04 2.291e-08
 40.82707      4.8 1.441e+04 2.321e-08
 40.83985      4.6 1.425e+04 2.549e-08
 40.85959      4.7 1.440e+04 2.840e-08
 40.87932      3.7 1.515e+04 3.609e-08
 40.89906      1.9 1.597e+04 6.506e-08
 40.91879      1.7 1.657e+04 1.285e-07
 40.93852      2.1 1.668e+04 1.611e-07
 40.95634      2.2 1.661e+04 1.116e-07
 40.96620      1.9 1.580e+04 6.709e-08
 40.97799      0.6 1.529e+04 4.849e-08
 40.99773     -0.2 1.438e+04 3.740e-08
 41.01746      0.0 1.387e+04 3.160e-08
 41.03720      0.7 1.338e+04 2.558e-08
 41.05693      1.6 1.302e+04 2.132e-08
 41.07666      2.5 1.264e+04 1.769e-08
 41.09547      3.4 1.245e+04 1.451e-08
 41.10534      3.3 1.262e+04 1.650e-08
 41.11613      3.9 1.243e+04 1.378e-08
 41.13587      4.8 1.207e+04 1.178e-08
 41.15560      5.7 1.182e+04 1.077e-08
 41.17534      6.6 1.192e+04 1.087e-08
 41.19507      7.3 1.196e+04 1.097e-08
 41.21481      8.5 1.189e+04 1.156e-08
 41.23454      9.3 1.200e+04 1.197e-08
 41.25427     10.2 1.182e+04 1.082e-08
 41.27401     11.0 1.191e+04 1.122e-08
 41.29374     11.7 1.195e+04 1.156e-08
 41.31348     12.7 1.192e+04 1.242e-08
 41.33321     13.7 1.206e+04 1.307e-08
 41.35295     14.4 1.215e+04 1.378e-08
 41.36694     15.2 1.219e+04 1.520e-08
 41.37680     15.5 1.178e+04 1.139e-08
 41.38360     16.2 1.194e+04 1.249e-08
 41.39347     16.0 1.202e+04 1.354e-08
 41.41215     17.0 1.215e+04 1.552e-08
 41.43188     18.2 1.233e+04 1.770e-08
 41.45162     19.3 1.250e+04 1.958e-08
 41.47135     20.5 1.260e+04 2.060e-08
 41.49109     21.7 1.276e+04 2.123e-08
 41.51082     22.8 1.293e+04 2.153e-08
 41.52273     23.5 1.325e+04 2.271e-08
 41.53260     23.5 1.390e+04 2.721e-08
 41.54531     23.7 1.441e+04 3.297e-08
 41.55512     23.4 1.479e+04 3.696e-08
 41.56499     22.0 1.575e+04 4.650e-08
 41.57486     20.4 1.674e+04 6.252e-08
 41.58473     18.7 1.766e+04 9.354e-08
 41.59220     17.3 1.821e+04 1.393e-07
 41.59713     16.6 1.855e+04 2.070e-07
 41.60446     15.7 1.874e+04 2.716e-07
 41.61433     14.9 1.899e+04 3.393e-07
 41.62420     14.0 1.912e+04 4.295e-07
 41.63406     12.9 1.935e+04 4.682e-07
 41.64393     11.1 2.007e+04 4.875e-07
 41.65380      8.5 2.109e+04 4.888e-07
 41.66177      5.3 2.222e+04 3.873e-07
 41.66670      1.5 2.185e+04 1.726e-07
 41.67055     -0.5 2.008e+04 1.880e-07
 41.67549      2.1 2.108e+04 1.261e-07
 41.68340      0.1 1.888e+04 1.754e-07
 41.69327     -0.1 1.847e+04 1.926e-07
 41.70313     -0.1 1.794e+04 2.347e-07
 41.71300     -0.0 1.777e+04 2.286e-07
 41.72785     -0.3 1.730e+04 1.844e-07
 41.74763      0.0 1.682e+04 1.311e-07
 41.76737      0.1 1.610e+04 9.582e-08
 41.78710      1.2 1.545e+04 7.654e-08
 41.80099      2.1 1.501e+04 5.542e-08
 41.81086      2.1 1.539e+04 7.824e-08
 41.82657      3.2 1.532e+04 7.572e-08
 41.84630      4.8 1.513e+04 8.001e-08
 41.86604      6.6 1.495e+04 6.097e-08
 41.88577      7.5 1.516e+04 5.591e-08
 41.90551      8.0 1.538e+04 7.494e-08
 41.92524      9.2 1.549e+04 7.905e-08
 41.94013     10.4 1.565e+04 8.036e-08
 41.94999     10.1 1.550e+04 7.879e-08
 41.96450     11.1 1.522e+04 6.768e-08
 41.97436     11.1 1.515e+04 5.470e-08
 41.98444     11.2 1.498e+04 4.656e-08
 42.00418     10.4 1.470e+04 4.057e-08
 42.02391      9.4 1.461e+04 3.884e-08
 42.04365      8.9 1.416e+04 3.841e-08
 42.06338      9.5 1.378e+04 2.689e-08
 42.07926      8.7 1.339e+04 1.845e-08
 42.08912      9.2 1.326e+04 2.009e-08
 42.10285      8.3 1.279e+04 1.324e-08
 42.12259      7.7 1.234e+04 1.054e-08
 42.14232      7.9 1.212e+04 8.480e-09
 42.17202      9.1 1.192e+04 6.655e-09
 42.21159     10.4 1.176e+04 5.085e-09
 42.25105     12.5 1.169e+04 4.569e-09
 42.29052     14.7 1.175e+04 4.370e-09
 42.32999     16.9 1.189e+04 4.606e-09
 42.35772     19.4 1.194e+04 4.991e-09
 42.37745     20.2 1.182e+04 5.197e-09
 42.40893     22.3 1.201e+04 6.022e-09
 42.44840     24.4 1.210e+04 5.662e-09
 42.48787     26.3 1.211e+04 5.000e-09
 42.52733     28.0 1.204e+04 4.054e-09
 42.56225     29.7 1.196e+04 3.404e-09
 42.58199     28.7 1.155e+04 1.909e-09
 42.60627     30.4 1.166e+04 2.554e-09
 42.63598     32.1 1.200e+04 3.916e-09
 42.65571     31.9 1.188e+04 3.630e-09
 42.68521     33.0 1.208e+04 4.596e-09
 42.72468     33.7 1.241e+04 6.159e-09
 42.76415     34.2 1.267e+04 7.924e-09
 42.78488     34.0 1.301e+04 1.018e-08
 42.79465     34.5 1.276e+04 8.398e-09
 42.81329     34.8 1.290e+04 9.176e-09
 42.83302     35.0 1.306e+04 9.718e-09
 42.85276     35.1 1.312e+04 9.936e-09
 42.88246     35.0 1.317e+04 1.040e-08
 42.91206     35.7 1.308e+04 1.017e-08
 42.92391     35.9 1.301e+04 1.015e-08
 42.93378     36.5 1.279e+04 9.152e-09
 42.95143     37.3 1.268e+04 8.798e-09
 42.97116     38.0 1.265e+04 8.346e-09
 42.99090     38.8 1.251e+04 7.652e-09
 43.01063     39.7 1.243e+04 6.998e-09
 43.03037     40.7 1.226e+04 6.308e-09
 43.05010     41.8 1.216e+04 5.529e-09
 43.06305     42.8 1.213e+04 4.847e-09
 43.07291     43.3 1.195e+04 5.042e-09
 43.08957     44.2 1.191e+04 4.484e-09
 43.10930     45.1 1.177e+04 4.039e-09
 43.12904     46.2 1.173e+04 3.891e-09
 43.14877     47.2 1.173e+04 3.925e-09
 43.16851     48.2 1.168e+04 3.975e-09
 43.17935     49.4 1.166e+04 4.075e-09
 43.18922     49.3 1.164e+04 3.983e-09
 43.20218     50.3 1.166e+04 4.154e-09
 43.21205     50.7 1.148e+04 3.737e-09
 43.22771     51.6 1.151e+04 3.873e-09
 43.24744     52.5 1.154e+04 4.057e-09
 43.26718     53.3 1.159e+04 4.331e-09
 43.28691     54.1 1.164e+04 4.662e-09
 43.30665     54.9 1.166e+04 5.049e-09
 43.32638     55.6 1.167e+04 5.489e-09
 43.34131     56.3 1.167e+04 5.969e-09
 43.35118     56.2 1.153e+04 5.533e-09
 43.36585     56.8 1.154e+04 6.045e-09
 43.38558     57.3 1.160e+04 6.609e-09
 43.40532     57.5 1.173e+04 7.273e-09
 43.42505     57.6 1.189e+04 7.986e-09
 43.44479     57.5 1.208e+04 8.753e-09
 43.46452     57.1 1.225e+04 9.471e-09
 43.48044     56.4 1.244e+04 1.055e-08
 43.49031     56.3 1.184e+04 6.521e-09
 43.50399     55.4 1.201e+04 7.543e-09
 43.52372     54.6 1.222e+04 9.744e-09
 43.54346     54.0 1.253e+04 1.338e-08
 43.56319     53.6 1.292e+04 1.842e-08
 43.58293     53.4 1.332e+04 2.387e-08
 43.60266     53.3 1.360e+04 2.779e-08
 43.61957     53.4 1.373e+04 2.914e-08
 43.62944     53.7 1.296e+04 1.885e-08
 43.64213     53.9 1.305e+04 2.008e-08
 43.66186     54.3 1.305e+04 1.982e-08
 43.68160     54.9 1.303e+04 1.887e-08
 43.70133     55.5 1.296e+04 1.692e-08
 43.72107     56.4 1.283e+04 1.446e-08
 43.74080     57.0 1.268e+04 1.189e-08
 43.75870     57.7 1.255e+04 1.017e-08
 43.76867     57.6 1.234e+04 9.506e-09
 43.77701     58.5 1.226e+04 8.525e-09
 43.78678     59.0 1.274e+04 1.046e-08
 43.80000     59.3 1.321e+04 9.967e-09
 43.81974     58.7 1.439e+04 1.057e-08
 43.83947     57.6 1.627e+04 1.319e-08
 43.85921     56.8 1.749e+04 2.340e-08
 43.87894     57.2 1.712e+04 5.050e-08
 43.89784     58.3 1.695e+04 8.739e-08
 43.90770     58.5 1.748e+04 8.847e-08
 43.91343     59.1 1.757e+04 1.023e-07
 43.92325     59.5 1.777e+04 1.542e-07
 43.93311     60.2 1.784e+04 2.208e-07
 43.94298     60.5 1.803e+04 3.143e-07
 43.95285     61.0 1.805e+04 4.540e-07
 43.96272     61.7 1.805e+04 6.152e-07
 43.97224     62.2 1.811e+04 7.854e-07
 43.97717     62.2 1.806e+04 1.514e-06
 43.98245     62.5 1.800e+04 2.019e-06
 43.99232     62.3 1.799e+04 2.614e-06
 44.00218     60.9 1.803e+04 2.945e-06
 44.01205     59.2 1.786e+04 3.356e-06
 44.02192     57.9 1.713e+04 5.895e-06
 44.03179     54.8 1.651e+04 1.126e-05
 44.04165     50.5 1.660e+04 9.783e-06
 44.04674     50.2 1.724e+04 4.297e-06
 44.05167     48.9 1.707e+04 6.973e-06
 44.06139     50.7 1.855e+04 1.182e-06
 44.07125     49.2 2.165e+04 1.773e-07
 44.08053     45.3 2.058e+04 8.675e-08
 44.08546     45.8 1.830e+04 6.459e-08
 44.09597     41.4 1.850e+04 5.745e-08
 44.11575     37.2 1.680e+04 4.913e-08
 44.13549     35.2 1.560e+04 4.108e-08
 44.15522     34.4 1.462e+04 2.941e-08
 44.17496     33.6 1.396e+04 1.844e-08
 44.18597     32.2 1.327e+04 1.205e-08
 44.19583     34.0 1.291e+04 9.634e-09
 44.21443     33.5 1.245e+04 8.384e-09
 44.23416     33.3 1.252e+04 9.004e-09
 44.25389     33.1 1.276e+04 1.173e-08
 44.27363     33.3 1.306e+04 1.784e-08
 44.29336     33.8 1.352e+04 2.738e-08
 44.31310     34.5 1.391e+04 3.701e-08
 44.32510     35.3 1.402e+04 4.036e-08
 44.33497     36.2 1.434e+04 4.618e-08
 44.35257     36.7 1.434e+04 4.469e-08
 44.37230     37.1 1.409e+04 3.683e-08
 44.38434     37.0 1.374e+04 2.743e-08
 44.39420     37.7 1.373e+04 2.760e-08
 44.41177     37.2 1.338e+04 2.046e-08
 44.43150     36.5 1.310e+04 1.664e-08
 44.45124     36.2 1.304e+04 1.619e-08
 44.46423     36.0 1.314e+04 1.714e-08
 44.47410     36.3 1.363e+04 2.325e-08
 44.49071     36.0 1.384e+04 2.625e-08
 44.51044     35.9 1.400e+04 2.914e-08
 44.53018     35.8 1.412e+04 3.080e-08
 44.54991     35.5 1.426e+04 2.994e-08
 44.56964     35.0 1.426e+04 2.585e-08
 44.58938     34.5 1.401e+04 2.091e-08
 44.60336     33.9 1.367e+04 1.715e-08
 44.61323     33.2 1.406e+04 2.395e-08
 44.62885     32.4 1.386e+04 2.277e-08
 44.64858     31.9 1.387e+04 2.420e-08
 44.66832     31.6 1.397e+04 2.616e-08
 44.68805     31.6 1.402e+04 2.570e-08
 44.70778     31.6 1.398e+04 2.075e-08
 44.72752     31.4 1.371e+04 1.483e-08
 44.74249     30.6 1.340e+04 1.025e-08
 44.75236     29.0 1.331e+04 8.153e-09
 44.77695     29.2 1.282e+04 5.665e-09
 44.81652     27.9 1.228e+04 3.499e-09
 44.85599     27.0 1.199e+04 3.075e-09
 44.88182     26.3 1.193e+04 3.100e-09
 44.90155     24.5 1.191e+04 3.104e-09
 44.93493     24.7 1.174e+04 2.488e-09
 44.97222     25.3 1.181e+04 1.183e-09
 44.99196     26.1 1.168e+04 1.646e-09
 45.01386     26.0 1.174e+04 9.600e-10
 45.05333     25.9 1.162e+04 6.432e-10
 45.09280     26.4 1.128e+04 5.135e-10
 45.13227     27.6 1.108e+04 4.522e-10
 45.16008     29.0 1.100e+04 4.216e-10
 45.17982     29.4 1.101e+04 4.134e-10
 45.21121     31.0 1.087e+04 4.110e-10
 45.25067     32.6 1.080e+04 4.231e-10
 45.29014     34.4 1.067e+04 4.776e-10
 45.32961     36.5 1.045e+04 5.443e-10
 45.36908     38.5 1.043e+04 5.500e-10
 45.40855     40.6 1.046e+04 5.358e-10
 45.43835     42.6 1.047e+04 4.991e-10
 45.45808     42.9 1.051e+04 5.884e-10
 45.48749     44.8 1.051e+04 5.094e-10
 45.52696     46.5 1.051e+04 4.531e-10
 45.56642     48.3 1.055e+04 4.433e-10
 45.60589     50.0 1.058e+04 4.689e-10
 45.64536     51.4 1.061e+04 5.806e-10
 45.68483     53.0 1.060e+04 8.111e-10
 45.71661     54.5 1.061e+04 1.099e-09
 45.73634     54.8 1.063e+04 8.302e-10
 45.76377     56.1 1.061e+04 1.081e-09
 45.80324     57.3 1.059e+04 1.339e-09
 45.84271     58.3 1.060e+04 1.576e-09
 45.88217     59.0 1.061e+04 1.774e-09
 45.92164     59.6 1.063e+04 1.963e-09
 45.96111     60.0 1.079e+04 2.257e-09
 45.99487     60.1 1.105e+04 2.658e-09
 46.01461     59.8 1.116e+04 2.767e-09
 46.03008     59.8 1.116e+04 3.051e-09
 46.04972     59.7 1.126e+04 3.555e-09
 46.06946     59.4 1.145e+04 4.101e-09
 46.08919     58.8 1.169e+04 4.461e-09
 46.10892     58.0 1.191e+04 4.662e-09
 46.12866     56.9 1.206e+04 4.684e-09
 46.14368     55.8 1.208e+04 4.611e-09
 46.15354     55.4 1.213e+04 4.454e-09
 46.16813     54.4 1.214e+04 4.093e-09
 46.18688     53.6 1.218e+04 3.679e-09
 46.19675     54.6 1.210e+04 4.132e-09
 46.20760     53.9 1.209e+04 3.711e-09
 46.22733     53.2 1.199e+04 3.369e-09
 46.24706     52.5 1.177e+04 3.169e-09
 46.26680     52.0 1.160e+04 3.190e-09
 46.28281     51.5 1.157e+04 3.311e-09
 46.29268     51.0 1.154e+04 3.672e-09
 46.30627     50.5 1.169e+04 3.878e-09
 46.32600     50.2 1.193e+04 4.039e-09
 46.34574     49.8 1.196e+04 4.016e-09
 46.36547     49.8 1.189e+04 3.771e-09
 46.38520     49.8 1.171e+04 3.210e-09
 46.40494     49.7 1.163e+04 2.535e-09
 46.42194     49.1 1.180e+04 2.012e-09
 46.43181     47.4 1.204e+04 2.887e-09
 46.44441     45.6 1.231e+04 4.040e-09
 46.46414     44.0 1.257e+04 7.464e-09
 46.48388     43.2 1.282e+04 1.376e-08
 46.50361     42.7 1.313e+04 2.060e-08
 46.52335     42.2 1.338e+04 2.329e-08
 46.54308     41.4 1.349e+04 2.410e-08
 46.56107     40.3 1.344e+04 2.073e-08
 46.57094     38.0 1.306e+04 1.137e-08
 46.58255     35.7 1.257e+04 8.394e-09
 46.60228     33.6 1.203e+04 7.819e-09
 46.62202     32.0 1.191e+04 7.965e-09
 46.64175     31.0 1.190e+04 7.962e-09
 46.67145     29.3 1.170e+04 7.865e-09
 46.71102     29.0 1.121e+04 5.083e-09
 46.75049     28.6 1.105e+04 4.021e-09
 46.78995     29.0 1.107e+04 4.388e-09
 46.82942     30.0 1.120e+04 5.060e-09
 46.84940     31.1 1.119e+04 5.422e-09
 46.86913     29.5 1.111e+04 3.856e-09
 46.90836     30.2 1.118e+04 2.718e-09
 46.94783     31.0 1.138e+04 2.472e-09
 46.98730     31.0 1.160e+04 2.357e-09
 47.02677     30.0 1.165e+04 2.617e-09
 47.06624     28.6 1.156e+04 4.517e-09
 47.10570     27.6 1.156e+04 7.943e-09
 47.12756     26.9 1.184e+04 1.027e-08
 47.13733     27.3 1.176e+04 9.504e-09
 47.15484     27.0 1.173e+04 1.004e-08
 47.17458     26.4 1.181e+04 1.069e-08
 47.19431     24.7 1.217e+04 1.292e-08
 47.21405     22.9 1.261e+04 1.913e-08
 47.23378     22.2 1.276e+04 2.548e-08
 47.25352     21.8 1.277e+04 2.651e-08
 47.26660     20.6 1.320e+04 2.586e-08
 47.27646     20.5 1.325e+04 2.524e-08
 47.29298      8.6 1.910e+04 6.351e-08
 47.30774      2.2 1.864e+04 2.252e-07
 47.31756      1.5 1.762e+04 4.135e-07
 47.32742      4.2 1.714e+04 5.418e-07
 47.33607      6.4 1.765e+04 4.863e-07
 47.34100      5.1 1.809e+04 4.156e-07
 47.35214      4.0 1.887e+04 1.639e-07
 47.37192     -5.5 1.554e+04 3.504e-08
 47.39166    -11.0 1.084e+04 1.635e-08
 47.40174    -11.3 1.010e+04 1.181e-08
 47.40594    -10.7 1.027e+04 1.225e-08
 47.41560    -11.8 9.673e+03 9.579e-09
 47.43113    -11.9 8.890e+03 6.135e-09
 47.46082    -12.2 8.193e+03 3.460e-09
 47.50039    -12.1 7.018e+03 1.333e-09
 47.53986    -11.7 6.664e+03 1.088e-09
 47.57933    -10.4 6.721e+03 1.095e-09
 47.61880    -10.0 7.133e+03 1.561e-09
 47.65827    -10.4 7.941e+03 2.735e-09
 47.68419    -12.1 9.147e+03 6.376e-09
 47.70392    -14.0 9.875e+03 7.565e-09
 47.72724    -13.9 1.123e+04 1.906e-08
 47.74687    -14.6 1.194e+04 2.612e-08
 47.76661    -14.1 1.247e+04 3.276e-08
 47.78634    -14.6 1.229e+04 3.190e-08
 47.80608    -14.7 1.150e+04 2.402e-08
 47.82312    -15.0 1.059e+04 1.629e-08
 47.83299    -15.2 1.033e+04 1.400e-08
 47.84555    -15.8 9.544e+03 9.154e-09
 47.86528    -16.1 8.966e+03 6.385e-09
 47.88502    -16.4 8.504e+03 4.889e-09
 47.90475    -16.2 8.296e+03 4.385e-09
 47.93445    -15.2 8.329e+03 4.532e-09
 47.96245    -13.3 7.912e+03 3.509e-09
 47.98219    -13.4 7.968e+03 3.626e-09
 48.01348    -11.6 7.962e+03 3.483e-09
 48.05295     -9.8 8.005e+03 3.454e-09
 48.09242     -8.6 8.371e+03 3.897e-09
 48.13189     -7.6 8.977e+03 5.627e-09
 48.16139     -6.6 9.913e+03 8.926e-09
 48.18103     -6.2 1.027e+04 1.038e-08
 48.20076     -5.8 1.070e+04 1.281e-08
 48.22050     -6.2 1.122e+04 1.573e-08
 48.24023     -7.8 1.214e+04 2.297e-08
 48.25039     -9.3 1.259e+04 3.525e-08
 48.26025     -8.8 1.180e+04 2.012e-08
 48.27970     -8.4 1.249e+04 3.240e-08
 48.29944     -7.0 1.295e+04 3.996e-08
 48.31917     -6.9 1.312e+04 3.765e-08
 48.33891     -7.7 1.302e+04 2.596e-08
 48.35864     -9.6 1.233e+04 2.057e-08
 48.37837    -10.4 1.169e+04 1.762e-08
 48.38952    -10.7 1.112e+04 1.529e-08
 48.39939     -9.8 1.165e+04 1.974e-08
 48.41784     -9.5 1.136e+04 1.587e-08
 48.44754    -10.0 1.074e+04 1.069e-08
 48.48711     -9.8 1.031e+04 6.282e-09
 48.51898    -10.4 1.039e+04 5.364e-09
 48.53871    -10.2 1.043e+04 6.909e-09
 48.55608    -10.8 1.083e+04 8.362e-09
 48.57572    -11.5 1.121e+04 1.132e-08
 48.59545    -11.6 1.173e+04 1.513e-08
 48.60672    -11.5 1.209e+04 1.741e-08
 48.61659    -11.0 1.198e+04 1.504e-08
 48.63492    -11.5 1.191e+04 1.285e-08
 48.65465    -12.2 1.129e+04 1.137e-08
 48.66778    -12.7 1.080e+04 1.061e-08
 48.67765    -12.2 1.103e+04 1.172e-08
 48.69412    -12.3 1.087e+04 1.091e-08
 48.72382    -12.3 1.099e+04 1.023e-08
 48.76339    -11.7 1.125e+04 1.021e-08
 48.79724    -11.0 1.157e+04 1.088e-08
 48.81688    -11.8 1.188e+04 2.146e-08
 48.83226    -11.4 1.219e+04 2.160e-08
 48.85200    -11.4 1.244e+04 2.149e-08
 48.87173    -11.5 1.258e+04 2.155e-08
 48.89147    -11.6 1.247e+04 2.039e-08
 48.91120    -11.5 1.213e+04 1.869e-08
 48.93094    -11.1 1.180e+04 1.616e-08
 48.94604    -10.6 1.176e+04 1.319e-08
 48.95591    -10.7 1.215e+04 1.670e-08
 48.97040    -11.3 1.217e+04 1.327e-08
 48.99014    -12.0 1.221e+04 1.179e-08
 49.00987    -12.5 1.229e+04 1.170e-08
 49.02961    -13.2 1.250e+04 1.296e-08
 49.04934    -13.7 1.264e+04 1.581e-08
 49.06908    -13.7 1.289e+04 1.860e-08
 49.08518    -13.5 1.303e+04 1.929e-08
 49.09504    -13.8 1.295e+04 1.675e-08
 49.10854    -13.7 1.296e+04 1.459e-08
 49.12828    -13.9 1.308e+04 1.143e-08
 49.14801    -14.7 1.281e+04 9.607e-09
 49.16775    -15.2 1.271e+04 8.536e-09
 49.18748    -16.1 1.284e+04 7.697e-09
 49.20428    -18.4 1.387e+04 1.031e-08
 49.21415    -18.1 1.309e+04 6.518e-09
 49.22431    -20.6 1.359e+04 1.091e-08
 49.23418    -21.3 1.310e+04 1.713e-08
 49.24669    -21.4 1.328e+04 2.806e-08
 49.26642    -20.4 1.371e+04 3.431e-08
 49.28615    -20.2 1.370e+04 3.015e-08
 49.30589    -21.2 1.328e+04 1.944e-08
 49.32562    -22.7 1.270e+04 1.561e-08
 49.34536    -23.4 1.252e+04 1.505e-08
 49.36344    -24.2 1.285e+04 1.883e-08
 49.37331    -24.9 1.271e+04 1.301e-08
 49.38483    -25.3 1.290e+04 2.002e-08
 49.40456    -25.1 1.327e+04 3.004e-08
 49.42429    -24.3 1.358e+04 3.828e-08
 49.44403    -23.8 1.361e+04 3.990e-08
 49.46376    -23.3 1.314e+04 3.148e-08
 49.48350    -23.1 1.246e+04 2.011e-08
 49.50257    -23.1 1.188e+04 1.282e-08
 49.51244    -23.0 1.164e+04 1.099e-08
 49.52297    -22.7 1.121e+04 7.891e-09
 49.54270    -21.9 1.091e+04 5.996e-09
 49.56243    -21.0 1.072e+04 4.871e-09
 49.58217    -20.0 1.059e+04 4.254e-09
 49.60190    -19.1 1.035e+04 3.891e-09
 49.63160    -17.5 1.022e+04 3.809e-09
 49.65177    -14.4 1.006e+04 3.182e-09
 49.67150    -14.0 9.984e+03 2.322e-09
 49.71064    -11.1 9.996e+03 2.267e-09
 49.75011     -8.4 1.003e+04 2.527e-09
 49.78958     -5.8 1.014e+04 3.229e-09
 49.81191     -4.1 1.093e+04 5.552e-09
 49.83164     -3.6 1.113e+04 6.698e-09
 49.85855     -4.6 1.204e+04 1.164e-08
 49.87818     -6.9 1.342e+04 2.666e-08
 49.89792     -7.3 1.393e+04 5.838e-08
 49.91765     -4.4 1.424e+04 8.594e-08
 49.92983     -2.8 1.436e+04 5.773e-08
 49.93970     -2.2 1.481e+04 7.029e-08
 49.95712     -3.4 1.450e+04 2.378e-08
 49.97686     -8.8 1.224e+04 1.069e-08
 49.99659    -10.8 1.118e+04 7.410e-09
 50.01632    -11.5 1.116e+04 6.211e-09
 50.03606    -12.7 1.118e+04 5.852e-09
 50.05579    -14.1 1.123e+04 6.007e-09
 50.06897    -15.5 1.131e+04 7.745e-09
 50.07883    -15.4 1.119e+04 6.148e-09
 50.09526    -16.7 1.138e+04 8.229e-09
 50.11500    -17.7 1.152e+04 1.102e-08
 50.13473    -18.2 1.178e+04 1.355e-08
 50.15447    -18.8 1.203e+04 1.417e-08
 50.18416    -20.7 1.146e+04 1.103e-08
 50.20829    -22.5 1.082e+04 5.202e-09
 50.22803    -23.2 1.082e+04 5.077e-09
 50.26320    -25.7 1.024e+04 2.106e-09
 50.30267    -27.7 1.017e+04 1.749e-09
 50.34214    -29.6 1.040e+04 2.392e-09
 50.38161    -30.8 1.065e+04 4.270e-09
 50.42107    -31.7 1.081e+04 4.967e-09
 50.46054    -33.0 1.077e+04 4.069e-09
 50.48656    -34.4 1.075e+04 3.108e-09
 50.50629    -35.0 1.082e+04 3.153e-09
 50.53948    -36.1 1.091e+04 2.998e-09
 50.57895    -37.3 1.095e+04 3.017e-09
 50.61842    -38.3 1.090e+04 3.232e-09
 50.65789    -39.2 1.082e+04 3.998e-09
 50.69736    -39.8 1.088e+04 5.244e-09
 50.73682    -40.2 1.112e+04 6.742e-09
 50.76482    -40.8 1.136e+04 7.825e-09
 50.78455    -42.1 1.104e+04 5.060e-09
 50.81576    -43.4 1.114e+04 6.037e-09
 50.85523    -44.2 1.136e+04 8.247e-09
 50.89470    -44.7 1.153e+04 9.805e-09
 50.93417    -45.2 1.154e+04 9.892e-09
 50.97364    -45.6 1.126e+04 8.048e-09
 51.00703    -45.9 1.097e+04 6.371e-09
 51.02676    -44.1 1.147e+04 9.281e-09
 51.04261    -45.4 1.084e+04 5.569e-09
 51.05275    -45.6 1.075e+04 5.237e-09
 51.06262    -46.7 1.045e+04 3.794e-09
 51.08198    -46.8 1.044e+04 3.686e-09
 51.10171    -47.1 1.047e+04 3.785e-09
 51.12145    -47.5 1.059e+04 4.525e-09
 51.14118    -47.7 1.075e+04 5.667e-09
 51.16092    -48.1 1.099e+04 7.190e-09
 51.18065    -48.6 1.127e+04 9.262e-09
 51.19189    -49.3 1.159e+04 1.173e-08
 51.20175    -49.6 1.160e+04 1.180e-08
 51.22012    -50.4 1.195e+04 1.473e-08
 51.23985    -51.2 1.222e+04 1.694e-08
 51.25959    -52.3 1.237e+04 1.802e-08
 51.27932    -53.6 1.252e+04 1.856e-08
 51.29906    -55.4 1.279e+04 1.909e-08
 51.31879    -57.8 1.346e+04 2.245e-08
 51.33102    -60.4 1.434e+04 3.113e-08
 51.34088    -58.6 1.339e+04 2.344e-08
 51.35826    -60.5 1.410e+04 3.025e-08
 51.37800    -62.3 1.457e+04 3.645e-08
 51.39773    -63.9 1.467e+04 3.837e-08
 51.41746    -65.0 1.438e+04 3.761e-08
 51.43720    -65.7 1.370e+04 2.789e-08
 51.45693    -66.2 1.302e+04 1.976e-08
 51.47015    -66.6 1.247e+04 1.317e-08
 51.48002    -65.5 1.306e+04 2.018e-08
 51.49640    -65.7 1.254e+04 1.418e-08
 51.51614    -65.8 1.214e+04 1.023e-08
 51.53587    -65.9 1.183e+04 8.129e-09
 51.55560    -65.8 1.163e+04 7.187e-09
 51.57534    -65.2 1.155e+04 6.770e-09
 51.59507    -64.7 1.151e+04 6.363e-09
 51.60928    -64.1 1.145e+04 5.733e-09
 51.61860    -63.8 1.174e+04 7.222e-09
 51.62412    -64.0 1.186e+04 9.444e-09
 51.63454    -63.4 1.180e+04 8.194e-09
 51.65428    -62.7 1.166e+04 6.743e-09
 51.67401    -61.9 1.147e+04 5.408e-09
 51.69374    -61.1 1.125e+04 4.356e-09
 51.71348    -60.1 1.109e+04 3.578e-09
 51.73321    -58.9 1.101e+04 3.020e-09
 51.74841    -57.7 1.095e+04 2.667e-09
 51.75828    -57.5 1.094e+04 3.475e-09
 51.77268    -56.4 1.090e+04 2.940e-09
 51.80238    -55.1 1.085e+04 2.554e-09
 51.84195    -52.5 1.062e+04 2.273e-09
 51.87787    -49.9 1.039e+04 2.083e-09
 51.89761    -49.3 1.054e+04 2.856e-09
 51.92089    -46.6 1.026e+04 2.381e-09
 51.96035    -44.0 1.010e+04 1.981e-09
 51.99982    -41.4 1.006e+04 1.657e-09
 52.03929    -39.1 1.012e+04 1.503e-09
 52.07876    -36.9 1.023e+04 1.502e-09
 52.11823    -35.3 1.043e+04 1.988e-09
 52.15614    -33.5 1.056e+04 2.884e-09
 52.17587    -32.7 1.050e+04 2.027e-09
 52.19717    -30.9 1.062e+04 3.135e-09
 52.22188    -29.0 1.077e+04 3.666e-09
 52.24161    -29.2 1.067e+04 3.417e-09
 52.27610    -27.5 1.066e+04 2.490e-09
 52.31557    -25.9 1.084e+04 1.369e-09
 52.35504    -24.5 1.100e+04 7.680e-10
 52.39451    -23.0 1.087e+04 5.594e-10
 52.43398    -21.1 1.076e+04 4.773e-10
 52.45413    -19.1 1.076e+04 4.246e-10
 52.47387    -18.3 1.084e+04 3.749e-10
 52.51292    -16.2 1.080e+04 3.650e-10
 52.55238    -14.2 1.074e+04 4.064e-10
 52.59185    -12.1 1.061e+04 4.741e-10
 52.63132     -9.8 1.050e+04 5.074e-10
 52.67079     -7.3 1.029e+04 4.852e-10
 52.71026     -4.9 1.042e+04 3.747e-10
 52.73240     -2.8 1.087e+04 2.538e-10
 52.75213     -1.8 1.012e+04 5.714e-10
 52.78920      0.1 1.052e+04 3.862e-10
 52.82867      1.7 1.083e+04 3.530e-10
 52.86813      2.0 1.084e+04 5.714e-10
 52.90760      4.1 1.029e+04 1.565e-09
 52.94707      6.9 1.045e+04 2.865e-09
 52.98654      8.6 1.095e+04 2.978e-09
 53.01066      9.9 1.112e+04 2.676e-09
 53.03039     10.3 1.083e+04 3.462e-09
 53.06548     12.1 1.090e+04 2.899e-09
 53.10495     14.0 1.093e+04 2.048e-09
 53.14441     15.8 1.099e+04 1.328e-09
 53.18388     17.2 1.100e+04 9.619e-10
 53.22335     19.1 1.075e+04 9.287e-10
 53.26282     21.0 1.068e+04 1.018e-09
 53.28892     23.0 1.055e+04 1.319e-09
 53.30866     23.3 1.059e+04 1.359e-09
 53.34176     25.4 1.053e+04 1.675e-09
 53.38123     27.5 1.051e+04 1.925e-09
 53.41700     29.5 1.051e+04 2.079e-09
 53.43673     29.0 1.036e+04 1.114e-09
 53.46016     30.7 1.031e+04 1.341e-09
 53.49963     32.4 1.035e+04 1.717e-09
 53.53910     34.0 1.046e+04 2.145e-09
 53.56719     35.5 1.057e+04 2.516e-09
 53.58692     35.9 1.068e+04 1.841e-09
 53.61804     37.1 1.080e+04 2.222e-09
 53.65751     38.2 1.093e+04 3.319e-09
 53.69698     40.0 1.124e+04 5.708e-09
 53.72648     41.0 1.153e+04 7.412e-09
 53.74612     41.7 1.174e+04 8.525e-09
 53.76585     42.3 1.196e+04 9.234e-09
 53.78559     42.8 1.212e+04 9.311e-09
 53.80532     43.2 1.210e+04 9.182e-09
 53.82505     43.7 1.199e+04 8.784e-09
 53.84479     44.2 1.191e+04 8.390e-09
 53.85512     44.6 1.192e+04 8.381e-09
 53.86499     44.9 1.201e+04 7.286e-09
 53.88426     44.9 1.207e+04 7.463e-09
 53.90399     45.0 1.220e+04 8.249e-09
 53.92373     45.0 1.229e+04 9.452e-09
 53.94346     45.4 1.233e+04 9.848e-09
 53.96319     45.5 1.251e+04 9.577e-09
 53.98293     45.1 1.279e+04 9.884e-09
 53.99425     42.5 1.416e+04 1.288e-08
 54.00412     41.3 1.491e+04 1.481e-08
 54.02240     37.2 1.601e+04 3.676e-08
 54.03410     35.0 1.590e+04 6.777e-08
 54.04396     34.3 1.556e+04 7.931e-08
 54.06187     34.4 1.504e+04 5.724e-08
 54.08160     32.8 1.500e+04 2.553e-08
 54.10134     27.9 1.424e+04 1.366e-08
 54.12107     25.1 1.300e+04 1.313e-08
 54.13338     24.5 1.283e+04 1.472e-08
 54.14325     24.5 1.296e+04 1.353e-08
 54.16054     24.1 1.313e+04 1.816e-08
 54.18027     24.2 1.346e+04 2.601e-08
 54.20001     24.6 1.351e+04 2.667e-08
 54.21974     24.9 1.345e+04 2.411e-08
 54.23948     25.7 1.305e+04 1.745e-08
 54.25921     25.6 1.274e+04 1.311e-08
 54.28891     27.7 1.232e+04 8.806e-09
 54.32848     28.8 1.173e+04 3.309e-09
 54.36794     30.4 1.142e+04 2.367e-09
 54.40198     33.2 1.137e+04 2.426e-09
 54.42171     33.1 1.169e+04 2.514e-09
 54.44688     35.8 1.175e+04 2.714e-09
 54.48635     38.6 1.182e+04 3.415e-09
 54.52582     41.3 1.195e+04 4.767e-09
 54.56529     43.9 1.218e+04 6.438e-09
 54.60476     46.2 1.248e+04 7.720e-09
 54.63185     48.3 1.270e+04 8.510e-09
 54.65159     47.7 1.264e+04 8.511e-09
 54.68024     49.8 1.270e+04 8.020e-09
 54.69997     50.0 1.273e+04 8.349e-09
 54.72316     52.0 1.297e+04 9.983e-09
 54.76263     54.0 1.321e+04 1.163e-08
 54.80210     55.6 1.327e+04 1.115e-08
 54.84157     57.2 1.332e+04 9.315e-09
 54.88104     58.6 1.334e+04 6.464e-09
 54.91054     59.5 1.335e+04 6.031e-09
 54.93018     60.4 1.337e+04 5.435e-09
 54.94991     61.1 1.341e+04 4.715e-09
 54.96817     61.9 1.342e+04 4.170e-09
 54.97804     62.2 1.336e+04 5.757e-09
 54.98938     63.2 1.334e+04 5.586e-09
 55.00912     64.3 1.339e+04 5.667e-09
 55.02885     65.1 1.356e+04 6.137e-09
 55.04858     65.7 1.373e+04 7.468e-09
 55.06832     66.2 1.394e+04 1.003e-08
 55.08805     66.6 1.419e+04 1.407e-08
 55.10731     67.0 1.444e+04 1.910e-08
 55.11717     67.3 1.450e+04 2.938e-08
 55.12752     67.7 1.479e+04 3.665e-08
 55.14726     67.9 1.516e+04 3.662e-08
 55.16699     68.0 1.513e+04 3.374e-08
 55.18672     67.9 1.505e+04 2.665e-08
 55.20646     67.6 1.487e+04 1.882e-08
 55.22619     66.9 1.457e+04 1.283e-08
 55.23908     66.1 1.411e+04 9.582e-09
 55.24895     65.2 1.368e+04 8.015e-09
 55.25630     65.1 1.342e+04 7.405e-09
 55.26617     65.0 1.334e+04 8.335e-09
 55.28540     65.0 1.321e+04 8.225e-09
 55.31510     65.8 1.310e+04 7.738e-09
 55.34470     66.2 1.290e+04 6.106e-09
 55.36433     66.2 1.279e+04 5.212e-09
 55.38407     66.4 1.273e+04 4.312e-09
 55.39544     66.6 1.274e+04 3.624e-09
 55.40530     66.7 1.267e+04 3.475e-09
 55.42354     67.0 1.263e+04 2.915e-09
 55.44327     67.4 1.243e+04 2.715e-09
 55.46301     68.1 1.231e+04 2.723e-09
 55.48274     69.0 1.226e+04 2.787e-09
 55.50247     69.6 1.222e+04 3.086e-09
 55.52221     69.1 1.264e+04 3.937e-09
 55.53457     67.9 1.342e+04 8.208e-09
 55.54444     68.8 1.281e+04 7.000e-09
 55.56168     68.4 1.342e+04 1.435e-08
 55.58141     68.2 1.392e+04 2.547e-08
 55.60115     68.0 1.411e+04 3.180e-08
 55.62088     67.8 1.403e+04 3.068e-08
 55.64061     67.7 1.358e+04 2.289e-08
 55.66035     67.4 1.292e+04 1.373e-08
 55.67370     66.7 1.232e+04 8.062e-09
 55.68357     67.1 1.220e+04 7.321e-09
 55.69982     66.8 1.180e+04 5.430e-09
 55.71955     66.8 1.161e+04 4.406e-09
 55.73929     66.8 1.148e+04 3.837e-09
 55.75902     66.9 1.134e+04 3.784e-09
 55.77876     67.0 1.127e+04 3.989e-09
 55.79849     67.0 1.121e+04 4.735e-09
 55.81283     67.1 1.123e+04 6.050e-09
 55.82270     67.6 1.105e+04 4.795e-09
 55.83664     67.7 1.106e+04 6.093e-09
 55.84651     67.0 1.090e+04 5.717e-09
 55.86766     67.4 1.092e+04 6.669e-09
 55.90722     67.8 1.085e+04 7.436e-09
 55.93673     68.0 1.081e+04 7.428e-09
 55.95196     68.0 1.068e+04 7.025e-09
 55.96183     68.0 1.078e+04 7.363e-09
 55.97610     68.2 1.056e+04 6.470e-09
 55.99583     68.3 1.037e+04 5.551e-09
 56.01557     68.4 1.021e+04 4.774e-09
 56.03530     68.5 1.010e+04 4.211e-09
 56.06500     69.0 1.011e+04 4.316e-09
 56.09129     69.3 1.033e+04 5.435e-09
 56.11102     68.8 1.009e+04 4.549e-09
 56.14404     68.8 1.043e+04 6.240e-09
 56.18350     68.8 1.072e+04 8.590e-09
 56.22297     69.0 1.085e+04 1.014e-08
 56.26244     69.3 1.086e+04 1.050e-08
 56.30191     69.9 1.073e+04 1.013e-08
 56.34138     70.7 1.060e+04 9.705e-09
 56.36955     71.6 1.040e+04 8.660e-09
 56.38929     72.5 1.029e+04 8.652e-09
 56.42032     73.7 1.009e+04 7.543e-09
 56.45979     75.2 9.788e+03 5.763e-09
 56.49925     76.4 9.444e+03 4.003e-09
 56.53872     77.6 9.109e+03 3.026e-09
 56.57819     79.2 9.041e+03 2.990e-09
 56.61766     81.1 9.086e+03 3.199e-09
 56.64716     82.4 9.122e+03 3.405e-09
 56.65749     83.4 9.217e+03 3.818e-09
 56.66745     84.6 9.024e+03 2.947e-09
 56.68663     85.4 9.239e+03 3.800e-09
 56.70627     86.3 9.482e+03 4.947e-09
 56.72600     87.3 9.751e+03 6.222e-09
 56.74574     88.4 9.988e+03 7.380e-09
 56.76547     89.6 1.017e+04 8.178e-09
 56.78521     89.7 1.042e+04 8.899e-09
 56.79662     88.7 1.166e+04 1.208e-08
 56.80649     91.2 1.101e+04 1.096e-08
 56.82468     87.8 1.374e+04 2.198e-08
 56.84441     81.8 1.667e+04 7.912e-08
 56.86414     77.4 1.795e+04 1.690e-07
 56.88388     72.0 1.939e+04 1.722e-07
 56.90361     62.9 2.196e+04 7.998e-08
 56.92335     48.5 2.242e+04 1.610e-08
 56.93575     35.1 1.306e+04 7.463e-09
 56.94562     41.4 1.853e+04 7.394e-09
 56.96282     33.7 1.105e+04 6.117e-09
 56.98255     33.2 1.106e+04 5.859e-09
 57.00228     33.1 1.110e+04 5.683e-09
 57.02202     32.9 1.109e+04 5.515e-09
 57.04163     33.0 1.095e+04 5.152e-09
 57.05150     32.4 1.104e+04 5.580e-09
 57.06149     32.8 1.088e+04 4.921e-09
 57.07488     33.2 1.073e+04 4.079e-09
 57.08475     33.8 1.077e+04 4.507e-09
 57.10096     34.3 1.064e+04 3.592e-09
 57.12069     34.5 1.057e+04 2.782e-09
 57.14043     34.4 1.047e+04 2.265e-09
 57.16016     34.4 1.044e+04 2.239e-09
 57.17989     34.3 1.048e+04 2.399e-09
 57.19963     33.9 1.058e+04 2.874e-09
 57.21402     32.7 1.122e+04 4.309e-09
 57.22388     33.6 1.115e+04 4.195e-09
 57.23910     29.5 1.261e+04 1.158e-08
 57.25883     27.5 1.414e+04 3.918e-08
 57.27857     27.3 1.426e+04 4.734e-08
 57.29332     24.1 1.632e+04 4.388e-08
 57.30314     22.1 1.659e+04 4.094e-08
 57.31300     16.5 1.795e+04 5.482e-08
 57.32287     12.5 1.699e+04 6.309e-08
 57.33772     11.2 1.543e+04 8.541e-08
 57.35315     10.2 1.517e+04 7.787e-08
 57.36301     10.5 1.518e+04 7.890e-08
 57.37724      9.5 1.481e+04 4.773e-08
 57.39697      4.8 1.526e+04 2.007e-08
 57.41671     -3.3 1.380e+04 1.209e-08
 57.43644     -7.2 1.199e+04 1.409e-08
 57.45617     -7.9 1.221e+04 1.626e-08
 57.47591     -8.7 1.215e+04 1.546e-08
 57.49228     -9.6 1.159e+04 1.023e-08
 57.50215     -9.6 1.140e+04 9.568e-09
 57.51538    -10.8 1.092e+04 6.154e-09
 57.53511    -12.1 1.046e+04 4.333e-09
 57.55485    -12.9 1.027e+04 3.886e-09
 57.57458    -13.4 1.018e+04 3.789e-09
 57.59432    -13.4 1.027e+04 4.267e-09
 57.61405    -13.6 1.035e+04 4.602e-09
 57.64375    -13.4 1.079e+04 7.201e-09
 57.68332    -12.9 1.126e+04 1.038e-08
 57.72278    -13.2 1.126e+04 1.063e-08
 57.76087    -13.2 1.073e+04 7.067e-09
 57.78060    -13.3 1.076e+04 7.251e-09
 57.80172    -13.7 1.028e+04 4.591e-09
 57.84119    -13.9 9.981e+03 3.397e-09
 57.88066    -13.8 9.840e+03 2.923e-09
 57.92013    -13.8 9.766e+03 2.666e-09
 57.95960    -13.9 9.736e+03 2.570e-09
 57.99906    -14.1 9.795e+03 2.772e-09
 58.03853    -14.4 9.970e+03 3.716e-09
 58.05887    -14.7 1.038e+04 5.186e-09
 58.07860    -16.4 1.077e+04 6.660e-09
 58.10751    -16.7 1.083e+04 6.941e-09
 58.12714    -17.0 1.096e+04 7.112e-09
 58.14688    -18.0 1.103e+04 7.437e-09
 58.16661    -18.4 1.110e+04 7.542e-09
 58.18635    -19.9 1.101e+04 7.374e-09
 58.19780    -20.1 1.104e+04 7.332e-09
 58.20767    -21.2 1.093e+04 6.977e-09
 58.22581    -22.6 1.076e+04 6.657e-09
 58.24555    -23.3 1.083e+04 6.737e-09
 58.25648    -24.4 1.072e+04 6.582e-09
 58.26635    -23.9 1.102e+04 7.765e-09
 58.28502    -24.5 1.118e+04 8.048e-09
 58.31472    -25.5 1.122e+04 8.157e-09
 58.33713    -27.0 1.141e+04 8.318e-09
 58.35687    -29.3 1.130e+04 6.766e-09
 58.39375    -31.0 1.139e+04 6.666e-09
 58.42326    -31.7 1.179e+04 8.120e-09
 58.44289    -32.4 1.194e+04 8.771e-09
 58.46263    -33.6 1.214e+04 1.025e-08
 58.47607    -34.0 1.228e+04 1.069e-08
 58.48593    -35.2 1.225e+04 1.005e-08
 58.50210    -36.3 1.227e+04 1.041e-08
 58.52183    -37.0 1.222e+04 1.032e-08
 58.54156    -37.4 1.208e+04 9.072e-09
 58.56130    -37.8 1.194e+04 7.411e-09
 58.58103    -38.2 1.170e+04 6.017e-09
 58.60077    -38.3 1.160e+04 5.124e-09
 58.61520    -38.4 1.149e+04 4.578e-09
 58.62507    -39.0 1.131e+04 4.103e-09
 58.64024    -38.6 1.128e+04 3.899e-09
 58.65997    -38.1 1.130e+04 3.831e-09
 58.67970    -37.7 1.130e+04 3.795e-09
 58.70940    -37.4 1.113e+04 3.585e-09
 58.74897    -36.0 1.115e+04 3.373e-09
 58.78844    -34.6 1.129e+04 2.999e-09
 58.82791    -32.9 1.134e+04 2.428e-09
 58.86738    -31.1 1.130e+04 1.893e-09
 58.89366    -29.2 1.144e+04 1.426e-09
 58.91339    -29.2 1.112e+04 1.417e-09
 58.94631    -27.5 1.121e+04 1.048e-09
 58.98578    -25.7 1.118e+04 9.858e-10
 59.02525    -23.7 1.130e+04 9.923e-10
 59.06472    -21.6 1.134e+04 1.022e-09
 59.10419    -19.1 1.141e+04 9.947e-10
 59.14366    -16.3 1.153e+04 8.549e-10
 59.17192    -13.6 1.175e+04 6.438e-10
 59.19166    -13.7 1.164e+04 8.199e-10
 59.22259    -11.2 1.186e+04 6.218e-10
 59.26206     -8.7 1.201e+04 5.274e-10
 59.30153     -6.0 1.211e+04 5.022e-10
 59.34100     -3.3 1.227e+04 5.021e-10
 59.38047     -0.8 1.233e+04 5.534e-10
 59.41994      2.1 1.211e+04 6.811e-10
 59.45018      5.1 1.204e+04 7.524e-10
 59.46231      4.7 1.206e+04 1.180e-09
 59.47153      3.8 1.203e+04 1.332e-09
 59.49888      6.6 1.208e+04 1.351e-09
 59.53834      9.1 1.210e+04 1.380e-09
 59.57781     11.3 1.203e+04 1.552e-09
 59.61728     13.9 1.191e+04 1.757e-09
 59.65675     16.4 1.188e+04 1.818e-09
 59.69622     18.9 1.204e+04 1.717e-09
 59.72845     21.3 1.211e+04 1.636e-09
 59.74818     20.2 1.224e+04 1.603e-09
 59.77516     22.4 1.232e+04 1.593e-09
 59.81462     24.6 1.232e+04 1.650e-09
 59.85409     26.9 1.232e+04 1.760e-09
 59.89356     29.1 1.239e+04 1.894e-09
 59.93303     31.2 1.252e+04 1.952e-09
 59.97250     33.4 1.259e+04 2.167e-09
 60.00671     35.5 1.253e+04 2.400e-09
 60.02644     34.5 1.251e+04 1.903e-09
 60.05144     37.0 1.236e+04 1.797e-09
 60.09091     39.5 1.241e+04 1.988e-09
 60.13037     41.8 1.255e+04 2.509e-09
 60.15561     43.4 1.243e+04 2.727e-09
 60.16538     43.3 1.255e+04 2.618e-09
 60.17951     43.9 1.254e+04 2.733e-09
 60.19925     44.9 1.249e+04 2.950e-09
 60.21898     46.0 1.250e+04 3.295e-09
 60.23872     47.0 1.253e+04 3.660e-09
 60.25845     47.9 1.259e+04 3.996e-09
 60.27819     48.5 1.267e+04 4.353e-09
 60.29465     48.8 1.278e+04 4.835e-09
 60.30451     48.7 1.282e+04 4.436e-09
 60.31766     48.9 1.292e+04 5.220e-09
 60.33739     48.8 1.307e+04 6.705e-09
 60.35712     48.8 1.322e+04 9.192e-09
 60.37686     48.7 1.339e+04 1.215e-08
 60.39659     48.7 1.341e+04 1.453e-08
 60.41633     48.5 1.335e+04 1.613e-08
 60.43378     48.2 1.328e+04 1.579e-08
 60.44364     48.8 1.347e+04 1.730e-08
 60.45580     48.5 1.341e+04 1.719e-08
 60.47553     48.3 1.325e+04 1.620e-08
 60.49526     47.8 1.308e+04 1.446e-08
 60.51500     47.2 1.293e+04 1.334e-08
 60.53473     46.4 1.281e+04 1.344e-08
 60.55447     45.7 1.262e+04 1.438e-08
 60.57291     45.1 1.239e+04 1.562e-08
 60.58278     45.3 1.283e+04 2.080e-08
 60.59394     45.1 1.240e+04 1.998e-08
 60.61367     45.0 1.189e+04 1.715e-08
 60.63341     44.8 1.137e+04 1.367e-08
 60.65314     44.4 1.092e+04 1.073e-08
 60.66646     43.9 1.049e+04 8.680e-09
 60.67633     43.8 1.078e+04 9.714e-09
 60.69261     43.7 1.062e+04 9.658e-09
 60.71204     43.4 1.072e+04 1.014e-08
 60.72191     42.9 1.073e+04 1.038e-08
 60.73208     41.9 1.130e+04 1.300e-08
 60.75181     41.0 1.219e+04 1.943e-08
 60.77155     40.8 1.317e+04 3.136e-08
 60.79128     41.2 1.395e+04 4.679e-08
 60.81101     41.9 1.452e+04 5.889e-08
 60.83075     42.6 1.479e+04 6.170e-08
 60.85048     43.2 1.459e+04 5.861e-08
 60.86104     43.6 1.459e+04 5.326e-08
 60.87091     42.9 1.400e+04 4.037e-08
 60.88995     43.2 1.380e+04 3.380e-08
 60.90969     43.6 1.359e+04 2.822e-08
 60.92942     43.9 1.339e+04 2.244e-08
 60.94915     43.8 1.306e+04 1.736e-08
 60.96889     42.8 1.255e+04 1.407e-08
 60.98862     41.6 1.231e+04 1.347e-08
 61.00017     41.4 1.223e+04 1.327e-08
 61.01004     39.9 1.333e+04 1.998e-08
 61.02809     37.7 1.414e+04 2.732e-08
 61.04783     34.9 1.563e+04 5.293e-08
 61.06756     33.4 1.713e+04 1.374e-07
 61.08231     32.7 1.790e+04 2.156e-07
 61.09213     32.3 1.838e+04 2.727e-07
 61.10200     31.6 1.875e+04 2.865e-07
 61.11187     30.1 1.893e+04 2.695e-07
 61.12173     28.4 1.896e+04 2.166e-07
 61.13160     26.4 1.861e+04 1.659e-07
 61.13925     23.2 1.755e+04 1.129e-07
 61.14917     20.5 1.662e+04 9.478e-08
 61.16623     19.4 1.518e+04 6.766e-08
 61.18597     18.6 1.448e+04 4.519e-08
 61.20570     16.1 1.466e+04 3.732e-08
 61.22544     12.3 1.492e+04 4.153e-08
 61.24517     10.4 1.443e+04 4.904e-08
 61.26402     10.4 1.391e+04 4.433e-08
 61.27389     10.3 1.380e+04 4.133e-08
 61.27843      9.4 1.320e+04 2.893e-08
 61.28830      9.7 1.305e+04 2.368e-08
 61.30437      6.2 1.246e+04 1.410e-08
 61.32411      2.5 1.141e+04 1.016e-08
 61.34384      1.0 1.069e+04 9.929e-09
 61.36358      0.6 1.050e+04 1.021e-08
 61.39328      0.9 1.046e+04 1.116e-08
 61.41776      0.6 1.006e+04 8.902e-09
 61.43750      2.0 9.703e+03 7.672e-09
 61.47231      2.1 9.906e+03 8.185e-09
 61.51178      1.8 1.071e+04 1.200e-08
 61.54128      1.8 1.076e+04 1.481e-08
 61.55670      2.9 1.067e+04 1.437e-08
 61.56657      3.7 1.067e+04 1.440e-08
 61.58065      4.7 1.066e+04 1.325e-08
 61.60039      5.0 1.037e+04 1.112e-08
 61.62012      4.9 1.030e+04 8.624e-09
 61.63986      4.4 1.026e+04 7.281e-09
 61.65959      3.8 1.088e+04 7.700e-09
 61.67933      3.4 1.109e+04 6.985e-09
 61.69583      2.0 1.152e+04 6.251e-09
 61.70570      3.7 1.139e+04 6.880e-09
 61.71879      2.0 1.284e+04 6.753e-09
 61.73853     -0.3 1.381e+04 6.628e-09
 61.75826     -3.7 1.473e+04 1.118e-08
 61.77800     -4.3 1.447e+04 2.923e-08
 61.79773     -4.0 1.445e+04 4.533e-08
 61.81747     -3.5 1.478e+04 5.282e-08
 61.83496     -3.8 1.476e+04 4.714e-08
 61.84483     -2.9 1.562e+04 6.612e-08
 61.85693     -3.7 1.501e+04 5.358e-08
 61.87144     -4.6 1.426e+04 3.598e-08
 61.88131     -7.5 1.394e+04 3.513e-08
 61.89640     -8.2 1.315e+04 2.875e-08
 61.91614     -8.4 1.285e+04 2.585e-08
 61.93587     -8.4 1.267e+04 2.403e-08
 61.95561     -8.3 1.246e+04 2.253e-08
 61.97409     -8.3 1.221e+04 2.128e-08
 61.98396     -7.8 1.231e+04 2.222e-08
 61.99508     -7.9 1.194e+04 2.024e-08
 62.01481     -7.8 1.164e+04 1.914e-08
 62.03454     -7.1 1.140e+04 1.819e-08
 62.05428     -5.9 1.102e+04 1.619e-08
 62.07401     -4.7 1.048e+04 1.190e-08
 62.09375     -3.6 9.862e+03 7.815e-09
 62.11322     -2.9 9.369e+03 5.173e-09
 62.12309     -2.1 9.513e+03 5.931e-09
 62.13322     -1.6 9.120e+03 4.050e-09
 62.15295     -0.8 8.835e+03 2.867e-09
 62.18265      0.5 8.683e+03 2.200e-09
 62.22222      3.0 8.358e+03 1.594e-09
 62.25255      5.8 8.400e+03 1.541e-09
 62.27229      7.2 8.501e+03 1.790e-09
 62.30115      9.4 8.661e+03 2.240e-09
 62.34062     12.3 8.970e+03 3.235e-09
 62.38009     15.4 9.247e+03 4.172e-09
 62.41956     18.1 9.566e+03 4.307e-09
 62.45903     20.5 9.650e+03 4.255e-09
 62.49850     22.7 9.701e+03 4.138e-09
 62.53081     25.1 9.730e+03 3.870e-09
 62.55055     26.2 9.769e+03 4.054e-09
 62.57743     28.7 9.827e+03 4.066e-09
 62.61690     31.3 9.759e+03 3.530e-09
 62.65637     33.9 9.681e+03 2.732e-09
 62.69584     36.5 9.628e+03 2.094e-09
 62.73531     39.0 9.622e+03 1.709e-09
 62.77478     41.6 9.638e+03 1.445e-09
 62.80908     44.3 9.659e+03 1.210e-09
 62.82881     45.3 9.708e+03 1.364e-09
 62.85371     48.0 9.704e+03 1.141e-09
 62.89318     50.7 9.745e+03 9.812e-10
 62.93265     53.4 9.826e+03 8.536e-10
 62.97212     56.1 9.936e+03 7.655e-10
 63.01159     58.7 1.005e+04 7.287e-10
 63.05106     61.2 1.013e+04 7.275e-10
 63.07663     63.4 1.030e+04 7.439e-10
 63.09318     63.2 1.024e+04 7.276e-10
 63.10708     64.3 1.019e+04 7.251e-10
 63.13000     66.5 1.034e+04 7.473e-10
 63.16946     68.7 1.049e+04 8.355e-10
 63.20893     70.7 1.065e+04 1.013e-09
 63.24840     72.7 1.078e+04 1.278e-09
 63.28787     74.7 1.092e+04 1.573e-09
 63.32734     76.7 1.123e+04 1.708e-09
 63.36560     78.6 1.140e+04 1.668e-09
 63.38534     79.9 1.140e+04 1.809e-09
 63.40628     81.8 1.152e+04 1.754e-09
 63.44575     83.6 1.177e+04 1.611e-09
 63.48521     85.6 1.203e+04 1.477e-09
 63.52468     87.6 1.226e+04 1.416e-09
 63.56415     89.6 1.245e+04 1.392e-09
 63.60362     91.5 1.259e+04 1.368e-09
 63.64309     93.3 1.269e+04 1.331e-09
 63.66360     95.1 1.263e+04 1.330e-09
 63.68334     96.0 1.258e+04 1.321e-09
 63.72203     97.9 1.254e+04 1.360e-09
 63.76149     99.5 1.257e+04 1.537e-09
 63.80096    100.4 1.262e+04 1.969e-09
 63.83047    100.6 1.244e+04 2.667e-09
 63.85010    100.8 1.220e+04 3.737e-09
 63.86984    100.8 1.200e+04 5.121e-09
 63.88957    100.6 1.199e+04 6.598e-09
 63.90931     99.2 1.228e+04 9.045e-09
 63.92904     95.8 1.312e+04 1.629e-08
 63.94167     91.8 1.409e+04 3.227e-08
 63.95154     92.1 1.420e+04 3.566e-08
 63.96851     87.9 1.440e+04 4.189e-08
 63.98824     84.1 1.416e+04 3.862e-08
 64.00798     81.3 1.328e+04 2.700e-08
 64.02771     79.4 1.228e+04 1.672e-08
 64.04745     77.7 1.155e+04 1.125e-08
 64.07715     75.9 1.104e+04 8.264e-09
 64.10675     75.3 1.079e+04 7.098e-09
 64.12638     75.2 1.069e+04 6.574e-09
 64.14612     75.2 1.062e+04 6.024e-09
 64.16585     75.4 1.056e+04 5.324e-09
 64.18559     75.7 1.051e+04 4.556e-09
 64.20532     75.8 1.049e+04 3.807e-09
 64.21993     75.8 1.050e+04 3.203e-09
 64.22980     76.3 1.045e+04 3.687e-09
 64.24479     76.4 1.050e+04 3.382e-09
 64.26453     76.4 1.054e+04 3.392e-09
 64.28142     76.2 1.074e+04 3.597e-09
 64.29129     76.3 1.076e+04 3.404e-09
 64.30399     75.4 1.119e+04 4.337e-09
 64.32373     74.0 1.182e+04 7.693e-09
 64.34346     72.7 1.317e+04 1.898e-08
 64.35907     71.7 1.461e+04 4.129e-08
 64.36893     72.1 1.481e+04 4.631e-08
 64.38293     70.4 1.546e+04 5.515e-08
 64.40267     68.5 1.527e+04 4.785e-08
 64.42240     66.8 1.467e+04 2.875e-08
 64.44213     64.4 1.383e+04 1.514e-08
 64.46187     61.7 1.288e+04 1.084e-08
 64.48160     60.3 1.271e+04 1.061e-08
 64.49820     58.7 1.287e+04 1.150e-08
 64.50806     59.2 1.281e+04 1.176e-08
 64.52107     56.8 1.342e+04 1.517e-08
 64.54081     54.1 1.379e+04 1.801e-08
 64.56054     51.5 1.361e+04 1.689e-08
 64.58027     49.5 1.296e+04 1.179e-08
 64.60001     47.3 1.240e+04 6.604e-09
 64.61974     44.9 1.199e+04 3.620e-09
 64.63733     42.7 1.161e+04 2.440e-09
 64.64720     42.8 1.157e+04 2.754e-09
 64.66918     42.2 1.114e+04 2.168e-09
 64.70874     42.4 1.077e+04 1.600e-09
 64.74821     42.7 1.073e+04 1.198e-09
 64.77666     42.9 1.071e+04 1.017e-09
 64.79639     42.5 1.077e+04 1.472e-09
 64.82715     42.9 1.073e+04 1.341e-09
 64.86662     43.5 1.071e+04 1.176e-09
 64.90609     44.1 1.077e+04 1.020e-09
 64.94556     44.9 1.080e+04 1.020e-09
 64.98502     45.9 1.086e+04 1.112e-09
 65.02449     47.0 1.097e+04 1.236e-09
 65.05492     47.9 1.110e+04 1.436e-09
 65.07465     47.5 1.120e+04 1.165e-09
 65.10343     48.1 1.135e+04 1.664e-09
 65.14290     48.4 1.155e+04 2.619e-09
 65.18237     48.2 1.179e+04 4.011e-09
 65.22184     48.0 1.208e+04 5.554e-09
 65.26131     47.3 1.231e+04 6.405e-09
 65.30077     46.3 1.230e+04 6.196e-09
 65.33318     45.3 1.221e+04 5.390e-09
 65.35292     44.4 1.234e+04 5.440e-09
 65.37971     43.0 1.231e+04 4.683e-09
 65.41918     41.6 1.218e+04 3.921e-09
 65.45865     40.5 1.191e+04 3.048e-09
 65.48660     39.9 1.175e+04 2.187e-09
 65.50633     40.6 1.198e+04 2.290e-09
 65.53759     39.5 1.171e+04 1.457e-09
 65.57705     38.8 1.150e+04 1.430e-09
 65.61145     37.5 1.175e+04 1.827e-09
 65.63118     36.0 1.155e+04 2.043e-09
 65.65599     35.5 1.151e+04 3.449e-09
 65.69546     35.1 1.139e+04 4.216e-09
 65.73493     34.3 1.132e+04 3.575e-09
 65.77440     32.7 1.127e+04 3.401e-09
 65.81387     29.7 1.159e+04 4.689e-09
 65.84337     26.2 1.179e+04 6.547e-09
 65.86301     25.6 1.187e+04 7.692e-09
 65.88274     23.1 1.263e+04 1.212e-08
 65.89938     21.8 1.266e+04 1.436e-08
 65.90925     20.6 1.291e+04 1.670e-08
 65.92221     18.7 1.276e+04 1.458e-08
 65.94195     17.1 1.225e+04 1.098e-08
 65.96168     15.2 1.182e+04 7.857e-09
 65.98141     13.9 1.125e+04 5.980e-09
 66.00115     12.9 1.089e+04 4.512e-09
 66.02088     12.5 1.050e+04 3.855e-09
 66.03851     12.0 1.049e+04 2.939e-09
 66.04838     10.9 1.038e+04 2.501e-09
 66.06035     10.8 1.032e+04 2.417e-09
 66.09005     10.6 1.034e+04 2.127e-09
 66.12962      8.3 1.087e+04 3.123e-09
 66.16797      4.1 1.207e+04 8.233e-09
 66.18771      2.7 1.183e+04 9.676e-09
 66.20855      1.6 1.222e+04 1.692e-08
 66.24802     -0.5 1.225e+04 7.972e-09
 66.28749     -4.1 1.137e+04 4.633e-09
 66.32696     -5.2 1.109e+04 3.826e-09
 66.36643     -5.2 1.106e+04 3.624e-09
 66.40590     -4.7 1.108e+04 3.504e-09
 66.43540     -4.5 1.120e+04 3.716e-09
 66.45504     -4.3 1.126e+04 3.794e-09
 66.46577     -4.2 1.133e+04 3.958e-09
 66.47564     -4.4 1.135e+04 3.951e-09
 66.49451     -4.4 1.131e+04 4.247e-09
 66.51424     -4.2 1.119e+04 4.427e-09
 66.53398     -4.0 1.108e+04 4.411e-09
 66.55371     -3.8 1.101e+04 4.329e-09
 66.57344     -3.9 1.098e+04 4.224e-09
 66.59318     -4.5 1.126e+04 4.603e-09
 66.60491     -5.9 1.163e+04 6.306e-09
 66.61477     -6.6 1.180e+04 6.842e-09
 66.63265     -7.7 1.176e+04 1.079e-08
 66.65238     -7.6 1.207e+04 1.640e-08
 66.67212     -7.7 1.257e+04 1.878e-08
 66.69139     -9.8 1.307e+04 1.954e-08
 66.70126     -8.8 1.294e+04 1.925e-08
 66.71158    -11.5 1.302e+04 2.016e-08
 66.73132    -13.6 1.311e+04 2.506e-08
 66.74404    -14.7 1.351e+04 2.990e-08
 66.75390    -15.9 1.424e+04 4.434e-08
 66.77079    -17.0 1.434e+04 4.642e-08
 66.79052    -18.1 1.385e+04 3.926e-08
 66.81026    -18.7 1.319e+04 2.990e-08
 66.82999    -19.1 1.264e+04 2.183e-08
 66.84973    -19.5 1.203e+04 1.479e-08
 66.86946    -20.1 1.137e+04 1.007e-08
 66.88317    -20.4 1.082e+04 7.551e-09
 66.89304    -21.3 1.050e+04 5.914e-09
 66.90893    -21.1 1.031e+04 5.365e-09
 66.92866    -20.7 1.019e+04 5.119e-09
 66.94840    -20.1 1.017e+04 5.077e-09
 66.96813    -19.7 1.018e+04 5.188e-09
 66.99783    -19.4 1.043e+04 6.164e-09
 67.02240    -20.1 1.122e+04 9.077e-09
 67.03217    -22.4 1.228e+04 1.369e-08
 67.04707    -24.1 1.340e+04 2.649e-08
 67.06680    -24.7 1.440e+04 4.912e-08
 67.08654    -24.1 1.519e+04 7.362e-08
 67.10627    -23.9 1.539e+04 7.951e-08
 67.12601    -24.1 1.473e+04 5.795e-08
 67.14574    -24.6 1.360e+04 3.252e-08
 67.16143    -25.9 1.244e+04 1.626e-08
 67.17130    -27.3 1.199e+04 1.426e-08
 67.18521    -28.4 1.111e+04 8.901e-09
 67.20494    -28.7 1.068e+04 6.684e-09
 67.23464    -28.8 1.032e+04 4.973e-09
 67.27421    -28.9 1.017e+04 4.262e-09
 67.30076    -29.4 1.037e+04 4.804e-09
 67.32049    -29.2 1.006e+04 4.071e-09
 67.35315    -29.5 1.034e+04 5.293e-09
 67.39262    -29.9 1.080e+04 7.466e-09
 67.43208    -30.4 1.112e+04 9.079e-09
 67.47155    -31.1 1.114e+04 8.956e-09
 67.51102    -31.7 1.080e+04 6.826e-09
 67.55049    -31.8 1.050e+04 5.593e-09
 67.57902    -31.6 1.028e+04 4.742e-09
 67.59876    -30.5 1.036e+04 4.732e-09
 67.62943    -30.1 1.004e+04 3.357e-09
 67.66890    -29.7 9.858e+03 2.419e-09
 67.70836    -29.1 9.822e+03 2.198e-09
 67.74783    -28.3 9.928e+03 2.369e-09
 67.78730    -27.5 9.971e+03 2.677e-09
 67.82677    -26.8 9.929e+03 2.642e-09
 67.85729    -25.9 9.731e+03 1.848e-09
 67.87702    -25.8 9.772e+03 2.124e-09
 67.89657    -24.8 9.605e+03 1.285e-09
 67.91631    -24.8 9.827e+03 1.301e-09
 67.94518    -24.7 9.822e+03 9.925e-10
 67.98465    -23.3 9.776e+03 1.042e-09
 68.02411    -21.7 9.873e+03 1.347e-09
 68.06358    -19.5 9.941e+03 1.722e-09
 68.10305    -17.1 9.995e+03 1.921e-09
 68.13555    -14.6 1.003e+04 1.887e-09
 68.15528    -14.9 9.991e+03 1.710e-09
 68.18199    -12.6 1.002e+04 1.693e-09
 68.22146    -10.3 1.005e+04 1.620e-09
 68.26093     -8.2 1.015e+04 1.604e-09
 68.30040     -7.2 1.057e+04 1.840e-09
 68.33986     -6.9 1.089e+04 3.547e-09
 68.37933     -5.7 1.148e+04 7.274e-09
 68.40884     -4.7 1.143e+04 6.574e-09
 68.42348     -4.3 1.182e+04 7.389e-09
 68.43345     -3.8 1.147e+04 6.162e-09
 68.44831     -3.7 1.212e+04 6.091e-09
 68.46794     -4.5 1.231e+04 7.310e-09
 68.48768     -5.1 1.227e+04 9.590e-09
 68.50381     -5.1 1.219e+04 1.208e-08
 68.51367     -5.6 1.214e+04 1.177e-08
 68.52714     -4.9 1.216e+04 1.186e-08
 68.54688     -4.3 1.208e+04 9.125e-09
 68.56262     -4.0 1.203e+04 5.924e-09
 68.57248     -3.5 1.223e+04 1.014e-08
 68.58635     -3.2 1.221e+04 7.081e-09
 68.60608     -3.2 1.211e+04 4.732e-09
 68.62582     -3.2 1.196e+04 3.524e-09
 68.64555     -3.2 1.204e+04 2.802e-09
 68.66529     -3.3 1.203e+04 2.595e-09
 68.68502     -2.9 1.212e+04 2.578e-09
 68.70175     -2.7 1.214e+04 2.642e-09
 68.71162     -2.2 1.225e+04 3.580e-09
 68.72449     -1.8 1.233e+04 3.684e-09
 68.74422     -1.3 1.235e+04 3.959e-09
 68.76396     -0.6 1.228e+04 4.453e-09
 68.78369      0.0 1.231e+04 4.526e-09
 68.80343      0.7 1.230e+04 4.565e-09
 68.82316      1.4 1.221e+04 4.339e-09
 68.84088      2.0 1.236e+04 3.706e-09
 68.85075      2.0 1.243e+04 4.710e-09
 68.86263      2.4 1.228e+04 4.514e-09
 68.88236      3.0 1.229e+04 3.982e-09
 68.90210      3.3 1.220e+04 3.916e-09
 68.92183      4.0 1.226e+04 3.439e-09
 68.94157      4.2 1.223e+04 3.420e-09
 68.97024      5.0 1.204e+04 3.012e-09
 68.98998      4.8 1.224e+04 5.736e-09
 69.01073      5.9 1.193e+04 5.900e-09
 69.05030      8.0 1.157e+04 4.034e-09
 69.08977      9.8 1.133e+04 2.304e-09
 69.11143     10.6 1.134e+04 1.489e-09
 69.13116     10.5 1.140e+04 2.048e-09
 69.16871     12.0 1.138e+04 2.066e-09
 69.20818     13.3 1.157e+04 2.317e-09
 69.24764     14.5 1.169e+04 2.877e-09
 69.26834     15.7 1.175e+04 3.374e-09
 69.28807     15.7 1.196e+04 5.585e-09
 69.32658     16.9 1.191e+04 4.925e-09
 69.36605     18.0 1.167e+04 3.318e-09
 69.40552     18.9 1.150e+04 1.867e-09
 69.44499     19.5 1.141e+04 1.167e-09
 69.48446     20.2 1.103e+04 1.006e-09
 69.52392     21.4 1.078e+04 1.078e-09
 69.54660     22.6 1.056e+04 1.271e-09
 69.56633     22.7 1.062e+04 1.287e-09
 69.60286     24.0 1.051e+04 1.528e-09
 69.64233     25.4 1.045e+04 1.589e-09
 69.68180     26.7 1.039e+04 1.586e-09
 69.72127     28.1 1.032e+04 1.562e-09
 69.76074     29.3 1.033e+04 1.685e-09
 69.80021     30.5 1.055e+04 1.976e-09
 69.82486     31.6 1.063e+04 2.362e-09
 69.83463     31.0 1.069e+04 2.099e-09
 69.84935     31.4 1.069e+04 2.187e-09
 69.86908     31.8 1.071e+04 2.447e-09
 69.88881     32.5 1.069e+04 2.929e-09
 69.90855     33.6 1.077e+04 3.644e-09
 69.92828     32.6 1.173e+04 4.978e-09
 69.94802     27.5 1.609e+04 1.452e-08
 69.96380     23.4 1.736e+04 6.634e-08
 69.97367     23.9 1.668e+04 8.726e-08
 69.98749     22.9 1.709e+04 1.378e-07
 70.00722     22.2 1.715e+04 1.419e-07
 70.02696     21.4 1.697e+04 9.513e-08
 70.04669     20.3 1.583e+04 3.526e-08
 70.06642     17.6 1.397e+04 8.789e-09
 70.08616     14.3 1.211e+04 3.050e-09
 70.10293     13.7 1.091e+04 2.070e-09
 70.11280     14.3 1.070e+04 1.726e-09
 70.12563     15.1 1.062e+04 1.767e-09
 70.14536     17.7 1.046e+04 1.718e-09
 70.16510     18.1 1.055e+04 1.748e-09
 70.19480     21.4 1.049e+04 1.900e-09
 70.23436     24.6 1.048e+04 1.989e-09
 70.27383     27.4 1.064e+04 2.204e-09
 70.30655     29.0 1.070e+04 2.618e-09
 70.32618     28.4 1.064e+04 3.026e-09
 70.34271     29.2 1.077e+04 3.956e-09
 70.36244     29.9 1.097e+04 5.243e-09
 70.38119     30.6 1.116e+04 6.825e-09
 70.39106     30.2 1.112e+04 6.901e-09
 70.40191     30.7 1.129e+04 8.575e-09
 70.42164     31.1 1.144e+04 1.025e-08
 70.44138     31.4 1.149e+04 1.124e-08
 70.46111     31.6 1.149e+04 1.132e-08
 70.48085     31.5 1.146e+04 1.089e-08
 70.50058     31.2 1.141e+04 1.055e-08
 70.52031     30.8 1.141e+04 1.071e-08
 70.54005     29.3 1.145e+04 1.209e-08
 70.55978     28.8 1.165e+04 1.469e-08
 70.57952     28.3 1.189e+04 1.785e-08
 70.59925     27.7 1.212e+04 2.056e-08
 70.61899     26.8 1.234e+04 2.213e-08
 70.63872     25.6 1.243e+04 2.234e-08
 70.65845     24.1 1.241e+04 2.157e-08
 70.66933     22.5 1.227e+04 2.069e-08
 70.67919     21.6 1.250e+04 2.403e-08
 70.69792     20.0 1.222e+04 2.096e-08
 70.71766     18.2 1.185e+04 1.807e-08
 70.73739     17.1 1.152e+04 1.617e-08
 70.75713     15.8 1.124e+04 1.427e-08
 70.78683     13.4 1.098e+04 1.233e-08
 70.80855     12.4 1.039e+04 1.025e-08
 70.81832     11.5 1.041e+04 1.020e-08
 70.83606     10.6 1.010e+04 9.264e-09
 70.85580      9.8 9.990e+03 8.936e-09
 70.87553      9.0 1.001e+04 8.977e-09
 70.89527      7.9 1.019e+04 9.588e-09
 70.91378      6.6 1.046e+04 1.056e-08
 70.92365      6.7 1.077e+04 1.203e-08
 70.93474      5.3 1.096e+04 1.315e-08
 70.94759      4.4 1.093e+04 1.363e-08
 70.95746      3.5 1.119e+04 1.656e-08
 70.97420      3.2 1.103e+04 1.511e-08
 70.99394      3.0 1.077e+04 1.243e-08
 71.01367      2.5 1.052e+04 1.002e-08
 71.03341      1.8 1.020e+04 8.239e-09
 71.05314      1.3 9.946e+03 7.041e-09
 71.07288      0.5 9.901e+03 6.658e-09
 71.08672     -0.6 1.026e+04 7.370e-09
 71.09659     -2.8 1.174e+04 1.237e-08
 71.11234     -4.4 1.212e+04 1.658e-08
 71.13208     -5.8 1.259e+04 2.358e-08
 71.15181     -6.7 1.329e+04 3.516e-08
 71.17155     -7.6 1.435e+04 4.795e-08
 71.19128     -9.6 1.560e+04 6.183e-08
 71.21102    -12.3 1.643e+04 7.226e-08
 71.22585    -15.1 1.582e+04 7.337e-08
 71.23572    -16.4 1.591e+04 9.366e-08
 71.25049    -16.5 1.511e+04 6.572e-08
 71.27022    -15.9 1.431e+04 3.953e-08
 71.28995    -15.8 1.355e+04 1.909e-08
 71.30969    -16.4 1.285e+04 9.421e-09
 71.32942    -16.9 1.217e+04 6.060e-09
 71.34916    -17.0 1.156e+04 4.831e-09
 71.36498    -16.0 1.122e+04 4.361e-09
 71.37485    -16.5 1.106e+04 3.956e-09
 71.38863    -15.3 1.107e+04 3.970e-09
 71.40836    -14.2 1.106e+04 3.990e-09
 71.42809    -13.2 1.099e+04 3.826e-09
 71.44783    -11.9 1.092e+04 4.142e-09
 71.46756    -10.8 1.104e+04 4.156e-09
 71.48730     -9.8 1.096e+04 4.557e-09
 71.50412     -8.9 1.141e+04 4.490e-09
 71.51398     -9.5 1.136e+04 5.314e-09
 71.52121     -8.6 1.134e+04 7.478e-09
 71.53107     -8.3 1.121e+04 6.516e-09
 71.54650     -7.4 1.147e+04 7.288e-09
 71.56623     -6.3 1.165e+04 8.946e-09
 71.58597     -5.2 1.181e+04 9.857e-09
 71.60570     -4.3 1.179e+04 1.009e-08
 71.62544     -3.3 1.169e+04 1.012e-08
 71.64325     -2.1 1.163e+04 8.786e-09
 71.65311     -2.8 1.185e+04 1.004e-08
 71.66491     -1.6 1.162e+04 9.054e-09
 71.68464     -0.3 1.156e+04 7.220e-09
 71.70438      0.5 1.142e+04 6.001e-09
 71.72411      1.8 1.120e+04 5.153e-09
 71.74384      3.0 1.112e+04 4.718e-09
 71.76358      4.6 1.108e+04 4.063e-09
 71.78238      5.7 1.110e+04 3.657e-09
 71.79225      4.6 1.121e+04 3.619e-09
 71.80305      5.7 1.117e+04 3.636e-09
 71.82278      7.2 1.116e+04 3.643e-09
 71.84252      8.4 1.123e+04 3.741e-09
 71.86225      9.5 1.138e+04 4.070e-09
 71.88198     10.7 1.144e+04 4.828e-09
 71.90172     12.0 1.147e+04 5.841e-09
 71.92145     13.5 1.158e+04 6.802e-09
 71.94119     13.8 1.194e+04 6.596e-09
 71.96092     14.0 1.243e+04 7.365e-09
 71.98066     12.6 1.319e+04 9.779e-09
 72.00039     10.5 1.403e+04 1.997e-08
 72.02012      8.9 1.484e+04 4.323e-08
 72.03488      8.2 1.524e+04 5.420e-08
 72.04470      8.2 1.537e+04 5.610e-08
 72.05456      7.4 1.569e+04 5.259e-08
 72.06443      7.1 1.564e+04 5.002e-08
 72.07046      4.6 1.643e+04 5.040e-08
 72.08038      4.1 1.538e+04 3.428e-08
 72.09906      1.6 1.470e+04 3.317e-08
 72.11877      1.3 1.425e+04 3.337e-08
 72.13850      2.2 1.341e+04 2.224e-08
 72.15827      2.5 1.333e+04 2.057e-08
 72.17800      2.1 1.354e+04 1.963e-08
 72.19773      1.7 1.358e+04 2.052e-08
 72.20964      1.7 1.347e+04 2.237e-08
 72.21951      2.7 1.330e+04 2.078e-08
 72.23720      3.2 1.321e+04 2.272e-08
 72.25694      4.3 1.291e+04 2.240e-08
 72.27667      5.7 1.247e+04 1.838e-08
 72.29641      7.0 1.207e+04 1.309e-08
 72.31614      8.0 1.169e+04 8.901e-09
 72.33587      8.9 1.129e+04 5.765e-09
 72.34877      9.5 1.095e+04 4.044e-09
 72.35864     10.6 1.139e+04 5.616e-09
 72.37534     11.4 1.108e+04 4.250e-09
 72.39508     12.5 1.089e+04 3.850e-09
 72.41481     13.9 1.063e+04 3.827e-09
 72.43455     15.4 1.056e+04 4.043e-09
 72.45428     17.1 1.062e+04 4.400e-09
 72.47401     18.7 1.076e+04 5.053e-09
 72.48790     20.2 1.089e+04 6.012e-09
 72.49777     21.6 1.086e+04 5.142e-09
 72.51348     23.2 1.094e+04 5.772e-09
 72.53322     24.7 1.106e+04 7.120e-09
 72.55295     26.3 1.135e+04 9.728e-09
 72.57269     27.9 1.168e+04 1.357e-08
 72.59242     29.5 1.238e+04 1.937e-08
 72.61216     30.6 1.318e+04 2.612e-08
 72.62704     30.6 1.544e+04 4.770e-08
 72.63685     33.1 1.429e+04 3.884e-08
 72.64659     31.6 1.636e+04 5.977e-08
 72.65646     31.6 1.692e+04 7.409e-08
 72.66633     29.5 1.829e+04 1.112e-07
 72.67619     29.3 1.849e+04 1.548e-07
 72.68606     29.2 1.854e+04 2.035e-07
 72.69593     28.7 1.844e+04 2.482e-07
 72.70144     28.3 1.820e+04 2.529e-07
 72.70637     29.5 1.869e+04 2.937e-07
 72.71566     28.9 1.824e+04 3.110e-07
 72.72553     28.6 1.790e+04 3.058e-07
 72.73103     28.2 1.786e+04 2.742e-07
 72.73596     28.0 1.744e+04 2.323e-07
 72.74526     27.1 1.767e+04 1.931e-07
 72.75513     26.2 1.781e+04 1.615e-07
 72.76612     23.0 1.785e+04 8.484e-08
 72.77599     24.0 1.851e+04 2.162e-07
 72.78473     22.6 1.842e+04 1.584e-07
 72.79460     21.0 1.821e+04 1.141e-07
 72.80447     19.5 1.795e+04 8.553e-08
 72.81433     17.0 1.798e+04 6.355e-08
 72.82420     14.7 1.790e+04 5.186e-08
 72.83407      9.9 1.833e+04 4.586e-08
 72.84892      5.1 2.045e+04 7.455e-08
 72.86372     -3.1 1.971e+04 1.032e-07
 72.87354     -6.1 1.916e+04 1.181e-07
 72.88340     -8.9 1.829e+04 1.346e-07
 72.89327    -10.5 1.788e+04 1.389e-07
 72.90314    -11.5 1.788e+04 1.293e-07
 72.91013    -12.5 1.768e+04 1.159e-07
 72.91507    -14.9 1.805e+04 1.245e-07
 72.92287    -16.2 1.796e+04 9.831e-08
 72.93274    -17.6 1.806e+04 7.660e-08
 72.94261    -19.1 1.801e+04 5.943e-08
 72.95248    -20.5 1.793e+04 5.258e-08
 72.96732    -23.1 1.825e+04 7.117e-08
 72.98711    -23.8 1.798e+04 7.431e-08
 73.00684    -24.1 1.770e+04 7.780e-08
 73.02658    -24.4 1.719e+04 7.254e-08
 73.04443    -25.1 1.631e+04 6.129e-08
 73.05430    -27.9 1.752e+04 9.029e-08
 73.06605    -30.6 1.723e+04 5.839e-08
 73.08578    -35.7 1.589e+04 4.118e-08
 73.10551    -39.2 1.426e+04 3.381e-08
 73.12525    -40.5 1.349e+04 3.102e-08
 73.14498    -40.9 1.319e+04 2.619e-08
 73.16472    -41.5 1.273e+04 1.847e-08
 73.18356    -43.4 1.223e+04 1.365e-08
 73.19343    -46.2 1.307e+04 1.854e-08
 73.20419    -47.5 1.282e+04 1.736e-08
 73.22392    -48.9 1.291e+04 1.840e-08
 73.24365    -50.5 1.332e+04 2.390e-08
 73.26339    -51.7 1.391e+04 3.291e-08
 73.28312    -53.6 1.506e+04 4.515e-08
 73.30286    -58.2 1.659e+04 5.770e-08
 73.31761    -64.0 1.753e+04 6.910e-08
 73.32743    -65.7 1.797e+04 7.421e-08
 73.33246    -72.0 1.808e+04 9.014e-08
 73.33362    -72.9 1.801e+04 8.817e-08
 73.33846    -72.4 1.788e+04 8.593e-08
 73.34716    -75.9 1.805e+04 1.011e-07
 73.35703    -80.9 1.779e+04 1.091e-07
 73.36690    -84.5 1.757e+04 1.081e-07
 73.37676    -87.9 1.704e+04 9.045e-08
 73.38663    -91.3 1.648e+04 6.724e-08
 73.39650    -94.9 1.564e+04 4.945e-08
 73.40203    -97.7 1.480e+04 3.877e-08
 73.40696    -98.3 1.458e+04 3.662e-08
 73.42121   -100.2 1.395e+04 3.044e-08
 73.44100   -103.8 1.286e+04 2.443e-08
 73.46073   -105.0 1.232e+04 2.213e-08
 73.47169   -105.1 1.206e+04 2.013e-08
 73.48156   -105.3 1.170e+04 1.702e-08
 73.50020   -105.2 1.133e+04 1.423e-08
 73.51994   -105.2 1.097e+04 1.113e-08
 73.53967   -105.3 1.058e+04 8.440e-09
 73.55940   -105.5 1.023e+04 6.541e-09
 73.57914   -105.7 9.951e+03 5.461e-09
 73.59887   -105.8 9.834e+03 5.016e-09
 73.61082   -105.9 9.816e+03 4.920e-09
 73.62069   -105.9 9.835e+03 5.067e-09
 73.63834   -106.3 9.920e+03 5.120e-09
 73.66804   -107.6 1.036e+04 5.958e-09
 73.70761   -109.5 1.125e+04 9.499e-09
 73.74028   -112.1 1.174e+04 1.310e-08
 73.76002   -113.4 1.180e+04 1.380e-08
 73.78654   -115.6 1.171e+04 1.355e-08
 73.82601   -116.8 1.106e+04 8.636e-09
 73.85552   -117.1 1.019e+04 4.526e-09
 73.87515   -117.3 9.991e+03 3.441e-09
 73.88909   -117.0 9.888e+03 2.749e-09
 73.89895   -116.9 9.914e+03 2.799e-09
 73.91462   -116.4 9.937e+03 2.559e-09
 73.93128   -115.9 1.000e+04 2.535e-09
 73.95111   -115.5 9.927e+03 2.329e-09
 73.98389   -114.3 1.012e+04 2.322e-09
 74.01339   -113.0 1.026e+04 2.538e-09
 74.02822   -112.9 1.026e+04 2.733e-09
 74.03818   -112.4 1.021e+04 2.413e-09
 74.05286   -111.7 1.029e+04 2.756e-09
 74.07250   -111.2 1.031e+04 3.092e-09
 74.09223   -110.5 1.044e+04 3.537e-09
 74.11197   -109.9 1.060e+04 4.008e-09
 74.13170   -109.4 1.077e+04 4.554e-09
 74.15143   -109.2 1.103e+04 5.311e-09
 74.16735   -109.6 1.159e+04 6.885e-09
 74.17722   -109.8 1.169e+04 6.507e-09
 74.19090   -111.2 1.262e+04 1.115e-08
 74.21064   -112.7 1.356e+04 2.095e-08
 74.23037   -113.8 1.435e+04 3.545e-08
 74.25011   -114.8 1.487e+04 4.842e-08
 74.26984   -115.9 1.503e+04 5.243e-08
 74.28957   -117.0 1.488e+04 4.381e-08
 74.30648   -118.3 1.444e+04 2.806e-08
 74.31635   -118.4 1.359e+04 1.500e-08
 74.32904   -120.3 1.295e+04 9.402e-09
 74.34878   -121.9 1.234e+04 7.807e-09
 74.36851   -122.7 1.202e+04 7.667e-09
 74.38825   -123.0 1.182e+04 7.784e-09
 74.40798   -122.9 1.178e+04 7.339e-09
 74.42772   -122.8 1.164e+04 6.676e-09
 74.44561   -122.5 1.151e+04 5.979e-09
 74.45548   -121.9 1.151e+04 5.823e-09
 74.46718   -121.4 1.142e+04 5.281e-09
 74.48692   -120.7 1.134e+04 4.961e-09
 74.50665   -119.9 1.129e+04 4.854e-09
 74.52639   -119.0 1.128e+04 4.843e-09
 74.53861   -118.1 1.131e+04 4.955e-09
 74.54847   -117.7 1.135e+04 4.761e-09
 74.56586   -116.8 1.142e+04 5.113e-09
 74.58475   -115.9 1.149e+04 5.685e-09
 74.59461   -115.3 1.135e+04 4.955e-09
 74.60532   -114.3 1.143e+04 5.400e-09
 74.62506   -113.4 1.152e+04 5.923e-09
 74.64479   -112.4 1.159e+04 6.381e-09
 74.66453   -111.5 1.160e+04 6.621e-09
 74.68426   -110.6 1.159e+04 6.676e-09
 74.70400   -109.6 1.149e+04 6.447e-09
 74.72373   -108.6 1.139e+04 5.918e-09
 74.73374   -107.5 1.129e+04 5.312e-09
 74.74361   -107.0 1.144e+04 5.536e-09
 74.76320   -105.9 1.136e+04 5.034e-09
 74.78293   -104.8 1.127e+04 4.578e-09
 74.80267   -103.7 1.117e+04 4.178e-09
 74.82240   -102.5 1.104e+04 3.882e-09
 74.84214   -101.2 1.094e+04 3.691e-09
 74.86187   -100.0 1.087e+04 3.548e-09
 74.87288    -98.7 1.082e+04 3.402e-09
 74.88274    -98.1 1.090e+04 3.452e-09
 74.90134    -96.7 1.083e+04 3.324e-09
 74.92107    -95.5 1.081e+04 3.250e-09
 74.94081    -94.6 1.078e+04 3.197e-09
 74.97051    -93.0 1.074e+04 3.267e-09
 75.01007    -90.8 1.053e+04 2.870e-09
 75.04954    -88.1 1.033e+04 2.470e-09
 75.08901    -85.6 1.020e+04 2.250e-09
 75.12649    -83.3 1.010e+04 2.079e-09
 75.14623    -82.9 1.012e+04 2.220e-09
 75.15134    -80.5 1.002e+04 2.098e-09
 75.17107    -80.1 1.028e+04 2.303e-09
 75.20742    -77.7 1.017e+04 2.225e-09
 75.24689    -75.3 1.006e+04 2.033e-09
 75.28635    -72.7 9.965e+03 1.803e-09
 75.32582    -70.0 9.871e+03 1.646e-09
 75.36529    -67.1 9.805e+03 1.590e-09
 75.40476    -64.3 9.803e+03 1.584e-09
 75.42960    -61.7 9.908e+03 1.711e-09
 75.44933    -61.7 9.996e+03 2.161e-09
 75.48370    -59.6 1.021e+04 3.177e-09
 75.52317    -57.5 1.064e+04 5.613e-09
 75.56264    -55.6 1.121e+04 9.175e-09
 75.59214    -54.6 1.172e+04 1.280e-08
 75.61178    -54.2 1.186e+04 1.403e-08
 75.63151    -53.7 1.204e+04 1.485e-08
 75.65125    -53.7 1.217e+04 1.502e-08
 75.67098    -54.2 1.253e+04 1.589e-08
 75.69071    -55.3 1.325e+04 1.949e-08
 75.70767    -56.6 1.430e+04 2.988e-08
 75.71753    -58.1 1.532e+04 5.366e-08
 75.73018    -58.8 1.619e+04 8.416e-08
 75.74359    -59.4 1.689e+04 1.130e-07
 75.75346    -57.9 1.498e+04 4.630e-08
 75.76965    -58.6 1.585e+04 6.421e-08
 75.78212    -59.7 1.711e+04 9.123e-08
 75.78700    -60.1 1.698e+04 9.280e-08
 75.79422    -61.2 1.750e+04 1.312e-07
 75.80409    -62.1 1.772e+04 1.814e-07
 75.81396    -62.4 1.775e+04 2.408e-07
 75.82382    -62.5 1.768e+04 3.024e-07
 75.83369    -62.3 1.765e+04 3.386e-07
 75.84356    -61.9 1.764e+04 3.116e-07
 75.85163    -61.7 1.764e+04 2.702e-07
 75.85657    -61.8 1.732e+04 2.152e-07
 75.86329    -61.8 1.712e+04 1.766e-07
 75.87316    -62.0 1.670e+04 1.344e-07
 75.88303    -62.3 1.614e+04 1.000e-07
 75.89289    -62.3 1.564e+04 7.684e-08
 75.90774    -62.1 1.492e+04 5.435e-08
 75.92753    -62.4 1.402e+04 3.250e-08
 75.94726    -62.9 1.320e+04 2.216e-08
 75.96699    -63.1 1.269e+04 1.945e-08
 75.98593    -62.5 1.261e+04 1.932e-08
 75.99580    -61.9 1.242e+04 1.608e-08
 76.00646    -61.4 1.249e+04 1.809e-08
 76.02620    -60.6 1.268e+04 2.058e-08
 76.04593    -59.6 1.275e+04 2.175e-08
 76.06567    -58.8 1.273e+04 2.066e-08
 76.08540    -57.9 1.252e+04 1.810e-08
 76.10514    -57.0 1.228e+04 1.527e-08
 76.12487    -56.2 1.210e+04 1.349e-08
 76.13493    -55.2 1.198e+04 1.222e-08
 76.14480    -54.6 1.200e+04 1.239e-08
 76.16434    -53.5 1.199e+04 1.151e-08
 76.18407    -52.4 1.206e+04 1.128e-08
 76.20381    -51.5 1.233e+04 1.170e-08
 76.22354    -50.6 1.265e+04 1.275e-08
 76.24328    -49.8 1.301e+04 1.474e-08
 76.26301    -48.8 1.331e+04 1.765e-08
 76.27406    -47.6 1.353e+04 2.087e-08
 76.28393    -47.5 1.345e+04 2.258e-08
 76.30248    -46.1 1.341e+04 2.318e-08
 76.32221    -44.5 1.306e+04 2.106e-08
 76.34115    -43.0 1.273e+04 1.700e-08
 76.35102    -42.4 1.251e+04 1.082e-08
 76.36168    -41.0 1.222e+04 1.002e-08
 76.38142    -39.5 1.212e+04 9.297e-09
 76.40115    -37.9 1.216e+04 9.063e-09
 76.41319    -36.4 1.238e+04 9.046e-09
 76.42306    -36.7 1.194e+04 6.711e-09
 76.44062    -35.5 1.199e+04 6.199e-09
 76.46035    -34.7 1.220e+04 6.177e-09
 76.48009    -34.3 1.237e+04 7.861e-09
 76.49982    -33.4 1.253e+04 1.237e-08
 76.51956    -32.8 1.256e+04 1.490e-08
 76.53929    -32.7 1.260e+04 1.661e-08
 76.55232    -33.0 1.284e+04 1.763e-08
 76.56219    -32.2 1.170e+04 1.064e-08
 76.57876    -32.3 1.200e+04 1.170e-08
 76.59849    -33.0 1.233e+04 1.316e-08
 76.61823    -33.4 1.232e+04 1.505e-08
 76.63796    -33.3 1.214e+04 1.606e-08
 76.65770    -32.8 1.193e+04 1.611e-08
 76.67743    -31.7 1.164e+04 1.254e-08
 76.69146    -31.0 1.149e+04 8.388e-09
 76.70132    -29.5 1.131e+04 8.489e-09
 76.71690    -29.0 1.104e+04 5.899e-09
 76.73663    -28.6 1.077e+04 4.464e-09
 76.75637    -27.9 1.053e+04 3.891e-09
 76.78607    -27.0 1.021e+04 3.587e-09
 76.82091    -24.1 9.954e+03 3.410e-09
 76.84065    -22.5 9.993e+03 3.487e-09
 76.86510    -19.4 9.613e+03 3.100e-09
 76.90457    -16.2 9.405e+03 2.785e-09
 76.94404    -13.2 9.269e+03 2.390e-09
 76.98351    -10.2 9.176e+03 2.274e-09
 77.02298     -6.9 9.239e+03 2.343e-09
 77.06245     -3.9 9.311e+03 2.495e-09
 77.09918     -1.0 9.294e+03 2.904e-09
 77.11891     -0.4 9.184e+03 2.630e-09
 77.14138      2.7 9.153e+03 3.295e-09
 77.18085      5.8 9.104e+03 3.349e-09
 77.22032      9.2 8.991e+03 2.911e-09
 77.25979     12.5 8.845e+03 2.093e-09
 77.29926     15.1 8.837e+03 1.428e-09
 77.33873     17.6 8.806e+03 1.168e-09
 77.37744     20.4 8.837e+03 1.187e-09
 77.39718     20.1 8.918e+03 1.173e-09
 77.41766     22.5 9.119e+03 1.356e-09
 77.45713     24.9 9.542e+03 2.009e-09
 77.49660     27.5 9.828e+03 3.563e-09
 77.53607     30.3 1.013e+04 5.748e-09
 77.55620     33.3 1.031e+04 7.210e-09
 77.56597     33.1 1.039e+04 5.423e-09
 77.58521     34.6 1.040e+04 5.747e-09
 77.60495     36.0 1.041e+04 5.889e-09
 77.62468     37.3 1.035e+04 5.797e-09
 77.64441     38.7 1.028e+04 5.638e-09
 77.66415     40.1 1.020e+04 5.426e-09
 77.67524     41.6 1.018e+04 5.176e-09
 77.68511     41.2 1.031e+04 5.246e-09
 77.70362     42.5 1.033e+04 5.010e-09
 77.72335     43.7 1.038e+04 4.911e-09
 77.74309     44.8 1.034e+04 4.767e-09
 77.76282     46.4 1.034e+04 4.763e-09
 77.78255     47.5 1.039e+04 4.841e-09
 77.80229     48.8 1.039e+04 4.801e-09
 77.81438     49.8 1.037e+04 4.716e-09
 77.82424     49.5 1.045e+04 5.096e-09
 77.85172     51.6 1.032e+04 4.507e-09
 77.89129     54.5 1.025e+04 3.919e-09
 77.92079     55.7 1.016e+04 3.636e-09
 77.94043     56.6 1.007e+04 3.375e-09
 77.95351     57.5 1.001e+04 3.132e-09
 77.96337     57.2 9.906e+03 2.872e-09
 77.97990     58.2 9.875e+03 2.677e-09
 77.99963     59.4 9.931e+03 2.589e-09
 78.01937     60.5 9.940e+03 2.559e-09
 78.03910     61.7 9.977e+03 2.568e-09
 78.05884     62.8 1.001e+04 2.583e-09
 78.07857     64.2 1.007e+04 2.645e-09
 78.09264     65.4 1.009e+04 2.731e-09
 78.10251     65.1 1.007e+04 2.736e-09
 78.11804     66.5 1.007e+04 2.885e-09
 78.13777     67.9 1.004e+04 3.056e-09
 78.15357     69.2 1.004e+04 3.289e-09
 78.16343     69.5 1.011e+04 3.673e-09
 78.17724     70.8 1.011e+04 3.916e-09
 78.19698     72.4 1.014e+04 4.214e-09
 78.21671     74.0 1.017e+04 4.665e-09
 78.23177     75.5 1.021e+04 5.185e-09
 78.24164     75.0 1.025e+04 5.379e-09
 78.25618     76.7 1.026e+04 5.902e-09
 78.27591     78.6 1.029e+04 6.482e-09
 78.29565     80.5 1.043e+04 7.228e-09
 78.31538     82.1 1.067e+04 8.184e-09
 78.33512     83.6 1.097e+04 9.459e-09
 78.35485     85.1 1.140e+04 1.153e-08
 78.37090     86.4 1.203e+04 1.516e-08
 78.38077     85.0 1.299e+04 2.689e-08
 78.39432     86.2 1.376e+04 3.924e-08
 78.41405     87.5 1.452e+04 5.612e-08
 78.43379     88.8 1.532e+04 7.794e-08
 78.45352     89.7 1.605e+04 1.007e-07
 78.47326     90.3 1.657e+04 1.176e-07
 78.49299     90.7 1.690e+04 1.215e-07
 78.51003     90.9 1.694e+04 1.168e-07
 78.51990     90.0 1.712e+04 1.191e-07
 78.53246     90.2 1.695e+04 1.029e-07
 78.55219     90.4 1.658e+04 8.608e-08
 78.57193     90.7 1.620e+04 7.451e-08
 78.59166     91.3 1.602e+04 7.330e-08
 78.61140     92.3 1.613e+04 7.848e-08
 78.63113     93.9 1.663e+04 9.437e-08
 78.64588     94.9 1.673e+04 9.913e-08
 78.65400     95.9 1.700e+04 1.022e-07
 78.65893     95.9 1.729e+04 1.219e-07
 78.66557     96.9 1.785e+04 1.320e-07
 78.67544     98.0 1.856e+04 1.571e-07
 78.68530     99.1 1.938e+04 2.013e-07
 78.69517    100.3 2.009e+04 2.937e-07
 78.70504    102.2 2.015e+04 5.295e-07
 78.71491    105.1 1.951e+04 1.090e-06
 78.72357    110.3 1.861e+04 2.898e-06
 78.72850    114.2 1.799e+04 5.175e-06
 78.73215    117.1 1.786e+04 6.493e-06
 78.73706    118.8 1.778e+04 8.635e-06
 78.74199    120.0 1.741e+04 1.378e-05
 78.74692    122.2 1.653e+04 3.350e-05
 78.75186    125.7 1.128e+04 4.002e-03
 78.75679    124.7 1.032e+04 1.244e-02
 78.76048    102.8 1.001e+04 6.520e-02
 78.76198    102.0 9.996e+03 6.568e-02
 78.76233    114.1 7.146e+03 1.430e-01
 78.76328     93.9 9.148e+03 1.418e-01
 78.76540     80.9 9.108e+03 1.075e-01
 78.76787     69.4 9.586e+03 4.420e-02
 78.77158     50.4 1.077e+04 5.996e-03
 78.77653     42.0 1.512e+04 1.344e-04
 78.78146     45.1 1.753e+04 2.203e-05
 78.78639     45.6 1.961e+04 8.193e-06
 78.79311     48.9 2.053e+04 2.870e-06
 78.79807     46.8 2.074e+04 2.960e-06
 78.80371     51.0 2.415e+04 3.916e-07
 78.81358     53.8 2.440e+04 8.470e-08
 78.82344     53.5 2.126e+04 4.114e-08
 78.83331     53.3 1.903e+04 3.186e-08
 78.84816     56.5 1.839e+04 3.107e-08
 78.86794     56.4 1.453e+04 1.197e-08
 78.88768     55.3 1.031e+04 6.067e-09
 78.90741     55.8 9.080e+03 4.003e-09
 78.92715     57.3 8.852e+03 3.516e-09
 78.93730     59.1 8.904e+03 3.419e-09
 78.94716     59.0 8.919e+03 3.642e-09
 78.96662     60.6 8.852e+03 3.474e-09
 78.98635     62.5 8.836e+03 3.415e-09
 79.00608     63.2 9.119e+03 3.645e-09
 79.02582     61.3 1.108e+04 5.804e-09
 79.04555     57.4 1.434e+04 2.142e-08
 79.06529     55.2 1.634e+04 6.974e-08
 79.07638     53.9 1.728e+04 1.211e-07
 79.08126     53.4 1.749e+04 1.546e-07
 79.08986     52.3 1.819e+04 2.472e-07
 79.09972     51.0 1.857e+04 3.715e-07
 79.10959     49.6 1.881e+04 4.482e-07
 79.11946     46.7 1.942e+04 5.018e-07
 79.12933     41.5 2.040e+04 5.442e-07
 79.13919     35.2 2.056e+04 5.413e-07
 79.14590     29.6 2.023e+04 4.874e-07
 79.15083     28.5 1.999e+04 4.465e-07
 79.15893     25.4 1.912e+04 3.356e-07
 79.16880     23.1 1.842e+04 2.125e-07
 79.18364     20.6 1.751e+04 9.955e-08
 79.20343     14.5 1.596e+04 3.647e-08
 79.21556      8.6 1.339e+04 2.092e-08
 79.22543      8.6 1.342e+04 2.081e-08
 79.24290      6.4 1.240e+04 1.758e-08
 79.26263      5.4 1.226e+04 1.668e-08
 79.28237      4.2 1.213e+04 1.547e-08
 79.30210      2.6 1.203e+04 1.483e-08
 79.32183     -1.2 1.279e+04 1.793e-08
 79.34157     -6.3 1.449e+04 3.224e-08
 79.35464     -8.4 1.478e+04 4.941e-08
 79.36176     -8.6 1.473e+04 4.293e-08
 79.36837     -8.6 1.514e+04 4.787e-08
 79.37601     -8.9 1.502e+04 6.932e-08
 79.38587     -8.8 1.502e+04 6.948e-08
 79.40072     -8.8 1.469e+04 5.781e-08
 79.42051     -9.1 1.395e+04 3.119e-08
 79.44024    -12.7 1.269e+04 1.758e-08
 79.45997    -15.3 1.095e+04 1.077e-08
 79.47971    -15.6 1.045e+04 8.934e-09
 79.49382    -15.3 1.009e+04 7.485e-09
 79.50369    -15.0 9.966e+03 6.873e-09
 79.51918    -14.5 9.764e+03 6.140e-09
 79.53891    -14.1 9.654e+03 5.481e-09
 79.55865    -13.6 9.439e+03 5.003e-09
 79.57838    -13.0 9.466e+03 4.702e-09
 79.59811    -12.6 9.495e+03 4.760e-09
 79.61785    -11.9 9.514e+03 5.124e-09
 79.63295    -11.3 9.656e+03 5.394e-09
 79.64282    -10.8 9.643e+03 5.069e-09
 79.65732     -9.9 9.858e+03 6.083e-09
 79.67705     -9.3 1.007e+04 6.458e-09
 79.69679     -8.3 1.017e+04 7.334e-09
 79.71652     -7.8 1.018e+04 7.417e-09
 79.73626     -6.6 1.022e+04 7.038e-09
 79.75599     -6.3 1.019e+04 6.948e-09
 79.78569     -5.1 1.012e+04 5.868e-09
 79.82526     -4.1 1.027e+04 5.682e-09
 79.86472     -3.3 1.065e+04 6.815e-09
 79.90155     -2.7 1.101e+04 9.257e-09
 79.92118     -1.8 1.202e+04 1.434e-08
 79.93360     -1.8 1.258e+04 1.747e-08
 79.95333     -2.4 1.333e+04 2.354e-08
 79.96598     -3.1 1.391e+04 3.237e-08
 79.97585     -3.2 1.375e+04 3.055e-08
 79.99280     -3.3 1.406e+04 3.925e-08
 80.01254     -3.1 1.428e+04 4.280e-08
 80.03227     -2.8 1.421e+04 3.707e-08
 80.05035     -3.1 1.391e+04 2.805e-08
 80.06022     -2.5 1.457e+04 3.716e-08
 80.07174     -3.2 1.386e+04 2.637e-08
 80.09147     -3.6 1.297e+04 1.958e-08
 80.11121     -3.4 1.219e+04 1.589e-08
 80.13094     -2.8 1.177e+04 1.295e-08
 80.15068     -1.8 1.144e+04 1.092e-08
 80.17041     -0.8 1.129e+04 8.514e-09
 80.18948     -0.4 1.120e+04 8.123e-09
 80.19935      0.3 1.125e+04 9.232e-09
 80.20988      2.1 1.101e+04 8.006e-09
 80.22961      2.3 1.102e+04 7.964e-09
 80.24935      4.0 1.070e+04 6.491e-09
 80.26908      4.7 1.077e+04 6.427e-09
 80.28882      6.5 1.048e+04 5.535e-09
 80.30855      7.2 1.062e+04 5.406e-09
 80.32829      9.3 1.017e+04 4.560e-09
 80.33848     10.3 1.041e+04 4.275e-09
 80.34835     10.7 1.047e+04 4.874e-09
 80.36775     12.6 1.032e+04 3.937e-09
 80.38749     13.3 1.032e+04 3.661e-09
 80.40722     15.4 1.023e+04 3.156e-09
 80.42696     16.0 1.033e+04 3.102e-09
 80.45666     18.5 1.024e+04 3.052e-09
 80.47781     21.4 1.029e+04 3.111e-09
 80.48758     20.8 1.042e+04 3.785e-09
 80.50590     22.0 1.049e+04 3.931e-09
 80.52563     23.4 1.049e+04 4.032e-09
 80.54536     24.9 1.059e+04 4.250e-09
 80.56354     26.3 1.063e+04 4.378e-09
 80.57341     26.6 1.070e+04 5.186e-09
 80.58483     28.1 1.077e+04 5.271e-09
 80.60457     29.7 1.079e+04 5.161e-09
 80.61674     31.1 1.081e+04 4.972e-09
 80.62661     31.1 1.086e+04 5.519e-09
 80.64404     32.9 1.066e+04 4.853e-09
 80.66377     34.2 1.058e+04 4.485e-09
 80.68350     36.3 1.034e+04 3.737e-09
 80.70324     36.9 1.037e+04 3.651e-09
 80.72297     39.2 1.012e+04 3.186e-09
 80.74271     40.1 1.010e+04 3.132e-09
 80.75587     42.5 9.931e+03 2.978e-09
 80.77571     43.0 9.811e+03 2.756e-09
 80.81197     46.5 9.787e+03 2.877e-09
 80.85144     50.0 9.823e+03 3.178e-09
 80.88095     51.8 9.838e+03 3.501e-09
 80.89501     53.4 9.833e+03 3.774e-09
 80.90487     53.6 9.693e+03 3.494e-09
 80.92032     55.3 9.712e+03 3.812e-09
 80.94005     56.9 9.752e+03 4.197e-09
 80.95979     58.5 9.767e+03 4.618e-09
 80.97952     60.2 9.803e+03 5.054e-09
 80.99925     61.9 9.861e+03 5.506e-09
 81.01899     63.5 9.912e+03 5.863e-09
 81.03414     65.1 9.923e+03 5.928e-09
 81.04401     65.2 9.704e+03 5.135e-09
 81.05846     66.7 9.693e+03 5.118e-09
 81.07819     68.2 9.636e+03 5.044e-09
 81.09793     69.7 9.531e+03 4.850e-09
 81.11766     71.2 9.396e+03 4.496e-09
 81.13739     72.7 9.218e+03 3.989e-09
 81.16120     75.1 9.049e+03 3.370e-09
 81.17734     75.5 8.940e+03 3.072e-09
 81.18314     75.7 8.928e+03 3.032e-09
 81.20656     78.0 8.799e+03 2.713e-09
 81.24613     81.3 8.599e+03 2.386e-09
 81.28560     84.5 8.436e+03 2.190e-09
 81.31260     87.9 8.308e+03 2.066e-09
 81.33233     88.6 8.257e+03 1.949e-09
 81.36453     92.0 8.171e+03 1.877e-09
 81.40400     95.5 8.101e+03 1.838e-09
 81.44347     98.9 8.028e+03 1.793e-09
 81.48294    102.6 7.976e+03 1.758e-09
 81.52241    106.2 7.981e+03 1.762e-09
 81.56188    110.1 8.029e+03 1.821e-09
 81.59086    113.8 8.276e+03 2.010e-09
 81.61059    114.4 8.380e+03 2.138e-09
 81.63085    115.7 8.530e+03 2.377e-09
 81.65049    116.9 8.757e+03 2.949e-09
 81.67022    118.4 9.082e+03 3.978e-09
 81.68996    120.2 9.511e+03 5.464e-09
 81.70969    121.9 9.997e+03 7.385e-09
 81.72942    123.6 1.049e+04 9.608e-09
 81.73966    125.3 1.093e+04 1.183e-08
 81.74953    125.6 1.100e+04 1.224e-08
 81.76853    127.2 1.143e+04 1.483e-08
 81.77839    128.1 1.087e+04 1.161e-08
 81.78863    129.7 1.130e+04 1.407e-08
 81.80836    131.4 1.167e+04 1.642e-08
 81.82810    133.0 1.197e+04 1.830e-08
 81.84783    134.6 1.219e+04 1.959e-08
 81.86757    136.2 1.233e+04 2.036e-08
 81.87879    137.8 1.244e+04 2.081e-08
 81.88866    137.8 1.254e+04 2.158e-08
 81.90703    139.3 1.258e+04 2.173e-08
 81.92677    140.9 1.260e+04 2.189e-08
 81.94650    142.7 1.259e+04 2.192e-08
 81.96624    144.6 1.262e+04 2.166e-08
 81.98597    146.4 1.266e+04 2.107e-08
 82.00571    148.1 1.266e+04 2.029e-08
 82.01793    149.6 1.263e+04 1.945e-08
 82.02779    149.4 1.166e+04 1.276e-08
 82.04517    150.8 1.164e+04 1.245e-08
 82.06491    152.0 1.165e+04 1.251e-08
 82.08464    153.1 1.173e+04 1.294e-08
 82.10438    154.0 1.192e+04 1.384e-08
 82.12411    154.9 1.218e+04 1.516e-08
 82.14385    155.7 1.250e+04 1.688e-08
 82.15706    156.4 1.283e+04 1.881e-08
 82.16693    156.7 1.267e+04 1.772e-08
 82.18331    157.2 1.311e+04 2.011e-08
 82.20305    157.3 1.341e+04 2.091e-08
 82.22278    157.3 1.344e+04 2.063e-08
 82.24252    157.2 1.340e+04 1.953e-08
 82.26225    157.1 1.323e+04 1.749e-08
 82.28199    156.9 1.300e+04 1.540e-08
 82.29619    156.5 1.281e+04 1.397e-08
 82.30606    155.3 1.265e+04 1.317e-08
 82.32146    154.7 1.243e+04 1.223e-08
 82.34119    154.2 1.227e+04 1.135e-08
 82.36092    153.7 1.226e+04 1.045e-08
 82.37595    152.7 1.247e+04 1.079e-08
 82.38582    152.1 1.240e+04 1.016e-08
 82.40039    148.5 1.382e+04 1.150e-08
 82.42013    142.2 1.616e+04 1.613e-08
 82.43488    137.7 1.743e+04 2.221e-08
 82.44016    133.5 1.846e+04 3.228e-08
 82.44509    128.4 1.928e+04 5.217e-08
 82.45456    124.7 1.964e+04 8.008e-08
 82.46443    122.2 1.948e+04 9.764e-08
 82.47430    116.3 2.379e+04 1.164e-07
 82.48417     89.8 3.166e+04 3.838e-07
 82.49154     66.0 2.561e+04 1.972e-06
 82.49645     63.1 2.320e+04 2.647e-06
 82.50388     50.6 2.013e+04 4.188e-06
 82.50972     39.3 2.013e+04 2.268e-06
 82.51466     31.7 2.130e+04 9.005e-07
 82.52363     19.9 2.924e+04 7.273e-08
 82.53350      0.8 2.452e+04 1.098e-08
 82.54337     -5.6 1.518e+04 1.181e-08
 82.55822     -9.0 1.289e+04 9.354e-09
 82.57445    -11.4 1.179e+04 7.698e-09
 82.58432    -11.8 1.165e+04 8.044e-09
 82.59774    -12.1 1.145e+04 7.265e-09
 82.61747    -12.6 1.114e+04 6.332e-09
 82.63720    -13.5 1.093e+04 5.473e-09
 82.65694    -14.9 1.070e+04 4.892e-09
 82.67667    -16.5 1.052e+04 4.658e-09
 82.69641    -18.3 1.054e+04 4.737e-09
 82.71358    -20.0 1.068e+04 5.094e-09
 82.72345    -18.7 1.059e+04 5.264e-09
 82.73588    -19.8 1.070e+04 5.813e-09
 82.75561    -20.7 1.076e+04 6.183e-09
 82.77535    -21.1 1.077e+04 6.582e-09
 82.79508    -21.4 1.074e+04 6.907e-09
 82.81481    -21.8 1.085e+04 7.193e-09
 82.83455    -22.6 1.113e+04 7.609e-09
 82.85272    -23.8 1.157e+04 8.395e-09
 82.86258    -20.7 1.108e+04 7.693e-09
 82.87402    -22.4 1.177e+04 9.108e-09
 82.89375    -23.9 1.287e+04 1.269e-08
 82.90850    -26.1 1.365e+04 1.909e-08
 82.91832    -26.4 1.439e+04 2.149e-08
 82.92712    -28.9 1.585e+04 3.594e-08
 82.93205    -27.5 1.506e+04 3.135e-08
 82.93806    -28.7 1.615e+04 4.224e-08
 82.94792    -31.4 1.780e+04 7.371e-08
 82.95779    -35.4 2.017e+04 1.739e-07
 82.96766    -38.6 2.046e+04 6.359e-07
 82.97752    -40.8 1.998e+04 1.614e-06
 82.98328    -43.2 2.120e+04 1.823e-06
 82.98822    -46.4 2.325e+04 1.141e-06
 82.99668    -47.9 2.468e+04 7.462e-07
 83.00162    -44.1 2.335e+04 8.890e-07
 83.00713    -45.7 2.506e+04 6.540e-07
 83.01699    -46.2 2.574e+04 4.869e-07
 83.02686    -46.6 2.758e+04 3.030e-07
 83.03673    -46.7 2.884e+04 1.669e-07
 83.04659    -45.0 2.879e+04 1.119e-07
 83.05646    -46.6 2.860e+04 7.385e-08
 83.06625    -43.5 2.809e+04 5.690e-08
 83.07118    -41.0 2.879e+04 1.008e-07
 83.07620    -41.3 2.805e+04 8.078e-08
 83.09105    -48.2 2.435e+04 4.057e-08
 83.11083    -48.2 2.034e+04 2.666e-08
 83.13056    -47.5 1.649e+04 1.860e-08
 83.14085    -46.1 1.367e+04 1.534e-08
 83.15071    -41.0 2.227e+04 5.157e-08
 83.17003    -40.4 1.963e+04 3.597e-08
 83.18977    -39.3 1.674e+04 2.568e-08
 83.20950    -37.7 1.454e+04 1.933e-08
 83.22924    -36.3 1.304e+04 1.581e-08
 83.24897    -35.1 1.254e+04 1.447e-08
 83.26870    -34.1 1.244e+04 1.405e-08
 83.27998    -33.2 1.262e+04 1.457e-08
 83.28985    -30.4 1.344e+04 1.937e-08
 83.30817    -30.4 1.417e+04 2.232e-08
 83.32791    -30.8 1.523e+04 3.005e-08
 83.34764    -31.5 1.619e+04 4.244e-08
 83.36738    -31.5 1.676e+04 5.783e-08
 83.38711    -31.1 1.683e+04 6.867e-08
 83.40684    -30.8 1.667e+04 7.007e-08
 83.41911    -30.3 1.607e+04 6.003e-08
 83.42400    -29.6 1.719e+04 1.453e-07
 83.43141    -29.3 1.681e+04 1.207e-07
 83.44626    -29.1 1.628e+04 9.117e-08
 83.46605    -29.2 1.521e+04 5.049e-08
 83.48578    -30.2 1.418e+04 3.398e-08
 83.50552    -30.4 1.327e+04 2.612e-08
 83.52525    -29.7 1.294e+04 2.371e-08
 83.54498    -28.6 1.285e+04 2.295e-08
 83.55824    -27.6 1.284e+04 2.205e-08
 83.56811    -28.2 1.384e+04 4.155e-08
 83.58094    -27.5 1.430e+04 4.357e-08
 83.59081    -27.1 1.485e+04 4.270e-08
 83.60419    -27.1 1.560e+04 4.525e-08
 83.62392    -27.6 1.677e+04 5.172e-08
 83.64366    -28.6 1.829e+04 6.665e-08
 83.65841    -30.4 1.906e+04 1.158e-07
 83.66823    -30.8 1.937e+04 1.459e-07
 83.67809    -31.6 1.941e+04 2.031e-07
 83.68796    -32.1 1.943e+04 2.939e-07
 83.69728    -32.7 1.922e+04 4.312e-07
 83.70221    -33.7 1.867e+04 8.961e-07
 83.70770    -33.8 1.849e+04 1.097e-06
 83.71756    -33.4 1.833e+04 1.305e-06
 83.72743    -32.9 1.830e+04 1.413e-06
 83.73730    -32.8 1.842e+04 1.349e-06
 83.74716    -33.1 1.871e+04 1.024e-06
 83.75703    -33.8 1.924e+04 6.716e-07
 83.76684    -34.9 2.002e+04 4.443e-07
 83.77178    -38.9 2.181e+04 5.958e-08
 83.77677    -40.9 2.169e+04 4.037e-08
 83.78663    -42.8 2.123e+04 3.050e-08
 83.79650    -44.2 2.061e+04 2.471e-08
 83.80637    -45.2 2.012e+04 2.163e-08
 83.81623    -46.4 1.966e+04 1.995e-08
 83.82610    -47.4 1.905e+04 1.885e-08
 83.83597    -48.4 1.788e+04 1.738e-08
 83.84134    -49.3 1.598e+04 1.589e-08
 83.84627    -51.0 1.080e+04 9.738e-09
 83.86069    -50.9 1.109e+04 1.151e-08
 83.88047    -50.9 1.153e+04 1.427e-08
 83.90020    -50.2 1.172e+04 1.654e-08
 83.91994    -48.9 1.172e+04 1.737e-08
 83.93967    -47.3 1.153e+04 1.684e-08
 83.95941    -45.7 1.113e+04 1.426e-08
 83.97564    -44.7 1.076e+04 1.197e-08
 83.98550    -44.0 1.046e+04 1.072e-08
 83.99887    -43.1 1.033e+04 1.050e-08
 84.01861    -42.1 1.027e+04 1.038e-08
 84.03834    -40.8 1.022e+04 1.061e-08
 84.05808    -39.5 1.021e+04 1.075e-08
 84.07781    -38.2 1.020e+04 1.070e-08
 84.09755    -37.1 1.014e+04 1.030e-08
 84.11477    -36.1 9.982e+03 9.745e-09
 84.12464    -35.2 1.012e+04 1.046e-08
 84.13702    -34.3 9.850e+03 9.458e-09
 84.15675    -33.3 9.554e+03 8.542e-09
 84.17648    -32.0 9.268e+03 7.593e-09
 84.18837    -30.7 8.969e+03 6.506e-09
 84.19823    -30.5 9.485e+03 8.428e-09
 84.21595    -29.3 9.093e+03 6.777e-09
 84.23569    -28.2 8.757e+03 5.445e-09
 84.25390    -27.4 8.505e+03 4.526e-09
 84.26377    -27.0 8.634e+03 4.845e-09
 84.27516    -26.4 8.328e+03 4.083e-09
 84.29489    -25.4 8.249e+03 3.906e-09
 84.31462    -24.4 8.379e+03 4.098e-09
 84.33436    -23.6 8.474e+03 4.421e-09
 84.35409    -22.2 8.609e+03 4.963e-09
 84.37383    -21.0 8.642e+03 5.350e-09
 84.39303    -19.4 8.948e+03 6.057e-09
 84.40290    -19.0 8.974e+03 6.185e-09
 84.41330    -18.2 9.060e+03 6.530e-09
 84.43303    -16.9 9.352e+03 7.362e-09
 84.45276    -15.8 9.589e+03 7.926e-09
 84.47250    -14.7 9.656e+03 8.217e-09
 84.49223    -14.1 9.546e+03 7.839e-09
 84.51197    -13.2 9.453e+03 7.680e-09
 84.53170    -12.4 9.517e+03 7.714e-09
 84.54203    -11.9 9.724e+03 7.732e-09
 84.55190    -11.7 9.780e+03 8.077e-09
 84.57117    -11.7 9.799e+03 8.082e-09
 84.59091    -11.2 9.984e+03 7.892e-09
 84.61064    -10.7 1.006e+04 8.092e-09
 84.63037    -10.7 9.997e+03 7.749e-09
 84.65011    -10.6 1.028e+04 8.552e-09
 84.66984    -11.2 1.128e+04 1.106e-08
 84.68116    -12.1 1.261e+04 1.680e-08
 84.69103    -12.0 1.167e+04 1.331e-08
 84.70931    -11.6 1.283e+04 1.904e-08
 84.72905    -10.9 1.524e+04 2.642e-08
 84.74878    -10.8 1.707e+04 3.162e-08
 84.76851    -12.1 1.706e+04 3.830e-08
 84.78593    -13.1 1.653e+04 5.800e-08
 84.79579    -11.6 1.536e+04 1.297e-08
 84.80798    -12.8 1.670e+04 2.102e-08
 84.82025    -13.5 1.773e+04 3.246e-08
 84.83011    -14.4 1.709e+04 2.397e-08
 84.84247    -15.6 1.925e+04 5.552e-08
 84.85229    -17.1 2.029e+04 9.446e-08
 84.86216    -18.6 2.169e+04 1.792e-07
 84.87202    -21.2 2.070e+04 4.382e-07
 84.88189    -23.0 1.870e+04 1.358e-06
 84.88976    -23.9 1.748e+04 3.341e-06
 84.89470    -24.6 1.730e+04 5.686e-06
 84.90162    -25.9 1.699e+04 7.388e-06
 84.91149    -26.1 1.762e+04 3.306e-06
 84.92136    -25.1 1.910e+04 6.824e-07
 84.93123    -26.2 1.965e+04 2.482e-07
 84.94607    -28.4 1.779e+04 1.023e-07
 84.95943    -30.0 1.550e+04 3.846e-08
 84.96929    -32.1 1.493e+04 3.091e-08
 84.98559    -33.0 1.271e+04 1.835e-08
 85.00533    -33.3 1.207e+04 1.648e-08
 85.02506    -32.9 1.196e+04 1.850e-08
 85.04480    -32.4 1.243e+04 2.255e-08
 85.06453    -31.6 1.257e+04 2.552e-08
 85.08426    -30.7 1.253e+04 2.609e-08
 85.09856    -30.3 1.221e+04 2.429e-08
 85.10842    -30.4 1.236e+04 2.593e-08
 85.12373    -30.3 1.232e+04 2.514e-08
 85.14347    -31.0 1.266e+04 2.590e-08
 85.16320    -32.2 1.289e+04 2.820e-08
 85.18294    -32.7 1.281e+04 2.933e-08
 85.20267    -32.6 1.238e+04 2.794e-08
 85.22240    -32.2 1.151e+04 1.966e-08
 85.23769    -32.9 1.045e+04 1.159e-08
 85.24756    -32.4 1.063e+04 1.233e-08
 85.26187    -34.0 9.576e+03 7.302e-09
 85.28161    -34.6 8.740e+03 4.957e-09
 85.30134    -34.6 8.342e+03 3.885e-09
 85.32108    -34.0 8.110e+03 3.359e-09
 85.35078    -33.6 8.082e+03 3.408e-09
 85.39034    -32.6 7.871e+03 3.121e-09
 85.42981    -32.5 8.529e+03 4.779e-09
 85.46928    -31.5 9.617e+03 8.572e-09
 85.50628    -29.1 1.027e+04 1.214e-08
 85.52592    -28.5 1.077e+04 1.439e-08
 85.53815    -27.4 1.067e+04 1.417e-08
 85.55789    -25.9 1.066e+04 1.381e-08
 85.57762    -24.3 1.063e+04 1.293e-08
 85.59736    -22.5 1.038e+04 1.083e-08
 85.61709    -20.9 9.807e+03 8.715e-09
 85.63683    -19.4 9.585e+03 6.959e-09
 85.65508    -18.4 9.092e+03 4.813e-09
 85.66495    -18.9 9.726e+03 5.007e-09
 85.67629    -17.3 9.603e+03 4.381e-09
 85.70599    -15.3 9.883e+03 4.192e-09
 85.74556    -12.5 9.798e+03 3.974e-09
 85.77506    -10.7 1.010e+04 5.920e-09
 85.79422     -9.6 1.039e+04 7.441e-09
 85.80408    -10.8 1.273e+04 1.569e-08
 85.81444     -9.9 1.318e+04 1.976e-08
 85.83417     -8.6 1.361e+04 2.760e-08
 85.85390     -7.4 1.418e+04 3.562e-08
 85.87364     -6.3 1.460e+04 4.405e-08
 85.89337     -5.7 1.523e+04 5.338e-08
 85.91311     -5.8 1.568e+04 6.287e-08
 85.93284     -6.0 1.610e+04 7.721e-08
 85.94321     -5.5 1.608e+04 8.691e-08
 85.95308     -6.9 1.636e+04 9.499e-08
 85.97231     -5.8 1.589e+04 8.582e-08
 85.99091     -4.3 1.542e+04 6.161e-08
 86.00078     -3.8 1.543e+04 6.201e-08
 86.01178     -3.4 1.460e+04 3.710e-08
 86.03151     -3.8 1.314e+04 2.252e-08
 86.05125     -4.2 1.194e+04 1.392e-08
 86.07098     -4.3 1.145e+04 1.042e-08
 86.08235     -4.2 1.113e+04 9.280e-09
 86.09221     -5.2 1.104e+04 8.103e-09
 86.11045     -4.7 1.094e+04 7.883e-09
 86.13018     -4.2 1.110e+04 8.284e-09
 86.14992     -4.2 1.140e+04 9.523e-09
 86.16965     -5.0 1.192e+04 1.190e-08
 86.18939     -6.8 1.298e+04 1.720e-08
 86.20912     -8.0 1.355e+04 2.796e-08
 86.22148     -7.9 1.415e+04 4.004e-08
 86.23134     -8.0 1.394e+04 3.928e-08
 86.24859     -7.8 1.402e+04 3.724e-08
 86.26833     -7.4 1.382e+04 2.289e-08
 86.28806     -9.7 1.345e+04 1.200e-08
 86.30779    -13.6 1.229e+04 7.484e-09
 86.32753    -15.9 1.236e+04 6.863e-09
 86.34726    -21.8 1.607e+04 1.424e-08
 86.36061    -30.2 1.918e+04 7.105e-08
 86.37048    -23.5 1.776e+04 1.485e-08
 86.38175    -31.5 1.998e+04 7.326e-08
 86.39157    -34.8 2.009e+04 1.658e-07
 86.40143    -38.4 1.972e+04 4.514e-07
 86.41130    -43.4 2.041e+04 7.294e-07
 86.42117    -52.2 2.140e+04 7.533e-07
 86.43008    -66.2 2.383e+04 3.145e-07
 86.43501    -60.6 2.330e+04 6.011e-07
 86.44090    -76.0 2.304e+04 2.103e-07
 86.45077    -86.6 1.929e+04 1.035e-07
 86.46562    -92.1 1.780e+04 7.953e-08
 86.48540   -101.8 1.530e+04 4.925e-08
 86.49974   -108.6 1.362e+04 3.020e-08
 86.50961   -110.4 1.397e+04 3.517e-08
 86.52487   -114.5 1.317e+04 2.588e-08
 86.54461   -117.5 1.258e+04 2.120e-08
 86.56434   -119.9 1.206e+04 1.764e-08
 86.58407   -121.8 1.160e+04 1.522e-08
 86.59834   -123.2 1.128e+04 1.379e-08
 86.60821   -123.8 1.119e+04 1.356e-08
 86.62354   -124.5 1.099e+04 1.288e-08
 86.63887   -124.9 1.084e+04 1.237e-08
 86.64874   -126.1 1.096e+04 1.249e-08
 86.66301   -126.4 1.084e+04 1.209e-08
 86.68275   -126.7 1.080e+04 1.200e-08
 86.70248   -127.1 1.082e+04 1.204e-08
 86.72222   -127.8 1.116e+04 1.336e-08
 86.74195   -128.5 1.182e+04 1.705e-08
 86.76168   -129.1 1.248e+04 2.271e-08
 86.77800   -129.5 1.295e+04 2.820e-08
 86.78787   -130.2 1.273e+04 2.505e-08
 86.80115   -130.5 1.299e+04 2.780e-08
 86.82089   -130.7 1.305e+04 2.827e-08
 86.84062   -131.0 1.300e+04 2.691e-08
 86.86036   -131.5 1.283e+04 2.343e-08
 86.88009   -132.2 1.266e+04 2.134e-08
 86.89982   -132.7 1.259e+04 2.095e-08
 86.91714   -132.9 1.259e+04 2.118e-08
 86.92700   -132.8 1.284e+04 2.038e-08
 86.93929   -132.9 1.284e+04 2.262e-08
 86.95903   -132.8 1.272e+04 2.463e-08
 86.97876   -132.1 1.259e+04 2.497e-08
 86.99850   -131.0 1.226e+04 2.396e-08
 87.01823   -129.7 1.183e+04 2.108e-08
 87.03796   -128.6 1.137e+04 1.696e-08
 87.05627   -127.4 1.089e+04 1.295e-08
 87.06613   -127.5 1.113e+04 1.488e-08
 87.07743   -126.4 1.067e+04 1.148e-08
 87.09717   -125.4 1.030e+04 8.784e-09
 87.11690   -124.4 1.002e+04 6.831e-09
 87.13664   -123.6 9.823e+03 5.504e-09
 87.15637   -122.8 9.665e+03 4.607e-09
 87.17611   -121.9 9.541e+03 4.047e-09
 87.19540   -121.0 9.466e+03 3.748e-09
 87.20527   -121.6 9.693e+03 4.495e-09
 87.21557   -121.2 9.577e+03 3.361e-09
 87.23531   -120.3 9.547e+03 3.348e-09
 87.25504   -119.3 9.514e+03 3.351e-09
 87.28474   -118.7 9.491e+03 3.255e-09
 87.32431   -116.9 9.447e+03 3.085e-09
 87.36378   -114.6 9.398e+03 2.894e-09
 87.40325   -112.1 9.390e+03 2.751e-09
 87.44271   -109.5 9.395e+03 2.707e-09
 87.47386   -107.2 9.420e+03 2.718e-09
 87.49359   -108.2 9.419e+03 2.588e-09
 87.52165   -106.1 9.646e+03 3.262e-09
 87.56112   -104.5 9.997e+03 4.732e-09
 87.60059   -103.3 1.056e+04 7.250e-09
 87.62276   -102.8 1.115e+04 1.077e-08
 87.63253   -102.0 1.109e+04 1.059e-08
 87.64973   -101.8 1.146e+04 1.241e-08
 87.66946   -101.5 1.199e+04 1.590e-08
 87.68920   -101.2 1.237e+04 1.828e-08
 87.70893   -101.2 1.262e+04 1.991e-08
 87.72867   -101.2 1.275e+04 2.027e-08
 87.74840   -101.5 1.308e+04 1.767e-08
 87.76179   -102.1 1.310e+04 1.354e-08
 87.77166    -99.4 1.339e+04 2.070e-08
 87.78787    -99.9 1.349e+04 1.691e-08
 87.80333   -101.0 1.359e+04 1.227e-08
 87.81319   -102.7 1.397e+04 1.794e-08
 87.82734   -104.4 1.291e+04 1.397e-08
 87.84707   -106.2 1.209e+04 1.258e-08
 87.86681   -107.6 1.193e+04 1.278e-08
 87.88654   -108.5 1.195e+04 1.368e-08
 87.90092   -109.0 1.197e+04 1.366e-08
 87.91079   -109.3 1.209e+04 1.359e-08
 87.92601   -109.9 1.195e+04 1.189e-08
 87.94574   -110.3 1.180e+04 1.006e-08
 87.96548   -110.5 1.169e+04 9.082e-09
 87.98521   -110.6 1.166e+04 8.889e-09
 88.00495   -110.6 1.177e+04 9.166e-09
 88.02468   -110.5 1.208e+04 1.034e-08
 88.04006   -110.3 1.235e+04 1.138e-08
 88.04992   -110.7 1.245e+04 1.194e-08
 88.06415   -110.3 1.252e+04 1.203e-08
 88.08389   -109.9 1.253e+04 1.177e-08
 88.10362   -109.3 1.242e+04 1.075e-08
 88.12335   -108.5 1.220e+04 9.332e-09
 88.14309   -107.6 1.197e+04 7.799e-09
 88.16282   -106.6 1.177e+04 6.308e-09
 88.17919   -105.5 1.163e+04 4.922e-09
 88.18906   -105.8 1.157e+04 4.413e-09
 88.20229   -104.6 1.145e+04 3.478e-09
 88.22203   -103.4 1.138e+04 2.771e-09
 88.24176   -102.2 1.138e+04 2.291e-09
 88.27146   -100.6 1.148e+04 1.944e-09
 88.30865    -98.8 1.156e+04 1.725e-09
 88.32828    -98.4 1.154e+04 1.688e-09
 88.35040    -96.9 1.168e+04 1.709e-09
 88.38996    -94.1 1.165e+04 1.681e-09
 88.41095    -91.4 1.170e+04 1.721e-09
 88.43068    -91.1 1.146e+04 1.496e-09
 88.46890    -88.5 1.164e+04 1.701e-09
 88.50837    -86.1 1.181e+04 2.019e-09
 88.54784    -83.9 1.196e+04 2.396e-09
 88.57734    -82.4 1.202e+04 2.558e-09
 88.59658    -81.6 1.206e+04 2.948e-09
 88.60645    -80.8 1.202e+04 2.449e-09
 88.61671    -79.7 1.206e+04 2.754e-09
 88.63645    -78.6 1.212e+04 3.079e-09
 88.66615    -77.1 1.227e+04 3.456e-09
 88.70571    -74.9 1.251e+04 4.039e-09
 88.74518    -72.6 1.270e+04 4.207e-09
 88.77469    -70.7 1.290e+04 4.789e-09
 88.79432    -69.6 1.283e+04 3.507e-09
 88.81406    -68.4 1.293e+04 2.619e-09
 88.83379    -67.3 1.305e+04 1.917e-09
 88.85352    -66.4 1.269e+04 1.529e-09
 88.87326    -65.6 1.202e+04 1.464e-09
 88.88481    -64.5 1.186e+04 1.418e-09
 88.89468    -63.7 1.201e+04 1.571e-09
 88.91273    -62.7 1.170e+04 1.512e-09
 88.93246    -61.9 1.144e+04 1.583e-09
 88.95220    -61.0 1.116e+04 1.882e-09
 88.97193    -60.3 1.104e+04 2.307e-09
 88.99167    -59.5 1.099e+04 2.989e-09
 89.00831    -58.6 1.092e+04 3.859e-09
 89.01818    -58.2 1.086e+04 3.536e-09
 89.02385    -57.3 1.078e+04 4.443e-09
 89.03371    -57.0 1.075e+04 4.372e-09
 89.05087    -56.3 1.068e+04 5.267e-09
 89.07060    -55.7 1.062e+04 5.981e-09
 89.09034    -55.2 1.056e+04 6.324e-09
 89.11007    -54.9 1.053e+04 6.395e-09
 89.13977    -54.4 1.034e+04 6.318e-09
 89.16317    -52.4 9.749e+03 5.011e-09
 89.18291    -52.3 9.662e+03 4.769e-09
 89.21881    -50.3 9.106e+03 2.916e-09
 89.25827    -48.3 8.628e+03 2.042e-09
 89.29774    -46.1 8.335e+03 1.784e-09
 89.33721    -43.7 8.161e+03 1.711e-09
 89.37668    -41.1 7.980e+03 1.667e-09
 89.41615    -38.4 7.794e+03 1.565e-09
 89.44144    -35.7 7.657e+03 1.382e-09
 89.46117    -35.3 7.503e+03 1.239e-09
 89.49509    -32.9 7.435e+03 1.181e-09
 89.53456    -30.9 7.478e+03 1.219e-09
 89.57402    -29.9 7.741e+03 1.834e-09
 89.60607    -28.5 8.194e+03 3.399e-09
 89.62580    -28.4 7.989e+03 2.888e-09
 89.65296    -26.7 8.290e+03 3.900e-09
 89.69243    -25.6 8.368e+03 4.160e-09
 89.71970    -25.0 8.115e+03 3.583e-09
 89.73943    -25.0 8.308e+03 4.593e-09
 89.77137    -24.7 8.060e+03 4.031e-09
 89.81084    -24.6 7.900e+03 3.721e-09
 89.85030    -24.7 7.948e+03 3.744e-09
 89.87981    -24.7 8.160e+03 4.279e-09
 89.89945    -25.0 8.248e+03 4.390e-09
 89.91918    -25.7 8.270e+03 4.502e-09
 89.93891    -26.3 8.286e+03 4.582e-09
 89.95865    -27.1 8.335e+03 4.490e-09
 89.97838    -28.1 8.418e+03 4.473e-09
 89.99777    -29.4 8.387e+03 4.400e-09
 90.00763    -29.2 8.396e+03 4.544e-09
 90.01785    -29.9 8.494e+03 4.541e-09
 90.04755    -31.0 8.332e+03 4.209e-09
 90.07715    -32.1 8.291e+03 4.144e-09
 90.09679    -32.2 8.416e+03 4.415e-09
 90.11652    -32.2 8.542e+03 4.584e-09
 90.13626    -32.3 8.661e+03 4.732e-09
 90.14677    -32.4 8.887e+03 5.087e-09
 90.15663    -32.3 8.865e+03 5.034e-09
 90.17573    -32.6 9.192e+03 5.648e-09
 90.19546    -32.9 9.838e+03 7.370e-09
 90.21330    -33.3 1.051e+04 9.522e-09
 90.22317    -32.6 9.783e+03 7.313e-09
 90.23493    -32.6 1.048e+04 1.025e-08
 90.25466    -32.5 1.116e+04 1.354e-08
 90.27440    -31.9 1.188e+04 1.927e-08
 90.28590    -31.3 1.225e+04 2.462e-08
 90.29576    -30.8 1.117e+04 1.374e-08
 90.31387    -29.9 1.132e+04 1.523e-08
 90.33360    -29.2 1.117e+04 1.525e-08
 90.35334    -28.1 1.092e+04 1.396e-08
 90.37307    -27.1 1.078e+04 1.217e-08
 90.39280    -26.4 1.055e+04 1.059e-08
 90.41254    -25.6 1.038e+04 9.477e-09
 90.44224    -24.3 1.030e+04 8.411e-09
 90.48180    -21.6 1.022e+04 8.361e-09
 90.52127    -19.1 1.042e+04 1.042e-08
 90.55449    -16.2 1.067e+04 1.185e-08
 90.57413    -15.0 1.164e+04 1.876e-08
 90.59015    -14.0 1.182e+04 2.214e-08
 90.60988    -12.3 1.193e+04 2.390e-08
 90.62962    -10.8 1.182e+04 2.319e-08
 90.64935     -9.0 1.188e+04 2.137e-08
 90.67905     -7.5 1.181e+04 1.760e-08
 90.71862     -4.8 1.181e+04 1.585e-08
 90.74812     -2.8 1.164e+04 1.479e-08
 90.76776     -1.2 1.191e+04 1.786e-08
 90.78749      0.7 1.242e+04 2.356e-08
 90.80723      2.7 1.270e+04 2.664e-08
 90.82073      4.5 1.304e+04 3.072e-08
 90.83060      4.1 1.245e+04 2.546e-08
 90.84242      6.3 1.290e+04 3.436e-08
 90.85229      6.9 1.233e+04 1.826e-08
 90.86643      9.4 1.257e+04 2.337e-08
 90.88616     11.6 1.323e+04 2.917e-08
 90.90590     13.4 1.491e+04 3.990e-08
 90.92563     14.4 1.764e+04 6.520e-08
 90.94537     15.6 1.907e+04 1.123e-07
 90.96510     17.8 1.863e+04 1.677e-07
 90.98156     20.5 1.780e+04 1.660e-07
 90.99137     24.2 1.879e+04 2.969e-07
 90.99954     26.3 1.882e+04 2.671e-07
 91.00940     28.2 1.831e+04 1.973e-07
 91.01927     29.4 1.863e+04 1.471e-07
 91.02914     30.5 1.796e+04 1.019e-07
 91.03901     30.0 1.946e+04 5.964e-08
 91.04887     24.3 3.031e+04 3.614e-08
 91.05596      0.5 6.168e+04 1.549e-08
 91.06089     -7.1 4.963e+04 1.431e-07
 91.06861    -30.5 2.411e+04 1.709e-06
 91.07848    -48.3 1.921e+04 3.847e-06
 91.08834    -60.8 1.878e+04 4.790e-06
 91.09572    -68.1 1.917e+04 4.856e-06
 91.10063    -71.9 2.146e+04 3.580e-06
 91.10556    -77.7 2.577e+04 1.475e-06
 91.11049    -83.1 3.059e+04 5.534e-07
 91.11543    -92.8 3.072e+04 2.483e-07
 91.12036    -96.4 2.748e+04 2.502e-07
 91.12429    -99.1 2.522e+04 2.863e-07
 91.12676   -104.8 2.475e+04 3.383e-07
 91.12794   -104.6 2.278e+04 4.502e-07
 91.13043   -106.4 2.286e+04 2.616e-07
 91.13768   -103.1 2.130e+04 4.459e-07
 91.14755    -99.5 2.027e+04 6.332e-07
 91.15741    -95.9 1.978e+04 7.314e-07
 91.16728    -92.3 1.932e+04 6.792e-07
 91.17715    -89.1 1.928e+04 5.154e-07
 91.18701    -86.4 1.964e+04 3.101e-07
 91.19509    -84.5 2.025e+04 1.462e-07
 91.20002    -83.9 1.972e+04 2.093e-07
 91.20675    -83.0 1.976e+04 1.051e-07
 91.21662    -82.9 1.884e+04 5.295e-08
 91.22648    -84.1 1.682e+04 3.048e-08
 91.23635    -84.5 1.483e+04 2.088e-08
 91.24622    -83.9 1.433e+04 1.679e-08
 91.25977    -82.7 1.395e+04 1.231e-08
 91.26969    -81.4 1.482e+04 2.932e-08
 91.28085    -79.5 1.392e+04 2.104e-08
 91.30058    -77.7 1.308e+04 1.469e-08
 91.32032    -76.0 1.254e+04 1.194e-08
 91.34005    -74.5 1.231e+04 1.110e-08
 91.35979    -72.8 1.225e+04 1.093e-08
 91.37952    -71.1 1.225e+04 1.092e-08
 91.39895    -69.7 1.232e+04 9.975e-09
 91.40882    -69.8 1.269e+04 1.361e-08
 91.41829    -68.6 1.261e+04 1.216e-08
 91.42815    -68.8 1.230e+04 9.242e-09
 91.43872    -67.8 1.222e+04 8.509e-09
 91.46842    -66.8 1.202e+04 7.706e-09
 91.50799    -64.7 1.147e+04 5.475e-09
 91.54746    -62.8 1.103e+04 4.185e-09
 91.58693    -60.6 1.068e+04 3.003e-09
 91.62640    -58.2 1.050e+04 2.041e-09
 91.66587    -55.9 1.040e+04 1.438e-09
 91.68728    -53.7 1.026e+04 1.110e-09
 91.70701    -53.5 1.020e+04 1.055e-09
 91.74480    -51.2 1.012e+04 8.374e-10
 91.78427    -49.0 1.008e+04 7.054e-10
 91.82374    -46.7 1.005e+04 6.424e-10
 91.86321    -44.5 1.004e+04 6.269e-10
 91.90268    -42.4 1.008e+04 6.280e-10
 91.94215    -40.5 1.019e+04 6.966e-10
 91.96554    -38.9 1.020e+04 9.014e-10
 91.98527    -38.4 1.008e+04 7.123e-10
 92.01604    -36.8 1.012e+04 8.446e-10
 92.03578    -35.7 1.023e+04 7.348e-10
 92.06055    -34.5 1.033e+04 9.038e-10
 92.10002    -33.9 1.042e+04 1.355e-09
 92.13949    -33.8 1.060e+04 2.448e-09
 92.17896    -33.6 1.093e+04 4.410e-09
 92.21843    -33.6 1.131e+04 6.450e-09
 92.24380    -34.4 1.145e+04 7.050e-09
 92.26354    -33.2 1.082e+04 3.957e-09
 92.29736    -33.2 1.065e+04 2.855e-09
 92.33683    -33.2 1.053e+04 2.127e-09
 92.37630    -32.7 1.045e+04 2.030e-09
 92.41577    -31.6 1.053e+04 2.382e-09
 92.45524    -30.2 1.062e+04 2.451e-09
 92.49471    -28.7 1.068e+04 2.178e-09
 92.52207    -27.4 1.076e+04 1.625e-09
 92.54180    -26.3 1.068e+04 1.985e-09
 92.57365    -25.1 1.075e+04 1.769e-09
 92.61311    -24.6 1.111e+04 1.899e-09
 92.65258    -24.8 1.122e+04 3.300e-09
 92.69205    -24.2 1.154e+04 5.856e-09
 92.73152    -23.8 1.181e+04 7.058e-09
 92.77099    -24.5 1.169e+04 4.776e-09
 92.80033    -24.8 1.164e+04 1.753e-09
 92.82006    -23.1 1.179e+04 2.183e-09
 92.84993    -23.6 1.163e+04 1.016e-09
 92.88939    -22.9 1.148e+04 7.223e-10
 92.92886    -21.4 1.153e+04 5.214e-10
 92.96833    -19.9 1.164e+04 3.926e-10
 93.00780    -18.6 1.172e+04 3.334e-10
 93.04727    -17.1 1.184e+04 3.243e-10
 93.07859    -16.1 1.180e+04 4.387e-10
 93.09833    -14.9 1.194e+04 3.804e-10
 93.12621    -13.8 1.176e+04 5.955e-10
 93.16568    -12.0 1.161e+04 9.828e-10
 93.20514     -9.9 1.165e+04 1.295e-09
 93.23090     -8.3 1.171e+04 1.310e-09
 93.25063     -8.8 1.181e+04 1.756e-09
 93.28408     -7.1 1.182e+04 1.604e-09
 93.32355     -5.2 1.186e+04 1.317e-09
 93.35686     -3.5 1.186e+04 1.049e-09
 93.37659     -2.5 1.185e+04 9.776e-10
 93.40249     -0.5 1.182e+04 6.619e-10
 93.44196      1.1 1.205e+04 4.148e-10
 93.48143      2.6 1.201e+04 3.739e-10
 93.52089      3.5 1.206e+04 4.579e-10
 93.56036      5.2 1.166e+04 8.420e-10
 93.59983      7.6 1.162e+04 1.159e-09
 93.63512      9.8 1.168e+04 1.046e-09
 93.65485     10.4 1.189e+04 1.056e-09
 93.67877     13.0 1.193e+04 7.499e-10
 93.71824     15.3 1.224e+04 3.964e-10
 93.75771     16.5 1.258e+04 2.300e-10
 93.79717     18.1 1.246e+04 2.021e-10
 93.83664     20.3 1.247e+04 2.022e-10
 93.87611     22.4 1.257e+04 2.100e-10
 93.91338     24.5 1.264e+04 2.305e-10
 93.93312     24.8 1.272e+04 2.274e-10
 93.95505     26.7 1.280e+04 2.584e-10
 93.99452     28.4 1.290e+04 3.068e-10
 94.03399     30.0 1.291e+04 3.885e-10
 94.07346     31.6 1.273e+04 5.073e-10
 94.11292     33.0 1.234e+04 6.227e-10
 94.15239     34.2 1.220e+04 6.368e-10
 94.19165     35.2 1.206e+04 6.204e-10
 94.21138     34.8 1.203e+04 5.811e-10
 94.23133     35.5 1.182e+04 5.662e-10
 94.27080     36.2 1.170e+04 5.746e-10
 94.31027     36.8 1.158e+04 6.042e-10
 94.34974     37.4 1.139e+04 6.930e-10
 94.38921     38.0 1.123e+04 9.056e-10
 94.42602     38.5 1.098e+04 1.187e-09
 94.44575     37.6 1.084e+04 1.136e-09
 94.46814     38.0 1.069e+04 1.378e-09
 94.48964     38.1 1.052e+04 1.459e-09
 94.50938     38.1 1.061e+04 1.227e-09
 94.54708     37.7 1.058e+04 1.353e-09
 94.58655     36.6 1.066e+04 2.230e-09
 94.61605     35.4 1.109e+04 3.905e-09
 94.62858     34.6 1.130e+04 6.369e-09
 94.63845     34.7 1.125e+04 6.057e-09
 94.65542     33.9 1.166e+04 1.065e-08
 94.67516     33.2 1.205e+04 1.737e-08
 94.70486     31.6 1.215e+04 2.099e-08
 94.74442     30.7 1.150e+04 1.544e-08
 94.76791     29.9 1.060e+04 6.534e-09
 94.78764     29.2 1.084e+04 9.945e-09
 94.82336     27.8 1.030e+04 5.918e-09
 94.86283     27.3 9.974e+03 5.040e-09
 94.90230     27.6 9.642e+03 5.033e-09
 94.94177     28.3 9.432e+03 4.897e-09
 94.98124     29.1 9.207e+03 4.368e-09
 95.01074     29.3 9.141e+03 4.317e-09
 95.03038     29.2 9.052e+03 4.293e-09
 95.04312     29.0 9.166e+03 4.302e-09
 95.04885     28.7 9.303e+03 4.514e-09
 95.06581     28.4 9.898e+03 6.554e-09
 95.09964     27.2 1.042e+04 7.391e-09
 95.13911     25.4 1.030e+04 8.879e-09
 95.16861     24.7 1.011e+04 9.709e-09
 95.18511     24.4 9.879e+03 9.188e-09
 95.19497     24.2 9.711e+03 8.681e-09
 95.20799     24.0 9.494e+03 7.580e-09
 95.22772     24.0 9.354e+03 6.551e-09
 95.24745     24.0 9.321e+03 5.780e-09
 95.26719     24.1 9.397e+03 5.521e-09
 95.28692     24.4 9.465e+03 5.619e-09
 95.30666     25.1 9.589e+03 5.654e-09
 95.32424     25.7 9.749e+03 5.690e-09
 95.33411     26.4 9.864e+03 5.876e-09
 95.34613     26.4 9.996e+03 5.740e-09
 95.36586     26.1 1.013e+04 6.078e-09
 95.38559     25.3 1.037e+04 7.403e-09
 95.40533     24.3 1.083e+04 1.108e-08
 95.42506     23.6 1.171e+04 1.977e-08
 95.44480     23.7 1.291e+04 3.627e-08
 95.46337     24.4 1.405e+04 5.825e-08
 95.47324     24.8 1.432e+04 6.624e-08
 95.48427     25.6 1.522e+04 8.607e-08
 95.50400     25.9 1.531e+04 8.447e-08
 95.52374     26.4 1.503e+04 6.841e-08
 95.54347     26.3 1.439e+04 4.636e-08
 95.56320     25.4 1.348e+04 2.897e-08
 95.58294     24.3 1.250e+04 1.916e-08
 95.60250     23.7 1.177e+04 1.549e-08
 95.61237     23.8 1.178e+04 1.380e-08
 95.62241     24.0 1.171e+04 1.386e-08
 95.64067     23.8 1.195e+04 1.513e-08
 95.65054     23.0 1.197e+04 1.580e-08
 95.66188     21.5 1.321e+04 2.238e-08
 95.68161     19.2 1.428e+04 4.400e-08
 95.70134     18.5 1.543e+04 8.349e-08
 95.72108     18.8 1.611e+04 1.293e-07
 95.74081     18.5 1.621e+04 1.232e-07
 95.75150     17.7 1.591e+04 8.867e-08
 95.76137     16.6 1.469e+04 2.417e-08
 95.78028     13.0 1.374e+04 1.652e-08
 95.80002     11.3 1.339e+04 1.750e-08
 95.81975      9.4 1.396e+04 2.552e-08
 95.83948      5.6 1.630e+04 6.502e-08
 95.85424      1.6 1.775e+04 1.577e-07
 95.86405      0.8 1.813e+04 2.149e-07
 95.87392      0.3 1.805e+04 3.136e-07
 95.88379      0.0 1.790e+04 3.024e-07
 95.89053     -0.6 1.803e+04 1.975e-07
 95.90045     -1.8 1.700e+04 1.316e-07
 95.91842     -4.3 1.576e+04 5.425e-08
 95.93816     -8.3 1.450e+04 2.772e-08
 95.95789    -13.3 1.699e+04 2.148e-08
 95.97763    -22.8 2.541e+04 2.880e-08
 95.99238    -30.1 2.134e+04 1.831e-07
 96.00220    -30.4 1.998e+04 3.085e-07
 96.01206    -30.3 1.839e+04 4.832e-07
 96.02193    -29.7 1.814e+04 5.031e-07
 96.02967    -28.9 1.802e+04 4.665e-07
 96.03460    -28.7 1.797e+04 3.879e-07
 96.04166    -28.2 1.786e+04 2.932e-07
 96.05651    -28.2 1.766e+04 2.022e-07
 96.07630    -29.0 1.747e+04 1.536e-07
 96.09603    -29.8 1.690e+04 8.355e-08
 96.11577    -31.4 1.510e+04 3.047e-08
 96.13550    -33.1 1.289e+04 1.278e-08
 96.15523    -33.9 1.161e+04 8.331e-09
 96.16890    -33.6 1.105e+04 7.133e-09
 96.17876    -33.6 1.119e+04 7.487e-09
 96.19470    -32.7 1.092e+04 6.455e-09
 96.21444    -31.7 1.069e+04 5.330e-09
 96.23417    -30.5 1.042e+04 4.232e-09
 96.24810    -29.3 1.022e+04 3.317e-09
 96.25797    -29.2 1.045e+04 3.868e-09
 96.27364    -28.1 1.036e+04 3.091e-09
 96.29337    -27.1 1.027e+04 2.464e-09
 96.30803    -26.2 1.021e+04 2.125e-09
 96.31789    -26.4 1.013e+04 2.098e-09
 96.33284    -25.3 1.011e+04 2.041e-09
 96.35258    -24.2 1.007e+04 2.024e-09
 96.37231    -23.2 9.860e+03 2.046e-09
 96.40201    -21.4 9.780e+03 2.402e-09
 96.43749    -19.1 9.819e+03 2.922e-09
 96.45722    -19.4 1.004e+04 3.630e-09
 96.48105    -17.2 1.015e+04 4.759e-09
 96.52052    -15.3 1.065e+04 6.916e-09
 96.55998    -13.5 1.114e+04 9.639e-09
 96.59945    -12.2 1.161e+04 1.209e-08
 96.62896    -12.0 1.186e+04 1.221e-08
 96.64859    -12.3 1.200e+04 1.301e-08
 96.66833    -12.2 1.205e+04 1.536e-08
 96.68806    -11.9 1.190e+04 1.591e-08
 96.70780    -11.3 1.157e+04 1.573e-08
 96.72542    -10.7 1.148e+04 1.335e-08
 96.73529    -10.4 1.114e+04 1.250e-08
 96.74726     -9.8 1.104e+04 1.066e-08
 96.76700     -9.5 1.086e+04 8.555e-09
 96.78673     -9.3 1.063e+04 7.159e-09
 96.80647     -9.0 1.031e+04 6.067e-09
 96.82620     -8.2 9.929e+03 5.166e-09
 96.84566     -7.3 9.840e+03 4.016e-09
 96.85553     -7.5 9.891e+03 4.000e-09
 96.86455     -6.7 9.670e+03 3.105e-09
 96.87442     -6.0 9.757e+03 3.896e-09
 96.88541     -5.3 9.540e+03 3.148e-09
 96.91510     -4.9 9.262e+03 1.954e-09
 96.95467     -3.2 8.914e+03 1.645e-09
 96.99401     -1.4 8.849e+03 1.892e-09
 97.03348      2.0 8.797e+03 2.050e-09
 97.07308      4.4 8.799e+03 2.193e-09
 97.11255      6.6 8.803e+03 2.498e-09
 97.15201      9.2 8.859e+03 2.901e-09
 97.19148     11.9 8.812e+03 2.988e-09
 97.23095     14.6 8.728e+03 2.792e-09
 97.27042     17.0 8.637e+03 2.508e-09
 97.29201     19.4 8.584e+03 2.404e-09
 97.31175     20.5 8.810e+03 3.022e-09
 97.34936     22.6 8.917e+03 3.405e-09
 97.38883     24.5 9.218e+03 4.451e-09
 97.41833     26.0 9.432e+03 5.248e-09
 97.43095     26.9 9.622e+03 6.034e-09
 97.44081     27.1 9.610e+03 6.578e-09
 97.45309     28.1 9.693e+03 7.029e-09
 97.46296     27.3 9.664e+03 6.521e-09
 97.47744     28.0 9.719e+03 6.504e-09
 97.49717     28.9 9.678e+03 6.076e-09
 97.51690     29.2 9.630e+03 5.579e-09
 97.53664     29.8 9.477e+03 4.965e-09
 97.55637     30.2 9.417e+03 4.696e-09
 97.57008     31.3 9.408e+03 4.561e-09
 97.57995     31.5 9.712e+03 5.420e-09
 97.59584     31.7 9.721e+03 5.426e-09
 97.61558     32.5 9.742e+03 5.474e-09
 97.63531     33.1 9.850e+03 5.742e-09
 97.65504     33.6 9.954e+03 6.237e-09
 97.67478     34.2 1.004e+04 6.867e-09
 97.69451     34.8 9.989e+03 7.474e-09
 97.70921     35.3 9.916e+03 7.552e-09
 97.71908     35.1 9.805e+03 7.024e-09
 97.73398     35.6 9.693e+03 6.870e-09
 97.75372     36.1 9.501e+03 6.398e-09
 97.77345     36.6 9.304e+03 5.700e-09
 97.79319     37.0 9.127e+03 5.017e-09
 97.81292     37.2 8.965e+03 4.551e-09
 97.83265     37.5 8.879e+03 4.472e-09
 97.84834     38.0 8.921e+03 4.566e-09
 97.85821     37.9 8.861e+03 4.382e-09
 97.87212     37.9 9.080e+03 4.985e-09
 97.89186     37.6 9.502e+03 6.506e-09
 97.91159     37.3 1.010e+04 9.430e-09
 97.93133     37.3 1.081e+04 1.412e-08
 97.95106     37.6 1.148e+04 1.984e-08
 97.97079     38.1 1.196e+04 2.445e-08
 97.98747     38.1 1.205e+04 2.488e-08
 97.99734     38.4 1.164e+04 2.244e-08
 98.01026     38.6 1.152e+04 2.100e-08
 98.03000     38.7 1.139e+04 1.906e-08
 98.04973     38.7 1.129e+04 1.759e-08
 98.06052     38.5 1.137e+04 1.679e-08
 98.07038     38.7 1.108e+04 1.551e-08
 98.08920     38.7 1.127e+04 1.602e-08
 98.10893     38.4 1.165e+04 1.775e-08
 98.12661     37.6 1.226e+04 2.145e-08
 98.13647     37.9 1.267e+04 2.755e-08
 98.14840     36.6 1.379e+04 4.007e-08
 98.16814     35.2 1.497e+04 6.129e-08
 98.18787     34.1 1.580e+04 8.224e-08
 98.20761     32.9 1.572e+04 7.197e-08
 98.22734     30.9 1.504e+04 4.264e-08
 98.24708     26.5 1.363e+04 2.023e-08
 98.26574     20.9 1.147e+04 1.262e-08
 98.27560     18.6 1.149e+04 1.090e-08
 98.28654     14.4 1.130e+04 1.152e-08
 98.30628     11.6 1.186e+04 1.503e-08
 98.32601     10.3 1.238e+04 1.863e-08
 98.34575      8.9 1.242e+04 1.827e-08
 98.36548      7.1 1.216e+04 1.591e-08
 98.38522      5.3 1.156e+04 1.339e-08
 98.40487      4.2 1.103e+04 1.153e-08
 98.42460      3.0 1.071e+04 9.564e-09
 98.44442      3.0 1.044e+04 7.808e-09
 98.46415      2.7 1.023e+04 6.379e-09
 98.48389      2.3 9.936e+03 5.224e-09
 98.50362      1.9 9.730e+03 4.688e-09
 98.52336      1.9 9.578e+03 4.420e-09
 98.54309      1.9 9.570e+03 4.492e-09
 98.55387      2.1 9.523e+03 4.564e-09
 98.56373      1.5 9.378e+03 3.849e-09
 98.58256      1.8 9.444e+03 3.996e-09
 98.60229      2.0 9.558e+03 4.133e-09
 98.62203      2.0 9.620e+03 4.276e-09
 98.64176      2.0 9.653e+03 4.415e-09
 98.65808      1.9 9.711e+03 4.558e-09
 98.66794      2.4 9.649e+03 4.295e-09
 98.68123      2.2 9.764e+03 4.558e-09
 98.69300      1.8 9.930e+03 4.918e-09
 98.70287      1.3 9.919e+03 4.724e-09
 98.72070      0.4 1.023e+04 5.526e-09
 98.74043     -0.9 1.049e+04 6.677e-09
 98.76017     -1.5 1.052e+04 8.061e-09
 98.77990     -1.8 1.044e+04 7.849e-09
 98.79964     -1.9 1.037e+04 6.519e-09
 98.81937     -2.4 1.035e+04 5.113e-09
 98.83213     -3.2 1.025e+04 3.989e-09
 98.84200     -3.7 1.024e+04 4.096e-09
 98.85884     -4.1 1.012e+04 3.700e-09
 98.87857     -5.9 1.119e+04 3.710e-09
 98.89831    -12.2 1.404e+04 7.242e-09
 98.91804    -14.7 1.357e+04 2.190e-08
 98.93778    -13.2 1.333e+04 4.241e-08
 98.95751    -12.3 1.354e+04 3.747e-08
 98.97126    -13.4 1.349e+04 2.291e-08
 98.98113    -15.8 1.397e+04 1.880e-08
 98.99698    -20.8 1.212e+04 1.289e-08
 99.01671    -22.3 1.152e+04 1.205e-08
 99.03645    -22.6 1.152e+04 1.319e-08
 99.05618    -22.8 1.156e+04 1.325e-08
 99.07592    -23.1 1.139e+04 1.201e-08
 99.09565    -23.1 1.105e+04 1.049e-08
 99.11039    -22.7 1.067e+04 8.237e-09
 99.12026    -23.5 1.038e+04 6.281e-09
 99.13512    -23.0 1.001e+04 4.409e-09
 99.15486    -22.7 9.717e+03 3.058e-09
 99.17459    -22.6 9.557e+03 2.419e-09
 99.19432    -22.3 9.448e+03 2.168e-09
 99.21406    -22.0 9.435e+03 2.178e-09
 99.23379    -21.5 9.601e+03 2.624e-09
 99.24953    -21.6 9.649e+03 3.021e-09
 99.25939    -21.6 9.666e+03 2.764e-09
 99.26550    -20.7 9.655e+03 4.027e-09
 99.28533    -19.4 9.541e+03 2.944e-09
 99.31283    -18.3 9.683e+03 4.015e-09
 99.33246    -17.8 9.853e+03 4.091e-09
 99.35220    -17.5 9.843e+03 4.198e-09
 99.37193    -17.3 9.896e+03 3.960e-09
 99.38866    -17.3 9.913e+03 3.929e-09
 99.39852    -17.5 9.986e+03 4.132e-09
 99.41140    -17.5 1.006e+04 4.171e-09
 99.43114    -17.7 1.021e+04 4.647e-09
 99.45087    -18.4 1.057e+04 5.366e-09
 99.47061    -19.3 1.088e+04 7.877e-09
 99.49034    -19.9 1.127e+04 1.054e-08
 99.51007    -20.0 1.144e+04 1.313e-08
 99.52779    -19.9 1.147e+04 1.362e-08
 99.53766    -19.8 1.137e+04 1.220e-08
 99.54954    -19.6 1.081e+04 8.782e-09
 99.56928    -19.8 1.051e+04 5.442e-09
 99.59898    -21.5 1.034e+04 3.046e-09
 99.63854    -22.3 9.712e+03 2.110e-09
 99.67801    -21.7 9.420e+03 1.779e-09
 99.71748    -20.7 9.327e+03 1.442e-09
 99.75695    -20.1 9.358e+03 1.224e-09
 99.79638    -19.3 9.366e+03 1.239e-09
 99.83585    -19.3 9.723e+03 2.168e-09
 99.87535    -18.4 9.879e+03 2.749e-09
 99.91482    -17.4 1.008e+04 3.661e-09
 99.95429    -16.3 1.025e+04 4.744e-09
 99.99376    -15.8 1.059e+04 5.897e-09
