# Columns:
#   distance along LOS (in CHIMPs)
#   peculiar velocity  (in km/s)
#   temperature (K)
#   HI number density
# pos=(177.753,183.421,240.601), angles=(1.14565,0.0239483)
  0.00469    -88.2 1.226e+04 1.051e-08
  0.01523    -87.9 1.223e+04 1.005e-08
  0.03180    -87.6 1.261e+04 1.084e-08
  0.04963    -87.3 1.301e+04 1.216e-08
  0.06035    -86.8 1.292e+04 1.139e-08
  0.07469    -86.4 1.337e+04 1.398e-08
  0.09475    -86.0 1.390e+04 1.900e-08
  0.10547    -85.6 1.405e+04 2.020e-08
  0.11758    -85.6 1.513e+04 3.454e-08
  0.13903    -86.0 1.649e+04 6.320e-08
  0.15059    -86.7 1.762e+04 1.060e-07
  0.15591    -85.7 1.758e+04 1.072e-07
  0.16574    -85.9 1.789e+04 1.237e-07
  0.17306    -86.8 1.841e+04 1.631e-07
  0.17842    -87.0 1.883e+04 2.161e-07
  0.18718    -88.7 1.921e+04 3.173e-07
  0.19562    -90.2 1.933e+04 4.533e-07
  0.20098    -90.5 1.900e+04 8.129e-07
  0.20863    -91.9 1.890e+04 1.090e-06
  0.21818    -93.6 1.887e+04 1.218e-06
  0.22354    -94.7 1.880e+04 1.802e-06
  0.23008    -96.5 1.896e+04 1.332e-06
  0.24074    -97.0 1.912e+04 8.858e-07
  0.24610    -97.3 1.916e+04 6.884e-07
  0.25152    -97.3 1.923e+04 4.799e-07
  0.26225    -97.6 1.920e+04 3.805e-07
  0.26866    -97.7 1.905e+04 3.296e-07
  0.27403    -98.5 1.892e+04 2.442e-07
  0.28369    -98.5 1.886e+04 2.382e-07
  0.29123    -98.4 1.890e+04 2.376e-07
  0.29659   -100.0 1.918e+04 1.962e-07
  0.30514   -100.8 1.962e+04 2.739e-07
  0.31379   -101.7 1.983e+04 4.418e-07
  0.31915   -103.4 1.966e+04 4.432e-07
  0.32658   -104.8 1.976e+04 6.807e-07
  0.33635   -107.0 1.971e+04 8.611e-07
  0.34171   -108.4 1.952e+04 8.744e-07
  0.34803   -110.8 1.951e+04 9.198e-07
  0.35875   -113.1 1.940e+04 8.514e-07
  0.36427   -115.0 1.947e+04 5.983e-07
  0.36963   -115.5 1.925e+04 6.243e-07
  0.38020   -117.0 1.922e+04 3.920e-07
  0.38683   -118.2 1.887e+04 2.388e-07
  0.39219   -118.3 1.877e+04 2.776e-07
  0.40165   -119.2 1.817e+04 1.762e-07
  0.40939   -120.0 1.730e+04 1.191e-07
  0.41476   -119.8 1.760e+04 1.389e-07
  0.42309   -120.3 1.665e+04 9.642e-08
  0.43200   -120.7 1.569e+04 6.919e-08
  0.44278   -120.3 1.588e+04 7.765e-08
  0.46072   -120.0 1.466e+04 4.656e-08
  0.47718   -119.7 1.358e+04 3.007e-08
  0.48790   -119.4 1.332e+04 2.607e-08
  0.50361   -119.3 1.249e+04 1.778e-08
  0.52230   -119.0 1.217e+04 1.493e-08
  0.53302   -118.9 1.174e+04 1.211e-08
  0.54650   -118.5 1.161e+04 1.144e-08
  0.56282   -117.8 1.158e+04 1.135e-08
  0.57302   -118.2 1.173e+04 1.336e-08
  0.57815   -117.9 1.135e+04 1.116e-08
  0.58940   -117.3 1.135e+04 1.125e-08
  0.61084   -116.6 1.137e+04 1.157e-08
  0.62327   -115.9 1.138e+04 1.174e-08
  0.63399   -115.6 1.103e+04 9.547e-09
  0.65373   -115.0 1.107e+04 9.830e-09
  0.66839   -114.3 1.110e+04 9.972e-09
  0.67911   -114.1 1.079e+04 8.075e-09
  0.69663   -113.4 1.086e+04 8.465e-09
  0.71351   -112.7 1.092e+04 8.788e-09
  0.72424   -112.6 1.066e+04 7.185e-09
  0.73952   -111.8 1.075e+04 7.680e-09
  0.75864   -111.1 1.083e+04 8.148e-09
  0.76936   -110.9 1.060e+04 6.701e-09
  0.78241   -110.1 1.073e+04 7.353e-09
  0.80376   -109.2 1.085e+04 8.056e-09
  0.82521   -108.1 1.082e+04 7.730e-09
  0.84675   -107.2 1.101e+04 8.706e-09
  0.85960   -106.2 1.120e+04 9.794e-09
  0.87033   -106.4 1.111e+04 9.308e-09
  0.88964   -105.4 1.135e+04 1.076e-08
  0.90473   -104.6 1.152e+04 1.189e-08
  0.91545   -104.8 1.161e+04 1.240e-08
  0.93253   -104.1 1.176e+04 1.329e-08
  0.94985   -103.4 1.181e+04 1.352e-08
  0.96057   -103.6 1.196e+04 1.459e-08
  0.97542   -103.0 1.191e+04 1.443e-08
  0.99497   -102.2 1.179e+04 1.362e-08
  1.00570   -102.6 1.208e+04 1.537e-08
  1.01832   -101.7 1.198e+04 1.461e-08
  1.03976   -100.7 1.186e+04 1.373e-08
  1.05082    -99.8 1.169e+04 1.262e-08
  1.06154   -100.7 1.212e+04 1.617e-08
  1.08265    -99.7 1.198e+04 1.509e-08
  1.09594    -98.7 1.183e+04 1.406e-08
  1.10667    -99.3 1.179e+04 1.612e-08
  1.12555    -98.3 1.170e+04 1.500e-08
  1.14106    -97.4 1.164e+04 1.411e-08
  1.15179    -98.1 1.153e+04 1.367e-08
  1.16844    -97.3 1.153e+04 1.322e-08
  1.18619    -96.6 1.155e+04 1.302e-08
  1.19691    -97.6 1.133e+04 1.185e-08
  1.21133    -96.9 1.130e+04 1.179e-08
  1.23131    -96.1 1.119e+04 1.129e-08
  1.24203    -96.5 1.066e+04 8.858e-09
  1.25422    -95.5 1.044e+04 7.578e-09
  1.27567    -94.5 1.021e+04 6.236e-09
  1.28716    -93.5 9.999e+03 5.016e-09
  1.29788    -93.7 9.667e+03 2.877e-09
  1.31856    -93.0 9.637e+03 2.289e-09
  1.35083    -92.2 9.581e+03 1.932e-09
  1.37760    -89.9 9.453e+03 1.660e-09
  1.39904    -90.0 9.013e+03 1.340e-09
  1.43671    -87.7 9.054e+03 1.341e-09
  1.46784    -85.9 9.396e+03 1.806e-09
  1.48929    -86.2 9.249e+03 1.887e-09
  1.52249    -84.7 9.591e+03 3.085e-09
  1.55809    -83.4 9.904e+03 4.617e-09
  1.57953    -83.8 9.631e+03 4.201e-09
  1.59746    -82.9 9.756e+03 4.706e-09
  1.61374    -82.7 9.745e+03 4.746e-09
  1.62446    -82.9 9.716e+03 4.558e-09
  1.64025    -82.5 9.624e+03 4.350e-09
  1.65886    -82.0 9.511e+03 3.942e-09
  1.66958    -81.8 9.157e+03 3.374e-09
  1.69396    -81.3 9.054e+03 3.096e-09
  1.73695    -80.3 8.911e+03 2.810e-09
  1.76003    -78.9 8.844e+03 2.698e-09
  1.78147    -78.2 8.871e+03 2.927e-09
  1.82274    -76.8 8.866e+03 2.954e-09
  1.85027    -75.5 8.813e+03 2.634e-09
  1.87172    -74.8 9.008e+03 3.625e-09
  1.90852    -73.4 8.907e+03 2.951e-09
  1.94052    -72.0 8.910e+03 2.554e-09
  1.96196    -71.6 9.319e+03 3.924e-09
  1.99431    -70.4 9.344e+03 3.822e-09
  2.03076    -70.0 9.819e+03 4.340e-09
  2.05221    -71.2 1.062e+04 8.219e-09
  2.06927    -70.7 1.098e+04 9.062e-09
  2.08641    -70.8 1.134e+04 1.274e-08
  2.09714    -71.7 1.172e+04 1.577e-08
  2.11206    -72.7 1.270e+04 2.109e-08
  2.13154    -75.1 1.424e+04 3.143e-08
  2.14226    -79.6 1.525e+04 4.978e-08
  2.15496    -82.0 1.610e+04 7.487e-08
  2.17640    -84.3 1.687e+04 9.566e-08
  2.18738    -86.7 1.739e+04 1.022e-07
  2.19810    -92.5 1.653e+04 3.825e-08
  2.21929    -96.4 1.534e+04 2.161e-08
  2.23250   -100.1 1.348e+04 1.308e-08
  2.24323   -103.0 1.127e+04 5.896e-09
  2.26219   -103.5 1.115e+04 4.938e-09
  2.27763   -103.8 1.102e+04 4.391e-09
  2.28835   -104.0 1.062e+04 3.134e-09
  2.30508   -103.6 1.060e+04 3.026e-09
  2.32275   -103.1 1.061e+04 3.009e-09
  2.33347   -103.0 1.051e+04 2.238e-09
  2.34797   -102.6 1.065e+04 2.319e-09
  2.35890   -102.3 1.074e+04 2.599e-09
  2.36808   -102.7 1.081e+04 2.343e-09
  2.37860   -102.7 1.076e+04 2.070e-09
  2.39086   -102.5 1.082e+04 2.477e-09
  2.41231   -102.4 1.095e+04 3.172e-09
  2.42372   -102.4 1.107e+04 4.034e-09
  2.43454   -102.3 1.101e+04 3.145e-09
  2.45530   -102.2 1.123e+04 4.852e-09
  2.46884   -102.5 1.158e+04 6.843e-09
  2.47956   -102.1 1.139e+04 5.766e-09
  2.49809   -102.3 1.189e+04 7.917e-09
  2.51396   -102.8 1.247e+04 1.047e-08
  2.52469   -102.4 1.200e+04 7.317e-09
  2.54098   -103.1 1.244e+04 8.993e-09
  2.55909   -103.8 1.278e+04 1.009e-08
  2.56981   -103.6 1.226e+04 7.140e-09
  2.58388   -104.2 1.248e+04 7.540e-09
  2.60421   -104.8 1.263e+04 7.921e-09
  2.61493   -104.7 1.221e+04 6.042e-09
  2.62677   -105.1 1.232e+04 6.275e-09
  2.64821   -105.7 1.259e+04 6.601e-09
  2.66006   -106.8 1.296e+04 7.405e-09
  2.67078   -108.3 1.343e+04 7.135e-09
  2.69111   -111.0 1.409e+04 1.162e-08
  2.70518   -113.4 1.445e+04 2.069e-08
  2.71590   -115.4 1.493e+04 3.576e-08
  2.73400   -116.9 1.509e+04 4.704e-08
  2.75030   -118.3 1.505e+04 4.916e-08
  2.76102   -119.7 1.519e+04 5.742e-08
  2.77689   -120.3 1.434e+04 3.930e-08
  2.79542   -121.0 1.345e+04 2.249e-08
  2.80615   -122.4 1.298e+04 1.716e-08
  2.81978   -123.3 1.245e+04 1.142e-08
  2.84055   -123.9 1.226e+04 9.557e-09
  2.85127   -124.4 1.206e+04 9.177e-09
  2.86267   -124.6 1.209e+04 9.245e-09
  2.88412   -125.9 1.268e+04 1.158e-08
  2.89639   -128.2 1.353e+04 1.696e-08
  2.90712   -130.3 1.458e+04 2.911e-08
  2.92701   -133.4 1.571e+04 5.043e-08
  2.94152   -136.8 1.647e+04 7.483e-08
  2.95224   -139.2 1.776e+04 1.583e-07
  2.96990   -142.2 1.785e+04 1.786e-07
  2.98664   -144.7 1.767e+04 1.713e-07
  2.99736   -146.6 1.791e+04 1.977e-07
  3.01280   -148.2 1.756e+04 1.617e-07
  3.03176   -149.6 1.739e+04 1.432e-07
  3.04248   -151.1 1.750e+04 1.548e-07
  3.05569   -152.5 1.776e+04 1.697e-07
  3.07688   -154.3 1.779e+04 1.776e-07
  3.08761   -155.2 1.773e+04 1.776e-07
  3.09858   -157.0 1.772e+04 1.810e-07
  3.12003   -158.6 1.736e+04 1.517e-07
  3.13273   -160.3 1.673e+04 9.780e-08
  3.14345   -161.4 1.652e+04 9.745e-08
  3.16292   -163.7 1.616e+04 7.622e-08
  3.17785   -166.1 1.600e+04 6.887e-08
  3.18858   -167.1 1.637e+04 8.613e-08
  3.20581   -169.1 1.644e+04 8.766e-08
  3.22298   -171.0 1.655e+04 8.906e-08
  3.23370   -172.3 1.629e+04 8.076e-08
  3.24621   -174.0 1.592e+04 6.225e-08
  3.25694   -173.8 1.615e+04 7.128e-08
  3.26810   -175.3 1.566e+04 5.355e-08
  3.27882   -177.0 1.414e+04 2.299e-08
  3.29160   -178.5 1.382e+04 1.945e-08
  3.31304   -179.4 1.371e+04 1.864e-08
  3.32394   -180.0 1.367e+04 1.859e-08
  3.33467   -180.5 1.302e+04 1.204e-08
  3.35593   -180.7 1.302e+04 1.193e-08
  3.36907   -180.8 1.303e+04 1.180e-08
  3.37979   -180.8 1.265e+04 8.369e-09
  3.39883   -180.9 1.264e+04 7.857e-09
  3.41419   -180.9 1.263e+04 7.247e-09
  3.42491   -180.3 1.234e+04 5.276e-09
  3.44172   -180.2 1.234e+04 4.767e-09
  3.45931   -180.1 1.236e+04 4.299e-09
  3.47004   -179.4 1.222e+04 3.311e-09
  3.48461   -179.2 1.228e+04 3.120e-09
  3.50444   -179.0 1.231e+04 3.064e-09
  3.51516   -177.9 1.222e+04 2.627e-09
  3.52750   -177.7 1.230e+04 2.664e-09
  3.54895   -177.5 1.236e+04 2.720e-09
  3.56028   -177.3 1.239e+04 2.772e-09
  3.58183   -176.2 1.246e+04 2.572e-09
  3.62420   -175.9 1.248e+04 2.592e-09
  3.65072   -175.5 1.248e+04 2.425e-09
  3.67217   -174.1 1.225e+04 2.279e-09
  3.70999   -173.6 1.205e+04 2.003e-09
  3.74097   -172.9 1.178e+04 1.685e-09
  3.76241   -171.6 1.175e+04 1.680e-09
  3.79577   -170.5 1.152e+04 1.376e-09
  3.83121   -169.0 1.137e+04 1.103e-09
  3.85266   -167.8 1.128e+04 1.284e-09
  3.88156   -166.0 1.119e+04 1.064e-09
  3.92146   -164.0 1.116e+04 9.039e-10
  3.94291   -162.8 1.104e+04 1.063e-09
  3.96734   -160.6 1.100e+04 9.263e-10
  4.01023   -158.4 1.096e+04 8.295e-10
  4.03315   -156.1 1.091e+04 7.673e-10
  4.05460   -155.0 1.081e+04 8.393e-10
  4.09602   -152.6 1.073e+04 8.244e-10
  4.12340   -150.1 1.068e+04 8.238e-10
  4.13966   -149.0 1.064e+04 8.582e-10
  4.15517   -148.7 1.067e+04 7.142e-10
  4.18180   -146.2 1.062e+04 7.396e-10
  4.21364   -143.8 1.058e+04 7.671e-10
  4.23509   -142.6 1.047e+04 7.181e-10
  4.26758   -140.2 1.042e+04 7.582e-10
  4.30389   -137.7 1.040e+04 7.708e-10
  4.32533   -136.6 1.031e+04 7.137e-10
  4.35337   -134.0 1.028e+04 7.308e-10
  4.39413   -131.3 1.016e+04 7.357e-10
  4.41558   -130.2 1.011e+04 7.001e-10
  4.43915   -127.5 1.008e+04 7.048e-10
  4.48204   -124.7 1.003e+04 6.859e-10
  4.50583   -121.8 1.003e+04 6.753e-10
  4.52727   -120.9 1.001e+04 6.904e-10
  4.56783   -118.2 9.977e+03 7.071e-10
  4.59607   -115.6 9.953e+03 7.721e-10
  4.61752   -115.0 9.920e+03 8.103e-10
  4.65361   -112.5 9.890e+03 9.162e-10
  4.68632   -110.0 9.854e+03 1.078e-09
  4.70776   -109.4 9.804e+03 9.314e-10
  4.73940   -106.8 9.749e+03 9.878e-10
  4.77656   -104.2 9.705e+03 1.080e-09
  4.79801   -103.5 9.608e+03 7.225e-10
  4.82518   -100.8 9.615e+03 7.046e-10
  4.86681    -98.3 9.608e+03 7.400e-10
  4.88825    -97.5 9.510e+03 4.452e-10
  4.91097    -94.9 9.548e+03 4.447e-10
  4.95386    -92.6 9.641e+03 5.506e-10
  4.97850    -90.5 9.650e+03 8.274e-10
  4.99995    -89.5 9.691e+03 4.080e-10
  5.03964    -87.6 9.709e+03 6.437e-10
  5.06874    -85.6 9.713e+03 1.048e-09
  5.09019    -85.0 9.678e+03 8.435e-10
  5.12543    -82.9 9.714e+03 1.404e-09
  5.15899    -80.8 9.801e+03 2.042e-09
  5.18044    -80.3 9.892e+03 1.797e-09
  5.21121    -78.5 9.967e+03 2.133e-09
  5.24924    -76.7 9.958e+03 2.254e-09
  5.27068    -77.0 9.991e+03 2.162e-09
  5.29699    -75.4 9.967e+03 2.339e-09
  5.33948    -73.8 1.000e+04 2.689e-09
  5.36093    -74.2 1.009e+04 3.754e-09
  5.38278    -72.6 1.024e+04 4.169e-09
  5.42567    -71.2 1.037e+04 4.520e-09
  5.45117    -69.8 1.045e+04 4.763e-09
  5.47262    -71.5 1.066e+04 6.513e-09
  5.51145    -70.1 1.067e+04 7.440e-09
  5.54142    -68.6 1.064e+04 7.955e-09
  5.56287    -69.6 1.088e+04 1.100e-08
  5.59724    -68.0 1.072e+04 9.828e-09
  5.63166    -66.3 1.050e+04 8.011e-09
  5.65311    -67.9 1.015e+04 6.955e-09
  5.68302    -66.3 9.985e+03 6.209e-09
  5.72191    -64.5 9.805e+03 5.453e-09
  5.74336    -65.5 9.285e+03 4.559e-09
  5.76881    -63.2 9.092e+03 3.774e-09
  5.81170    -60.8 8.949e+03 2.986e-09
  5.83360    -58.4 8.852e+03 2.386e-09
  5.85505    -59.2 8.428e+03 1.527e-09
  5.89748    -56.8 8.399e+03 1.490e-09
  5.92385    -54.3 8.399e+03 1.544e-09
  5.93472    -54.7 8.224e+03 1.311e-09
  5.95125    -54.6 8.155e+03 8.866e-10
  5.98327    -52.0 8.192e+03 1.013e-09
  6.01409    -49.1 8.227e+03 1.120e-09
  6.03554    -49.2 8.059e+03 9.296e-10
  6.06905    -46.4 8.090e+03 9.429e-10
  6.10434    -43.8 8.144e+03 9.395e-10
  6.12578    -44.4 8.141e+03 8.323e-10
  6.15484    -42.6 8.349e+03 9.620e-10
  6.19458    -41.2 8.583e+03 1.454e-09
  6.21603    -42.4 8.812e+03 2.288e-09
  6.24062    -40.6 9.128e+03 3.460e-09
  6.28351    -38.9 9.443e+03 4.141e-09
  6.30628    -37.8 9.631e+03 4.302e-09
  6.32772    -40.6 1.013e+04 5.653e-09
  6.36930    -40.7 1.059e+04 6.352e-09
  6.39642    -42.4 1.148e+04 1.007e-08
  6.40705    -45.4 1.222e+04 1.638e-08
  6.42272    -46.7 1.289e+04 2.419e-08
  6.44145    -47.5 1.355e+04 3.370e-08
  6.45217    -49.7 1.372e+04 3.815e-08
  6.46561    -50.4 1.381e+04 4.031e-08
  6.48657    -51.0 1.338e+04 3.621e-08
  6.49730    -52.3 1.272e+04 2.673e-08
  6.50850    -53.2 1.213e+04 1.867e-08
  6.52995    -54.1 1.148e+04 1.264e-08
  6.54242    -54.9 1.084e+04 8.802e-09
  6.55314    -56.0 1.041e+04 6.868e-09
  6.57284    -56.0 1.002e+04 5.492e-09
  6.58754    -55.8 9.724e+03 4.497e-09
  6.59826    -56.3 9.525e+03 3.717e-09
  6.62655    -56.0 9.254e+03 2.995e-09
  6.66726    -55.0 9.031e+03 2.623e-09
  6.68870    -55.3 8.740e+03 2.024e-09
  6.71243    -53.9 8.577e+03 1.952e-09
  6.75532    -52.3 8.493e+03 2.000e-09
  6.77895    -50.6 8.426e+03 2.031e-09
  6.80040    -50.7 8.432e+03 1.934e-09
  6.84111    -48.8 8.389e+03 1.972e-09
  6.86920    -46.9 8.344e+03 1.917e-09
  6.89064    -47.0 8.452e+03 2.064e-09
  6.92689    -45.0 8.428e+03 2.095e-09
  6.95944    -43.1 8.389e+03 2.021e-09
  6.98089    -43.2 8.600e+03 2.380e-09
  7.01268    -41.2 8.600e+03 2.298e-09
  7.04969    -39.3 8.583e+03 2.178e-09
  7.07113    -39.6 8.804e+03 2.640e-09
  7.09846    -37.7 8.725e+03 2.493e-09
  7.13993    -35.9 8.730e+03 2.397e-09
  7.16138    -36.1 8.878e+03 2.691e-09
  7.18424    -34.6 8.943e+03 2.782e-09
  7.22714    -33.3 9.073e+03 3.508e-09
  7.25162    -31.9 9.406e+03 4.982e-09
  7.27307    -32.4 9.679e+03 5.630e-09
  7.29665    -31.6 9.659e+03 5.881e-09
  7.30728    -32.0 9.776e+03 6.353e-09
  7.32345    -31.5 9.995e+03 7.049e-09
  7.34167    -31.1 1.011e+04 7.877e-09
  7.35240    -31.4 1.030e+04 8.436e-09
  7.36634    -31.0 1.032e+04 8.273e-09
  7.38680    -30.6 1.014e+04 7.678e-09
  7.39752    -30.8 1.011e+04 7.138e-09
  7.40923    -29.9 9.839e+03 5.710e-09
  7.43068    -29.6 9.618e+03 3.855e-09
  7.44264    -29.4 9.446e+03 3.318e-09
  7.45346    -30.1 9.585e+03 2.787e-09
  7.48449    -28.8 9.231e+03 2.332e-09
  7.52236    -27.1 9.086e+03 1.786e-09
  7.54381    -27.4 9.102e+03 1.542e-09
  7.57027    -26.0 9.146e+03 1.649e-09
  7.61261    -24.7 9.401e+03 2.025e-09
  7.63405    -24.9 9.464e+03 2.005e-09
  7.65606    -23.7 9.669e+03 2.558e-09
  7.69895    -22.6 9.826e+03 2.786e-09
  7.72430    -21.8 9.864e+03 2.509e-09
  7.72978    -22.5 1.016e+04 2.460e-09
  7.74732    -22.4 1.008e+04 2.252e-09
  7.78473    -22.4 1.024e+04 2.548e-09
  7.81454    -22.2 1.030e+04 2.935e-09
  7.83599    -22.0 1.034e+04 2.958e-09
  7.87052    -20.8 1.046e+04 2.385e-09
  7.90479    -19.8 1.059e+04 1.962e-09
  7.92624    -19.5 1.061e+04 1.181e-09
  7.95630    -17.9 1.063e+04 1.156e-09
  7.99504    -16.1 1.071e+04 1.244e-09
  8.01648    -15.5 1.084e+04 8.821e-10
  8.04209    -13.5 1.093e+04 1.125e-09
  8.08498    -11.5 1.105e+04 1.524e-09
  8.10673     -9.5 1.121e+04 2.008e-09
  8.12817     -8.7 1.124e+04 1.993e-09
  8.17076     -6.9 1.149e+04 2.412e-09
  8.19697     -5.2 1.171e+04 2.468e-09
  8.21842     -4.7 1.176e+04 2.403e-09
  8.25655     -3.1 1.189e+04 2.110e-09
  8.28722     -1.4 1.209e+04 1.622e-09
  8.30866     -0.9 1.214e+04 1.613e-09
  8.34233      0.9 1.233e+04 1.177e-09
  8.37746      2.8 1.261e+04 8.480e-10
  8.39891      3.5 1.266e+04 8.245e-10
  8.42811      5.4 1.297e+04 6.468e-10
  8.46771      7.6 1.305e+04 6.345e-10
  8.48916      8.3 1.315e+04 6.311e-10
  8.51390     10.7 1.322e+04 6.469e-10
  8.55679     13.1 1.337e+04 7.171e-10
  8.57940     15.6 1.340e+04 9.316e-10
  8.60085     16.2 1.353e+04 1.035e-09
  8.64257     18.6 1.356e+04 1.415e-09
  8.66965     20.9 1.365e+04 2.031e-09
  8.69109     21.5 1.371e+04 2.048e-09
  8.72836     23.6 1.387e+04 2.879e-09
  8.75989     25.5 1.383e+04 3.991e-09
  8.78134     26.2 1.380e+04 3.465e-09
  8.81414     28.0 1.356e+04 4.340e-09
  8.85014     29.6 1.337e+04 4.977e-09
  8.87158     30.3 1.335e+04 4.478e-09
  8.89993     31.9 1.321e+04 4.834e-09
  8.94038     33.5 1.308e+04 4.977e-09
  8.96183     34.2 1.313e+04 4.998e-09
  8.98571     35.8 1.298e+04 5.270e-09
  9.02860     37.6 1.278e+04 5.349e-09
  9.05208     39.3 1.259e+04 4.883e-09
  9.07352     39.7 1.287e+04 6.072e-09
  9.11439     41.1 1.298e+04 3.956e-09
  9.14232     41.7 1.294e+04 2.156e-09
  9.16377     41.5 1.313e+04 3.253e-09
  9.18735     41.6 1.294e+04 2.793e-09
  9.19797     41.3 1.285e+04 3.182e-09
  9.21070     41.3 1.261e+04 3.656e-09
  9.23214     41.7 1.239e+04 4.703e-09
  9.24309     42.4 1.228e+04 6.246e-09
  9.25382     42.1 1.224e+04 6.321e-09
  9.27504     42.7 1.222e+04 8.069e-09
  9.28822     43.4 1.219e+04 1.020e-08
  9.29894     43.1 1.206e+04 8.265e-09
  9.31793     43.7 1.206e+04 1.035e-08
  9.33334     43.9 1.205e+04 1.118e-08
  9.34416     43.7 1.175e+04 7.328e-09
  9.37174     44.3 1.166e+04 7.346e-09
  9.41306     44.7 1.144e+04 6.806e-09
  9.43450     44.8 1.114e+04 4.022e-09
  9.45752     45.6 1.100e+04 3.844e-09
  9.50042     46.6 1.080e+04 3.364e-09
  9.52475     47.7 1.060e+04 3.450e-09
  9.54620     48.0 1.082e+04 3.469e-09
  9.58620     49.0 1.084e+04 4.038e-09
  9.61500     49.9 1.104e+04 5.563e-09
  9.63644     49.8 1.111e+04 5.949e-09
  9.67198     50.3 1.108e+04 7.341e-09
  9.70524     50.7 1.100e+04 7.247e-09
  9.72669     50.7 1.072e+04 5.556e-09
  9.75777     51.4 1.044e+04 5.104e-09
  9.79549     52.4 1.022e+04 4.708e-09
  9.81693     52.7 1.011e+04 4.088e-09
  9.84355     54.0 1.004e+04 3.948e-09
  9.88573     55.3 9.884e+03 3.480e-09
  9.90718     55.5 1.009e+04 3.648e-09
  9.92934     56.7 9.982e+03 3.141e-09
  9.97223     58.0 9.794e+03 2.487e-09
  9.99742     59.6 9.604e+03 1.835e-09
 10.01887     59.8 9.654e+03 1.563e-09
 10.05801     61.2 9.549e+03 1.128e-09
 10.08767     62.7 9.542e+03 9.730e-10
 10.10912     62.8 9.642e+03 9.017e-10
 10.14380     64.6 9.648e+03 9.117e-10
 10.17792     66.3 9.683e+03 9.232e-10
 10.19936     66.4 9.927e+03 9.243e-10
 10.22958     67.8 1.014e+04 9.502e-10
 10.26816     69.1 1.026e+04 9.774e-10
 10.28961     68.8 1.039e+04 1.278e-09
 10.31536     69.8 1.047e+04 1.263e-09
 10.35826     70.7 1.057e+04 1.193e-09
 10.40115     71.0 1.091e+04 1.526e-09
 10.44404     72.2 1.094e+04 1.504e-09
 10.47010     73.7 1.098e+04 1.556e-09
 10.49154     73.2 1.113e+04 2.229e-09
 10.52982     75.0 1.105e+04 2.285e-09
 10.56034     76.9 1.097e+04 2.260e-09
 10.58179     76.5 1.095e+04 2.352e-09
 10.61561     78.6 1.080e+04 1.968e-09
 10.65059     80.7 1.066e+04 1.573e-09
 10.67204     80.6 1.058e+04 1.224e-09
 10.70139     82.9 1.051e+04 1.074e-09
 10.74083     85.2 1.043e+04 1.026e-09
 10.76228     85.8 1.038e+04 9.984e-10
 10.78718     88.4 1.030e+04 1.075e-09
 10.83007     91.0 1.022e+04 1.170e-09
 10.85253     93.5 1.013e+04 1.249e-09
 10.87397     94.3 1.016e+04 1.338e-09
 10.91585     96.8 1.009e+04 1.438e-09
 10.94277     99.2 1.001e+04 1.501e-09
 10.96422     99.9 1.010e+04 1.656e-09
 11.00164    102.1 1.004e+04 1.749e-09
 11.03302    104.2 9.981e+03 1.861e-09
 11.05446    104.7 1.011e+04 2.283e-09
 11.08742    106.7 1.008e+04 2.525e-09
 11.12326    108.6 1.009e+04 2.882e-09
 11.14471    108.9 1.027e+04 3.340e-09
 11.17321    110.6 1.030e+04 3.747e-09
 11.21351    112.1 1.033e+04 4.331e-09
 11.23496    112.4 1.034e+04 4.200e-09
 11.25899    114.0 1.040e+04 5.043e-09
 11.29658    115.4 1.063e+04 6.637e-09
 11.31803    115.0 1.073e+04 7.021e-09
 11.32520    115.6 1.099e+04 9.453e-09
 11.34665    116.0 1.087e+04 8.132e-09
 11.38767    115.8 1.112e+04 1.113e-08
 11.41545    115.5 1.137e+04 1.312e-08
 11.43689    115.7 1.129e+04 1.217e-08
 11.47345    114.5 1.145e+04 1.281e-08
 11.50569    112.5 1.137e+04 1.189e-08
 11.52714    113.0 1.176e+04 1.447e-08
 11.55923    111.0 1.157e+04 1.362e-08
 11.59594    110.4 1.107e+04 1.128e-08
 11.61738    110.5 1.157e+04 1.414e-08
 11.64502    110.4 1.104e+04 1.030e-08
 11.68618    110.5 1.046e+04 6.956e-09
 11.70763    110.3 1.075e+04 7.155e-09
 11.73080    110.6 1.028e+04 4.619e-09
 11.77369    111.3 9.974e+03 3.450e-09
 11.79787    112.7 9.965e+03 3.362e-09
 11.80850    110.9 1.080e+04 3.413e-09
 11.82711    111.7 1.056e+04 3.312e-09
 11.84280    112.7 1.035e+04 3.154e-09
 11.85353    110.9 1.221e+04 7.694e-09
 11.87001    111.8 1.253e+04 8.335e-09
 11.88793    112.1 1.306e+04 1.058e-08
 11.89865    110.5 1.508e+04 4.296e-08
 11.91290    110.5 1.572e+04 6.201e-08
 11.93305    110.7 1.632e+04 9.097e-08
 11.94377    110.1 1.756e+04 1.863e-07
 11.95579    110.1 1.796e+04 2.160e-07
 11.97724    109.7 1.804e+04 2.188e-07
 11.98889    109.6 1.802e+04 2.135e-07
 11.99962    107.9 1.809e+04 2.191e-07
 12.02013    108.0 1.801e+04 2.104e-07
 12.03402    108.3 1.798e+04 2.124e-07
 12.04474    107.1 1.726e+04 1.502e-07
 12.05653    107.5 1.758e+04 1.927e-07
 12.06184    107.5 1.739e+04 1.558e-07
 12.06828    107.7 1.754e+04 1.670e-07
 12.07901    107.7 1.777e+04 2.012e-07
 12.08973    107.4 1.741e+04 1.319e-07
 12.10045    107.6 1.778e+04 1.649e-07
 12.10696    107.6 1.808e+04 2.076e-07
 12.11233    106.8 1.696e+04 8.377e-08
 12.12190    106.8 1.730e+04 1.015e-07
 12.12953    106.7 1.752e+04 1.196e-07
 12.13494    106.0 1.584e+04 4.591e-08
 12.14880    106.0 1.635e+04 6.084e-08
 12.16939    106.3 1.668e+04 8.011e-08
 12.18011    105.6 1.381e+04 1.420e-08
 12.19170    106.3 1.429e+04 1.897e-08
 12.20515    107.1 1.467e+04 2.536e-08
 12.21587    106.8 1.552e+04 4.317e-08
 12.22523    107.6 1.569e+04 5.347e-08
 12.23595    107.4 1.280e+04 9.080e-09
 12.25603    108.2 1.311e+04 1.272e-08
 12.27035    109.1 1.345e+04 1.928e-08
 12.28108    109.1 1.136e+04 5.654e-09
 12.29893    110.2 1.169e+04 7.870e-09
 12.31548    111.3 1.208e+04 1.162e-08
 12.32620    111.5 1.077e+04 5.414e-09
 12.34182    112.6 1.109e+04 7.007e-09
 12.36060    113.6 1.141e+04 9.486e-09
 12.37132    113.8 1.068e+04 6.311e-09
 12.38471    114.7 1.088e+04 7.815e-09
 12.40572    115.6 1.109e+04 9.798e-09
 12.41645    115.9 1.075e+04 8.089e-09
 12.42760    116.6 1.091e+04 9.479e-09
 12.44905    117.4 1.119e+04 1.194e-08
 12.46157    118.0 1.139e+04 1.404e-08
 12.47239    118.2 1.107e+04 1.081e-08
 12.50286    119.2 1.132e+04 1.348e-08
 12.54129    120.1 1.132e+04 1.365e-08
 12.56273    120.0 1.122e+04 1.285e-08
 12.58864    120.9 1.112e+04 1.242e-08
 12.63153    122.0 1.073e+04 1.051e-08
 12.67442    123.6 1.050e+04 9.724e-09
 12.71732    125.0 9.976e+03 7.167e-09
 12.74322    126.4 9.402e+03 4.744e-09
 12.76467    126.8 9.994e+03 7.507e-09
 12.80310    128.4 9.503e+03 5.098e-09
 12.83347    130.2 9.036e+03 3.199e-09
 12.85491    130.6 9.669e+03 6.164e-09
 12.88889    132.5 9.266e+03 4.562e-09
 12.92371    134.8 8.937e+03 3.602e-09
 12.94516    135.2 9.812e+03 7.092e-09
 12.97467    137.9 9.693e+03 6.325e-09
 13.01396    140.8 9.705e+03 6.031e-09
 13.03531    140.6 1.026e+04 8.885e-09
 13.04954    141.9 1.024e+04 8.927e-09
 13.06961    143.1 1.021e+04 8.979e-09
 13.08033    143.2 1.045e+04 9.801e-09
 13.09243    144.4 1.047e+04 9.842e-09
 13.11388    145.6 1.081e+04 1.163e-08
 13.12546    146.7 1.092e+04 1.212e-08
 13.13618    146.4 1.120e+04 1.345e-08
 13.15677    147.4 1.133e+04 1.398e-08
 13.17058    148.2 1.144e+04 1.456e-08
 13.18130    147.8 1.160e+04 1.446e-08
 13.19966    148.4 1.162e+04 1.403e-08
 13.21570    148.8 1.159e+04 1.338e-08
 13.22643    148.1 1.160e+04 1.276e-08
 13.24255    148.3 1.150e+04 1.180e-08
 13.26082    148.3 1.136e+04 1.088e-08
 13.27155    147.9 1.138e+04 1.090e-08
 13.28544    148.0 1.123e+04 1.011e-08
 13.30595    148.2 1.108e+04 9.445e-09
 13.31667    148.1 1.134e+04 1.029e-08
 13.32834    148.3 1.120e+04 9.446e-09
 13.34978    148.6 1.105e+04 8.676e-09
 13.36179    148.8 1.092e+04 8.003e-09
 13.37252    148.6 1.116e+04 9.215e-09
 13.39267    148.7 1.099e+04 8.981e-09
 13.40692    148.9 1.093e+04 8.999e-09
 13.41764    148.6 1.130e+04 1.102e-08
 13.43557    148.8 1.127e+04 1.124e-08
 13.45204    148.9 1.128e+04 1.159e-08
 13.46276    148.6 1.170e+04 1.459e-08
 13.47846    148.8 1.170e+04 1.451e-08
 13.49716    149.0 1.168e+04 1.411e-08
 13.50789    148.6 1.202e+04 1.562e-08
 13.52135    148.7 1.182e+04 1.403e-08
 13.54228    148.8 1.160e+04 1.239e-08
 13.55301    148.2 1.183e+04 1.278e-08
 13.56424    148.1 1.176e+04 1.189e-08
 13.58569    148.1 1.177e+04 1.188e-08
 13.59813    147.9 1.184e+04 1.220e-08
 13.60885    147.1 1.214e+04 1.359e-08
 13.62858    147.0 1.224e+04 1.485e-08
 13.64325    146.9 1.237e+04 1.677e-08
 13.65398    146.5 1.231e+04 1.652e-08
 13.67147    146.5 1.229e+04 1.737e-08
 13.68838    146.5 1.225e+04 1.701e-08
 13.69910    146.3 1.189e+04 1.346e-08
 13.71436    146.1 1.185e+04 1.280e-08
 13.73350    145.8 1.180e+04 1.172e-08
 13.74422    145.0 1.183e+04 1.099e-08
 13.75726    144.2 1.194e+04 1.175e-08
 13.77862    142.8 1.224e+04 1.308e-08
 13.80007    139.6 1.381e+04 2.864e-08
 13.82159    137.6 1.524e+04 5.654e-08
 13.83447    135.5 1.648e+04 1.035e-07
 13.84519    135.3 1.689e+04 1.350e-07
 13.86449    132.9 1.785e+04 1.882e-07
 13.87959    129.0 1.814e+04 1.910e-07
 13.88490    129.3 1.826e+04 2.083e-07
 13.89120    127.5 1.820e+04 2.051e-07
 13.90733    124.7 1.812e+04 1.867e-07
 13.92471    121.0 1.725e+04 1.119e-07
 13.93544    121.4 1.723e+04 1.155e-07
 13.95027    117.5 1.566e+04 5.091e-08
 13.96984    113.3 1.279e+04 1.733e-08
 13.98056    113.6 1.324e+04 2.000e-08
 13.99050    109.7 1.038e+04 8.297e-09
 14.00122    111.1 1.090e+04 1.012e-08
 14.01461    108.1 9.641e+03 6.587e-09
 14.02568    106.6 9.545e+03 6.462e-09
 14.03641    107.2 9.655e+03 6.600e-09
 14.05750    105.9 9.663e+03 6.666e-09
 14.07080    104.6 9.853e+03 7.329e-09
 14.08153    103.5 1.042e+04 9.744e-09
 14.10039    101.5 1.104e+04 1.400e-08
 14.11593     99.0 1.221e+04 2.283e-08
 14.12665     96.8 1.387e+04 3.488e-08
 14.14328     93.7 1.495e+04 4.930e-08
 14.16105     90.2 1.562e+04 5.834e-08
 14.17177     86.8 1.655e+04 7.520e-08
 14.18618     83.6 1.621e+04 6.972e-08
 14.20617     81.1 1.538e+04 5.584e-08
 14.21690     79.2 1.530e+04 5.471e-08
 14.22907     77.7 1.408e+04 3.556e-08
 14.25052     76.7 1.296e+04 2.318e-08
 14.26202     76.2 1.211e+04 1.602e-08
 14.27274     75.2 1.195e+04 1.407e-08
 14.29341     75.4 1.150e+04 1.122e-08
 14.30714     76.0 1.120e+04 9.607e-09
 14.31786     75.8 1.123e+04 9.562e-09
 14.33630     76.8 1.100e+04 8.560e-09
 14.35226     77.9 1.085e+04 7.896e-09
 14.36299     78.0 1.106e+04 8.194e-09
 14.37919     79.1 1.095e+04 7.669e-09
 14.39739     80.2 1.086e+04 7.382e-09
 14.40811     80.5 1.117e+04 8.252e-09
 14.42208     81.6 1.111e+04 7.795e-09
 14.44251     82.6 1.104e+04 7.424e-09
 14.45323     83.2 1.146e+04 8.798e-09
 14.46498     84.1 1.134e+04 7.879e-09
 14.48642     84.8 1.121e+04 7.210e-09
 14.49836     85.4 1.117e+04 6.976e-09
 14.50908     86.3 1.154e+04 7.588e-09
 14.52931     86.7 1.138e+04 7.166e-09
 14.54348     87.0 1.126e+04 6.850e-09
 14.55420     87.9 1.172e+04 7.861e-09
 14.57221     87.9 1.167e+04 7.580e-09
 14.58860     87.5 1.161e+04 7.794e-09
 14.59932     87.4 1.251e+04 1.303e-08
 14.61510     86.4 1.268e+04 1.499e-08
 14.63372     85.4 1.294e+04 1.823e-08
 14.64445     84.5 1.458e+04 3.822e-08
 14.65799     83.8 1.455e+04 4.062e-08
 14.67885     83.6 1.438e+04 3.923e-08
 14.68957     82.6 1.554e+04 6.192e-08
 14.70088     82.3 1.492e+04 4.684e-08
 14.72233     82.2 1.425e+04 3.108e-08
 14.73469     82.1 1.350e+04 1.940e-08
 14.74542     80.9 1.357e+04 1.818e-08
 14.76522     80.8 1.283e+04 1.062e-08
 14.77982     81.0 1.231e+04 6.891e-09
 14.79054     79.9 1.238e+04 6.181e-09
 14.80811     80.5 1.216e+04 4.833e-09
 14.82494     80.8 1.219e+04 4.443e-09
 14.83576     79.8 1.270e+04 6.213e-09
 14.86192     81.7 1.237e+04 4.711e-09
 14.88873     84.0 1.198e+04 3.625e-09
 14.91002     83.7 1.160e+04 2.600e-09
 14.94755     85.4 1.146e+04 3.142e-09
 14.99060     88.4 1.140e+04 3.178e-09
 15.01635     91.3 1.135e+04 3.361e-09
 15.03779     90.4 1.175e+04 4.173e-09
 15.07638     93.2 1.176e+04 4.565e-09
 15.10659     95.8 1.177e+04 5.135e-09
 15.11722     94.6 1.186e+04 5.340e-09
 15.12980     95.8 1.186e+04 5.678e-09
 15.15125     97.2 1.187e+04 6.114e-09
 15.16224     98.5 1.191e+04 6.607e-09
 15.17297     97.9 1.200e+04 7.031e-09
 15.19414     99.2 1.210e+04 7.851e-09
 15.20737    100.2 1.223e+04 8.823e-09
 15.21809     99.4 1.233e+04 1.007e-08
 15.23703    100.3 1.255e+04 1.198e-08
 15.25249    101.1 1.279e+04 1.443e-08
 15.26321    100.3 1.283e+04 1.557e-08
 15.27992    101.0 1.317e+04 1.946e-08
 15.29761    101.6 1.355e+04 2.448e-08
 15.30834    100.6 1.353e+04 2.473e-08
 15.32282    100.9 1.388e+04 3.014e-08
 15.34274    100.9 1.400e+04 3.148e-08
 15.35346     99.9 1.324e+04 2.163e-08
 15.36571    100.0 1.315e+04 2.031e-08
 15.38715    100.0 1.292e+04 1.759e-08
 15.39858    100.2 1.255e+04 1.357e-08
 15.42013     99.8 1.183e+04 8.953e-09
 15.46241    101.3 1.166e+04 8.083e-09
 15.48893    101.6 1.161e+04 7.935e-09
 15.49955    101.2 1.170e+04 8.796e-09
 15.51583    101.9 1.175e+04 9.607e-09
 15.53395    102.7 1.181e+04 1.040e-08
 15.54467    102.6 1.197e+04 1.120e-08
 15.55872    103.4 1.204e+04 1.167e-08
 15.57907    104.1 1.208e+04 1.206e-08
 15.58980    103.6 1.209e+04 1.158e-08
 15.60161    104.1 1.205e+04 1.145e-08
 15.63388    105.3 1.185e+04 1.046e-08
 15.66951    106.6 1.175e+04 1.029e-08
 15.69096    107.1 1.144e+04 8.247e-09
 15.71976    108.4 1.138e+04 7.863e-09
 15.75976    109.6 1.132e+04 7.259e-09
 15.78121    110.1 1.132e+04 6.603e-09
 15.80555    111.0 1.131e+04 6.337e-09
 15.84844    111.9 1.122e+04 5.911e-09
 15.87145    112.9 1.129e+04 5.625e-09
 15.89290    113.1 1.141e+04 5.811e-09
 15.93422    114.2 1.146e+04 5.825e-09
 15.96170    115.3 1.164e+04 6.131e-09
 15.98314    115.2 1.186e+04 6.664e-09
 16.02001    116.0 1.202e+04 7.314e-09
 16.05194    116.5 1.231e+04 8.030e-09
 16.07339    116.4 1.227e+04 7.818e-09
 16.10579    116.9 1.249e+04 7.782e-09
 16.14219    117.2 1.258e+04 7.684e-09
 16.16363    117.4 1.259e+04 6.132e-09
 16.19158    117.8 1.278e+04 6.353e-09
 16.23243    118.3 1.285e+04 6.937e-09
 16.25388    118.7 1.269e+04 5.198e-09
 16.27736    119.4 1.260e+04 6.214e-09
 16.32025    120.4 1.245e+04 6.794e-09
 16.34413    121.5 1.239e+04 6.820e-09
 16.36557    122.3 1.213e+04 5.640e-09
 16.40604    123.3 1.205e+04 5.529e-09
 16.43437    124.4 1.187e+04 5.184e-09
 16.45582    125.0 1.174e+04 4.437e-09
 16.49182    126.3 1.153e+04 4.084e-09
 16.52462    127.7 1.140e+04 3.994e-09
 16.54606    128.4 1.142e+04 3.935e-09
 16.57760    129.7 1.141e+04 4.046e-09
 16.61486    131.1 1.142e+04 4.448e-09
 16.63631    131.2 1.178e+04 5.740e-09
 16.66336    132.5 1.182e+04 6.591e-09
 16.70508    136.0 1.234e+04 9.384e-09
 16.72646    134.1 1.279e+04 1.290e-08
 16.73825    134.3 1.291e+04 1.431e-08
 16.75970    134.5 1.304e+04 1.549e-08
 16.77148    134.6 1.315e+04 1.640e-08
 16.78220    133.4 1.366e+04 2.215e-08
 16.80259    133.3 1.375e+04 2.359e-08
 16.81660    133.1 1.374e+04 2.429e-08
 16.82733    132.0 1.398e+04 2.906e-08
 16.84548    132.0 1.397e+04 2.908e-08
 16.86173    131.9 1.391e+04 2.874e-08
 16.87245    130.9 1.391e+04 2.950e-08
 16.88838    130.8 1.376e+04 2.795e-08
 16.90685    130.7 1.349e+04 2.518e-08
 16.91757    129.9 1.306e+04 2.090e-08
 16.93127    130.1 1.274e+04 1.840e-08
 16.95197    130.5 1.245e+04 1.643e-08
 16.96270    129.9 1.209e+04 1.419e-08
 16.97416    130.5 1.212e+04 1.436e-08
 16.99561    131.1 1.223e+04 1.497e-08
 17.00782    131.4 1.246e+04 1.631e-08
 17.01854    130.7 1.243e+04 1.628e-08
 17.03850    130.6 1.272e+04 1.864e-08
 17.05294    130.4 1.296e+04 2.134e-08
 17.06366    129.7 1.270e+04 2.049e-08
 17.08139    129.4 1.285e+04 2.295e-08
 17.09806    129.0 1.298e+04 2.521e-08
 17.10879    128.3 1.254e+04 2.137e-08
 17.12428    127.8 1.267e+04 2.343e-08
 17.14319    127.0 1.289e+04 2.639e-08
 17.15391    126.3 1.229e+04 1.959e-08
 17.16717    125.4 1.247e+04 2.108e-08
 17.18831    124.3 1.262e+04 2.184e-08
 17.19903    123.4 1.180e+04 1.427e-08
 17.21007    122.1 1.181e+04 1.381e-08
 17.23151    120.5 1.185e+04 1.334e-08
 17.24416    118.3 1.199e+04 1.356e-08
 17.25488    116.9 1.180e+04 1.196e-08
 17.27440    113.8 1.238e+04 1.578e-08
 17.28928    110.4 1.313e+04 2.328e-08
 17.30000    109.3 1.362e+04 3.068e-08
 17.31730    106.2 1.399e+04 3.587e-08
 17.33440    103.1 1.395e+04 3.471e-08
 17.34512    102.4 1.402e+04 3.420e-08
 17.36019     99.9 1.350e+04 2.324e-08
 17.37952     97.3 1.270e+04 1.179e-08
 17.39025     96.1 1.224e+04 7.305e-09
 17.40308     92.6 1.106e+04 3.588e-09
 17.42453     90.5 1.057e+04 3.242e-09
 17.43537     89.5 1.051e+04 3.225e-09
 17.44609     90.3 1.053e+04 2.989e-09
 17.46742     89.8 1.055e+04 2.944e-09
 17.48049     89.5 1.058e+04 2.914e-09
 17.49131     90.8 1.062e+04 2.729e-09
 17.52123     90.0 1.070e+04 2.743e-09
 17.56021     89.3 1.074e+04 2.713e-09
 17.58166     90.6 1.079e+04 2.540e-09
 17.60701     90.0 1.082e+04 2.496e-09
 17.64991     89.4 1.091e+04 2.247e-09
 17.67190     88.6 1.112e+04 1.827e-09
 17.69335     89.4 1.148e+04 2.510e-09
 17.73569     88.5 1.156e+04 2.270e-09
 17.76215     88.3 1.151e+04 1.846e-09
 17.78359     88.8 1.166e+04 3.078e-09
 17.82147     88.7 1.152e+04 2.007e-09
 17.85239     88.8 1.139e+04 1.250e-09
 17.87384     89.2 1.146e+04 1.547e-09
 17.90726     89.6 1.149e+04 1.266e-09
 17.94264     90.3 1.152e+04 1.275e-09
 17.96409     90.6 1.159e+04 1.694e-09
 17.99304     91.2 1.163e+04 1.740e-09
 18.03288     91.6 1.157e+04 1.759e-09
 18.05433     91.9 1.163e+04 2.451e-09
 18.07883     92.1 1.150e+04 2.423e-09
 18.12172     92.4 1.137e+04 2.344e-09
 18.14458     92.7 1.132e+04 2.331e-09
 18.16602     93.5 1.139e+04 2.855e-09
 18.20750     93.9 1.130e+04 2.801e-09
 18.23482     94.1 1.119e+04 2.772e-09
 18.24545     94.0 1.109e+04 2.892e-09
 18.26092     94.2 1.099e+04 2.882e-09
 18.27975     94.5 1.098e+04 2.894e-09
 18.29047     94.8 1.102e+04 3.134e-09
 18.30381     95.0 1.103e+04 3.285e-09
 18.32487     95.0 1.108e+04 3.586e-09
 18.33560     95.2 1.116e+04 4.381e-09
 18.34671     95.1 1.127e+04 5.154e-09
 18.36815     94.9 1.144e+04 6.402e-09
 18.38072     94.5 1.171e+04 8.316e-09
 18.39144     94.7 1.202e+04 1.101e-08
 18.41104     94.3 1.236e+04 1.398e-08
 18.42584     93.7 1.263e+04 1.675e-08
 18.43656     93.6 1.292e+04 1.947e-08
 18.45394     92.8 1.294e+04 1.961e-08
 18.46997     92.1 1.288e+04 1.933e-08
 18.47627     92.1 1.251e+04 1.723e-08
 18.48169     91.9 1.261e+04 1.853e-08
 18.49683     91.5 1.262e+04 1.881e-08
 18.51609     91.1 1.274e+04 2.006e-08
 18.52681     91.0 1.280e+04 2.089e-08
 18.53972     90.6 1.302e+04 2.369e-08
 18.56117     90.2 1.321e+04 2.699e-08
 18.58261     89.5 1.329e+04 2.695e-08
 18.60406     88.6 1.324e+04 2.609e-08
 18.61706     87.4 1.303e+04 2.320e-08
 18.62778     87.3 1.280e+04 2.007e-08
 18.64695     85.9 1.243e+04 1.650e-08
 18.66218     84.3 1.206e+04 1.350e-08
 18.67290     84.4 1.180e+04 1.208e-08
 18.68984     82.9 1.147e+04 9.914e-09
 18.70730     81.5 1.114e+04 8.236e-09
 18.71802     82.2 1.104e+04 8.102e-09
 18.73273     81.1 1.077e+04 6.665e-09
 18.75242     80.1 1.055e+04 5.417e-09
 18.76315     80.8 1.056e+04 5.779e-09
 18.77563     79.7 1.036e+04 4.895e-09
 18.79707     78.7 1.011e+04 4.390e-09
 18.80827     77.7 9.920e+03 4.353e-09
 18.81899     78.4 1.007e+04 5.130e-09
 18.83996     77.5 9.985e+03 5.159e-09
 18.85339     76.7 9.936e+03 5.284e-09
 18.86412     77.3 1.003e+04 6.077e-09
 18.88286     76.5 9.983e+03 6.156e-09
 18.89852     75.6 9.962e+03 6.376e-09
 18.90924     76.2 1.004e+04 6.928e-09
 18.92575     75.2 1.005e+04 7.182e-09
 18.94364     74.2 1.014e+04 7.824e-09
 18.95436     74.6 1.023e+04 8.326e-09
 18.96864     73.5 1.037e+04 9.181e-09
 18.98876     72.3 1.049e+04 9.810e-09
 18.99948     72.5 1.051e+04 9.972e-09
 19.01153     71.1 1.050e+04 9.935e-09
 19.03298     69.9 1.039e+04 9.495e-09
 19.04461     68.8 1.012e+04 8.407e-09
 19.05533     69.0 1.004e+04 8.216e-09
 19.07587     68.1 9.687e+03 6.939e-09
 19.08973     67.4 9.378e+03 5.930e-09
 19.10045     67.6 9.317e+03 5.825e-09
 19.11876     67.0 9.118e+03 5.235e-09
 19.13485     66.6 8.991e+03 4.903e-09
 19.14558     66.9 8.931e+03 4.892e-09
 19.16166     66.7 8.862e+03 4.693e-09
 19.17998     66.5 8.811e+03 4.476e-09
 19.19070     66.9 8.709e+03 4.461e-09
 19.20455     66.8 8.654e+03 4.248e-09
 19.22510     66.6 8.604e+03 4.038e-09
 19.23582     66.9 8.564e+03 3.984e-09
 19.24744     66.7 8.544e+03 3.902e-09
 19.26889     66.4 8.555e+03 3.921e-09
 19.28094     65.8 8.592e+03 4.006e-09
 19.29167     66.2 8.574e+03 4.022e-09
 19.31178     65.5 8.672e+03 4.291e-09
 19.32607     64.5 8.901e+03 4.904e-09
 19.33679     64.9 8.900e+03 4.921e-09
 19.35467     63.6 9.331e+03 6.196e-09
 19.36800     61.9 9.934e+03 8.423e-09
 19.37380     61.5 1.000e+04 8.981e-09
 19.38191     61.6 1.014e+04 9.478e-09
 19.39756     59.8 1.078e+04 1.293e-08
 19.41631     57.7 1.135e+04 1.667e-08
 19.42704     57.8 1.148e+04 1.777e-08
 19.44045     55.5 1.190e+04 2.047e-08
 19.46143     52.6 1.227e+04 2.287e-08
 19.47216     52.6 1.227e+04 2.277e-08
 19.48335     49.4 1.265e+04 2.540e-08
 19.50479     45.7 1.297e+04 2.681e-08
 19.51728     41.5 1.304e+04 2.611e-08
 19.52800     40.6 1.349e+04 3.056e-08
 19.54768     35.1 1.364e+04 3.011e-08
 19.56240     28.8 1.372e+04 3.013e-08
 19.57313     27.0 1.443e+04 3.714e-08
 19.59058     20.7 1.415e+04 3.467e-08
 19.60753     15.5 1.376e+04 3.054e-08
 19.61825     12.6 1.399e+04 2.928e-08
 19.63347      8.2 1.340e+04 2.208e-08
 19.65265      4.9 1.303e+04 1.831e-08
 19.66337      1.0 1.299e+04 1.746e-08
 19.67636     -0.6 1.296e+04 1.664e-08
 19.69777     -1.6 1.298e+04 1.677e-08
 19.71922     -4.5 1.354e+04 1.811e-08
 19.74070     -4.5 1.329e+04 1.763e-08
 19.75362     -4.5 1.301e+04 1.606e-08
 19.76434     -6.1 1.330e+04 1.822e-08
 19.78359     -5.9 1.299e+04 1.544e-08
 19.79874     -5.8 1.274e+04 1.354e-08
 19.80946     -7.2 1.313e+04 1.699e-08
 19.82648     -6.9 1.295e+04 1.648e-08
 19.84386     -6.4 1.288e+04 1.660e-08
 19.85459     -7.5 1.310e+04 2.027e-08
 19.86937     -7.0 1.288e+04 1.934e-08
 19.88899     -6.5 1.259e+04 1.766e-08
 19.89971     -7.5 1.258e+04 1.786e-08
 19.91227     -6.9 1.219e+04 1.573e-08
 19.93371     -6.4 1.178e+04 1.362e-08
 19.94483     -5.8 1.144e+04 1.183e-08
 19.95556     -6.3 1.124e+04 1.067e-08
 19.97660     -5.6 1.105e+04 9.579e-09
 19.98995     -4.9 1.091e+04 8.780e-09
 20.00068     -5.1 1.083e+04 8.422e-09
 20.01950     -4.3 1.072e+04 8.039e-09
 20.03508     -3.6 1.063e+04 7.685e-09
 20.04580     -3.5 1.063e+04 7.689e-09
 20.06239     -2.9 1.054e+04 7.320e-09
 20.08020     -2.1 1.042e+04 6.925e-09
 20.09092     -2.1 1.049e+04 7.237e-09
 20.10528     -1.4 1.040e+04 6.951e-09
 20.12532     -0.6 1.032e+04 6.681e-09
 20.13605     -0.5 1.044e+04 7.141e-09
 20.14817      0.4 1.036e+04 6.928e-09
 20.16962      1.3 1.027e+04 6.728e-09
 20.18117      2.2 1.019e+04 6.529e-09
 20.19189      2.4 1.026e+04 6.854e-09
 20.21251      3.3 1.020e+04 6.654e-09
 20.22629      4.2 1.015e+04 6.443e-09
 20.23702      4.4 1.020e+04 6.640e-09
 20.25532      5.4 1.015e+04 6.376e-09
 20.27133      6.0 1.005e+04 5.768e-09
 20.28214      6.4 1.005e+04 5.736e-09
 20.29829      7.5 9.978e+03 5.394e-09
 20.31654      8.7 9.978e+03 5.119e-09
 20.32726      9.1 1.000e+04 5.054e-09
 20.34119     10.2 1.003e+04 4.883e-09
 20.36166     11.2 1.005e+04 4.890e-09
 20.37238     11.7 1.007e+04 4.836e-09
 20.38408     12.7 1.016e+04 4.910e-09
 20.40552     13.5 1.030e+04 5.129e-09
 20.41751     14.3 1.047e+04 5.458e-09
 20.42823     14.9 1.046e+04 5.316e-09
 20.44842     15.7 1.064e+04 5.808e-09
 20.46263     16.4 1.090e+04 6.609e-09
 20.47335     16.8 1.091e+04 6.567e-09
 20.49131     17.4 1.133e+04 8.104e-09
 20.50775     17.5 1.186e+04 1.078e-08
 20.51847     17.8 1.195e+04 1.137e-08
 20.53420     17.6 1.257e+04 1.628e-08
 20.55287     17.1 1.338e+04 2.532e-08
 20.56360     17.4 1.340e+04 2.541e-08
 20.57709     16.6 1.413e+04 3.766e-08
 20.59800     15.6 1.467e+04 4.778e-08
 20.60872     15.6 1.453e+04 4.406e-08
 20.61999     14.4 1.454e+04 4.371e-08
 20.64143     13.2 1.437e+04 3.787e-08
 20.65384     11.2 1.392e+04 2.523e-08
 20.66457     10.1 1.388e+04 2.500e-08
 20.68432      5.9 1.319e+04 1.783e-08
 20.69897      1.4 1.249e+04 1.490e-08
 20.70969      0.6 1.252e+04 1.741e-08
 20.72722     -2.9 1.188e+04 1.516e-08
 20.74409     -6.1 1.163e+04 1.473e-08
 20.75481     -7.0 1.152e+04 1.371e-08
 20.77011    -10.7 1.143e+04 1.369e-08
 20.78921    -14.1 1.135e+04 1.400e-08
 20.79993    -14.9 1.093e+04 1.202e-08
 20.81300    -17.6 1.079e+04 1.153e-08
 20.83433    -20.1 1.064e+04 1.006e-08
 20.84506    -20.8 1.039e+04 8.640e-09
 20.85589    -24.0 1.024e+04 7.075e-09
 20.87734    -27.8 9.772e+03 5.293e-09
 20.89028    -31.1 9.697e+03 5.284e-09
 20.91182    -31.6 9.575e+03 5.386e-09
 20.95259    -34.7 9.549e+03 5.982e-09
 20.98062    -36.7 9.793e+03 7.122e-09
 21.00207    -38.0 9.725e+03 6.483e-09
 21.03838    -39.4 9.868e+03 6.146e-09
 21.07087    -41.0 1.022e+04 6.312e-09
 21.09231    -43.0 9.887e+03 5.197e-09
 21.11334    -43.9 1.034e+04 6.356e-09
 21.12652    -44.0 1.042e+04 6.964e-09
 21.13724    -44.9 1.020e+04 6.088e-09
 21.15336    -44.9 1.047e+04 6.510e-09
 21.16408    -43.2 1.052e+04 6.950e-09
 21.17164    -43.4 1.081e+04 7.851e-09
 21.18236    -43.9 1.049e+04 6.128e-09
 21.19903    -44.1 1.056e+04 5.842e-09
 21.21676    -44.1 1.059e+04 5.630e-09
 21.22749    -44.5 1.027e+04 4.418e-09
 21.24192    -44.6 1.043e+04 4.273e-09
 21.26189    -44.7 1.046e+04 4.153e-09
 21.27261    -45.0 1.031e+04 3.607e-09
 21.28481    -44.8 1.057e+04 3.837e-09
 21.30626    -44.7 1.068e+04 3.942e-09
 21.33852    -44.5 1.067e+04 3.648e-09
 21.36305    -43.9 1.066e+04 3.256e-09
 21.38450    -43.8 1.062e+04 2.938e-09
 21.42441    -43.1 1.055e+04 2.317e-09
 21.45330    -42.7 1.051e+04 1.694e-09
 21.47474    -42.5 1.051e+04 1.683e-09
 21.51019    -42.3 1.053e+04 1.461e-09
 21.54354    -42.0 1.062e+04 1.568e-09
 21.56499    -42.2 1.076e+04 1.975e-09
 21.59597    -41.9 1.086e+04 2.449e-09
 21.63379    -41.5 1.100e+04 3.273e-09
 21.65523    -41.5 1.103e+04 3.473e-09
 21.68176    -40.5 1.125e+04 4.098e-09
 21.71383    -39.6 1.134e+04 4.204e-09
 21.73456    -39.4 1.143e+04 4.317e-09
 21.74528    -39.3 1.136e+04 3.748e-09
 21.75662    -39.0 1.147e+04 3.866e-09
 21.77807    -38.8 1.161e+04 4.041e-09
 21.81034    -38.2 1.161e+04 4.269e-09
 21.83572    -36.7 1.183e+04 4.475e-09
 21.85717    -35.8 1.167e+04 3.313e-09
 21.89622    -34.4 1.178e+04 3.194e-09
 21.92597    -33.0 1.194e+04 3.120e-09
 21.94742    -32.1 1.182e+04 2.536e-09
 21.98200    -31.0 1.215e+04 2.946e-09
 22.01622    -30.6 1.249e+04 5.058e-09
 22.03766    -29.1 1.239e+04 4.889e-09
 22.05159    -29.1 1.298e+04 9.218e-09
 22.07304    -26.9 1.318e+04 9.646e-09
 22.09986    -28.0 1.410e+04 2.389e-08
 22.11699    -28.6 1.487e+04 3.536e-08
 22.12771    -28.0 1.503e+04 4.048e-08
 22.14265    -29.0 1.521e+04 3.862e-08
 22.16211    -30.4 1.516e+04 2.445e-08
 22.17283    -30.0 1.541e+04 2.971e-08
 22.18555    -31.9 1.480e+04 1.431e-08
 22.20699    -34.5 1.384e+04 7.075e-09
 22.21805    -37.1 1.335e+04 4.568e-09
 22.22878    -34.4 1.380e+04 6.270e-09
 22.24988    -36.9 1.292e+04 2.786e-09
 22.28215    -38.4 1.273e+04 2.606e-09
 22.30840    -38.5 1.253e+04 1.757e-09
 22.32984    -38.3 1.263e+04 1.733e-09
 22.36803    -37.5 1.254e+04 1.122e-09
 22.39864    -36.4 1.254e+04 7.349e-10
 22.42009    -36.5 1.266e+04 7.340e-10
 22.45382    -35.3 1.276e+04 6.949e-10
 22.48889    -34.2 1.266e+04 8.009e-10
 22.51034    -34.0 1.248e+04 1.051e-09
 22.53960    -32.9 1.227e+04 1.524e-09
 22.57914    -31.8 1.200e+04 1.977e-09
 22.60058    -31.5 1.196e+04 2.054e-09
 22.62538    -30.6 1.190e+04 1.993e-09
 22.66828    -29.6 1.171e+04 1.628e-09
 22.69083    -28.8 1.169e+04 1.098e-09
 22.71227    -28.7 1.174e+04 1.260e-09
 22.75406    -29.0 1.182e+04 1.319e-09
 22.78107    -29.7 1.185e+04 1.941e-09
 22.80252    -30.1 1.186e+04 3.381e-09
 22.82610    -30.8 1.186e+04 4.345e-09
 22.83672    -31.1 1.185e+04 5.486e-09
 22.85037    -31.5 1.170e+04 6.774e-09
 22.87122    -31.2 1.154e+04 6.576e-09
 22.89276    -31.8 1.163e+04 7.159e-09
 22.92563    -32.3 1.158e+04 6.384e-09
 22.96156    -32.8 1.136e+04 5.511e-09
 22.98301    -33.7 1.101e+04 4.937e-09
 23.01141    -33.2 1.040e+04 4.718e-09
 23.05181    -31.4 1.005e+04 4.343e-09
 23.07326    -31.2 9.772e+03 3.530e-09
 23.09720    -29.5 9.831e+03 2.797e-09
 23.14009    -27.9 9.926e+03 2.125e-09
 23.16350    -26.7 9.846e+03 1.853e-09
 23.18495    -26.8 9.605e+03 1.716e-09
 23.22587    -25.8 9.610e+03 1.986e-09
 23.25375    -24.6 9.731e+03 2.467e-09
 23.27519    -24.9 9.577e+03 2.541e-09
 23.31166    -23.9 9.689e+03 2.950e-09
 23.34373    -23.3 9.651e+03 3.173e-09
 23.35452    -23.1 9.670e+03 3.399e-09
 23.36524    -23.4 9.654e+03 3.409e-09
 23.38652    -23.3 9.792e+03 3.799e-09
 23.39964    -23.3 9.944e+03 4.243e-09
 23.41037    -23.8 9.950e+03 4.311e-09
 23.42941    -24.0 1.012e+04 5.228e-09
 23.44477    -24.0 1.015e+04 5.375e-09
 23.45559    -24.6 1.003e+04 5.108e-09
 23.48323    -24.0 1.035e+04 6.796e-09
 23.51530    -24.3 1.069e+04 8.534e-09
 23.53501    -24.6 1.101e+04 1.063e-08
 23.54573    -25.3 1.084e+04 1.013e-08
 23.55809    -25.5 1.105e+04 1.179e-08
 23.57954    -25.8 1.125e+04 1.342e-08
 23.59086    -26.2 1.146e+04 1.506e-08
 23.60158    -26.7 1.105e+04 1.195e-08
 23.62243    -27.1 1.116e+04 1.251e-08
 23.63598    -27.4 1.119e+04 1.252e-08
 23.64670    -27.9 1.056e+04 8.605e-09
 23.66532    -28.2 1.049e+04 8.153e-09
 23.68110    -28.4 1.039e+04 7.627e-09
 23.69183    -28.8 9.823e+03 5.262e-09
 23.70821    -29.1 9.835e+03 5.272e-09
 23.72623    -29.4 9.925e+03 5.714e-09
 23.74777    -29.3 9.551e+03 4.519e-09
 23.78347    -28.6 9.709e+03 5.130e-09
 23.81554    -28.4 9.787e+03 5.028e-09
 23.82719    -28.5 9.786e+03 4.955e-09
 23.83787    -28.3 9.535e+03 4.203e-09
 23.86911    -27.1 9.413e+03 3.548e-09
 23.90691    -26.5 9.441e+03 3.257e-09
 23.92836    -25.8 9.118e+03 2.589e-09
 23.95504    -24.8 9.049e+03 2.036e-09
 23.99716    -23.8 9.000e+03 1.607e-09
 24.01860    -23.3 8.935e+03 1.492e-09
 24.04082    -22.1 8.980e+03 1.301e-09
 24.08371    -20.7 9.051e+03 1.184e-09
 24.10885    -19.3 9.137e+03 1.128e-09
 24.13030    -19.2 9.150e+03 1.287e-09
 24.16950    -17.9 9.257e+03 1.431e-09
 24.19909    -16.5 9.378e+03 1.690e-09
 24.22054    -16.6 9.457e+03 2.073e-09
 24.25528    -15.3 9.792e+03 2.672e-09
 24.28934    -14.4 1.026e+04 3.551e-09
 24.31079    -15.0 1.032e+04 3.994e-09
 24.33025    -14.9 1.059e+04 4.759e-09
 24.34499    -15.4 1.090e+04 6.047e-09
 24.35571    -15.9 1.091e+04 6.505e-09
 24.37304    -16.3 1.116e+04 7.919e-09
 24.39011    -16.7 1.145e+04 9.342e-09
 24.40084    -17.0 1.144e+04 9.397e-09
 24.41593    -17.5 1.153e+04 9.489e-09
 24.43524    -18.0 1.148e+04 9.023e-09
 24.44596    -18.2 1.131e+04 8.359e-09
 24.45882    -18.3 1.114e+04 6.845e-09
 24.48027    -18.4 1.097e+04 5.002e-09
 24.50172    -18.7 1.087e+04 3.189e-09
 24.52316    -19.3 1.088e+04 2.362e-09
 24.55543    -19.1 1.089e+04 1.938e-09
 24.58152    -18.9 1.089e+04 1.638e-09
 24.60297    -18.4 1.087e+04 1.673e-09
 24.64131    -17.6 1.097e+04 1.744e-09
 24.67167    -17.6 1.111e+04 1.908e-09
 24.68230    -17.5 1.117e+04 1.976e-09
 24.69473    -18.3 1.140e+04 2.379e-09
 24.71618    -19.0 1.153e+04 3.314e-09
 24.72742    -19.6 1.170e+04 4.479e-09
 24.73530    -19.6 1.183e+04 4.666e-09
 24.74551    -19.1 1.200e+04 5.262e-09
 24.75907    -20.8 1.280e+04 7.894e-09
 24.77254    -25.5 1.441e+04 2.199e-08
 24.78327    -25.6 1.440e+04 2.674e-08
 24.80196    -32.3 1.709e+04 8.827e-08
 24.81762    -40.1 1.943e+04 1.695e-07
 24.82293    -41.3 1.977e+04 1.968e-07
 24.82867    -47.2 2.029e+04 2.692e-07
 24.83939    -54.8 2.105e+04 2.553e-07
 24.84549    -64.2 2.191e+04 2.190e-07
 24.85085    -67.4 2.217e+04 2.200e-07
 24.86084    -80.1 2.229e+04 1.447e-07
 24.86805    -87.9 2.087e+04 1.484e-07
 24.87341    -90.4 2.036e+04 1.436e-07
 24.88770    -97.8 1.836e+04 2.094e-07
 24.90791   -102.3 1.799e+04 1.971e-07
 24.91863   -103.2 1.783e+04 1.730e-07
 24.93064   -107.9 1.659e+04 6.412e-08
 24.95208   -112.7 1.506e+04 2.966e-08
 24.96376   -115.2 1.409e+04 1.993e-08
 24.97448   -115.2 1.412e+04 1.927e-08
 24.99497   -116.6 1.344e+04 1.184e-08
 25.00888   -117.6 1.298e+04 6.824e-09
 25.01960   -117.9 1.302e+04 6.789e-09
 25.03787   -119.4 1.313e+04 4.468e-09
 25.05400   -120.7 1.322e+04 4.061e-09
 25.06473   -121.2 1.335e+04 6.284e-09
 25.08076   -122.3 1.341e+04 7.504e-09
 25.09913   -123.3 1.349e+04 9.088e-09
 25.10985   -123.7 1.381e+04 1.295e-08
 25.12365   -124.8 1.382e+04 1.285e-08
 25.14425   -126.0 1.367e+04 1.106e-08
 25.15497   -126.7 1.371e+04 1.149e-08
 25.16654   -127.7 1.343e+04 9.068e-09
 25.18799   -128.4 1.319e+04 7.367e-09
 25.20009   -129.0 1.298e+04 6.142e-09
 25.21082   -129.3 1.301e+04 5.841e-09
 25.23088   -129.7 1.283e+04 4.730e-09
 25.24522   -129.9 1.266e+04 3.920e-09
 25.25594   -130.1 1.266e+04 3.558e-09
 25.27377   -130.1 1.251e+04 3.018e-09
 25.29034   -130.1 1.244e+04 2.680e-09
 25.30106   -130.0 1.243e+04 2.574e-09
 25.32484   -129.9 1.239e+04 2.413e-09
 25.34638   -129.6 1.231e+04 2.297e-09
 25.37048   -129.1 1.205e+04 1.998e-09
 25.41337   -128.4 1.188e+04 1.730e-09
 25.43663   -127.8 1.181e+04 1.531e-09
 25.45807   -126.8 1.180e+04 1.406e-09
 25.49915   -126.1 1.181e+04 1.290e-09
 25.52687   -125.4 1.183e+04 1.212e-09
 25.54832   -124.3 1.182e+04 1.111e-09
 25.58494   -123.6 1.185e+04 1.028e-09
 25.61712   -122.8 1.188e+04 9.001e-10
 25.63303   -121.5 1.187e+04 8.906e-10
 25.64374   -121.6 1.190e+04 1.093e-09
 25.67072   -120.9 1.196e+04 9.592e-10
 25.70736   -120.3 1.203e+04 9.113e-10
 25.72881   -119.2 1.207e+04 1.022e-09
 25.75650   -118.7 1.215e+04 1.160e-09
 25.79761   -118.2 1.216e+04 1.604e-09
 25.81905   -117.2 1.216e+04 1.768e-09
 25.84229   -116.6 1.228e+04 2.260e-09
 25.88518   -116.1 1.247e+04 2.665e-09
 25.90920   -115.1 1.262e+04 2.780e-09
 25.93065   -114.5 1.264e+04 2.710e-09
 25.95433   -113.9 1.262e+04 2.986e-09
 25.96495   -113.3 1.261e+04 2.809e-09
 25.98149   -113.5 1.268e+04 3.329e-09
 25.99935   -113.6 1.274e+04 4.266e-09
 26.01007   -112.7 1.268e+04 4.021e-09
 26.02438   -112.6 1.284e+04 4.843e-09
 26.04447   -112.6 1.307e+04 5.592e-09
 26.05520   -111.7 1.296e+04 5.408e-09
 26.06728   -112.2 1.317e+04 6.014e-09
 26.08872   -113.0 1.343e+04 6.521e-09
 26.10032   -114.2 1.365e+04 7.035e-09
 26.11104   -113.3 1.364e+04 7.382e-09
 26.13161   -114.9 1.385e+04 8.295e-09
 26.14544   -116.6 1.398e+04 9.001e-09
 26.15617   -115.9 1.399e+04 9.623e-09
 26.17451   -117.7 1.401e+04 9.662e-09
 26.19056   -119.2 1.398e+04 8.731e-09
 26.20129   -118.6 1.395e+04 9.017e-09
 26.21740   -119.6 1.394e+04 7.299e-09
 26.23569   -120.2 1.389e+04 5.825e-09
 26.24641   -119.6 1.385e+04 5.726e-09
 26.26029   -119.9 1.371e+04 4.497e-09
 26.28081   -119.9 1.361e+04 3.550e-09
 26.29153   -119.3 1.360e+04 3.421e-09
 26.30318   -119.2 1.350e+04 2.710e-09
 26.32463   -119.1 1.340e+04 2.239e-09
 26.35690   -118.6 1.326e+04 1.900e-09
 26.38197   -117.3 1.308e+04 1.610e-09
 26.40342   -116.2 1.309e+04 1.641e-09
 26.44278   -115.1 1.309e+04 1.665e-09
 26.47222   -114.4 1.294e+04 2.077e-09
 26.49367   -113.5 1.293e+04 2.159e-09
 26.52856   -112.8 1.278e+04 2.789e-09
 26.56247   -112.1 1.262e+04 3.167e-09
 26.58391   -111.2 1.261e+04 3.216e-09
 26.61435   -110.4 1.249e+04 3.255e-09
 26.65271   -109.2 1.217e+04 2.747e-09
 26.67416   -108.3 1.223e+04 2.959e-09
 26.70013   -106.8 1.215e+04 2.025e-09
 26.74296   -105.1 1.214e+04 1.260e-09
 26.78585   -102.7 1.214e+04 9.310e-10
 26.82881   -100.8 1.209e+04 7.629e-10
 26.85465    -98.9 1.203e+04 7.388e-10
 26.87609    -98.3 1.210e+04 7.834e-10
 26.91459    -96.5 1.212e+04 8.149e-10
 26.94489    -95.2 1.193e+04 1.165e-09
 26.96634    -94.7 1.195e+04 1.209e-09
 27.00037    -93.2 1.177e+04 1.805e-09
 27.03514    -91.8 1.165e+04 2.508e-09
 27.05659    -91.3 1.165e+04 2.446e-09
 27.08616    -90.2 1.157e+04 2.982e-09
 27.12539    -89.1 1.154e+04 3.376e-09
 27.14683    -88.8 1.155e+04 3.291e-09
 27.17194    -87.9 1.145e+04 3.488e-09
 27.21483    -87.1 1.136e+04 3.544e-09
 27.23708    -86.3 1.125e+04 3.464e-09
 27.25852    -86.1 1.129e+04 3.465e-09
 27.30062    -85.1 1.119e+04 3.560e-09
 27.32732    -83.9 1.105e+04 3.566e-09
 27.34877    -83.6 1.122e+04 4.290e-09
 27.38640    -82.2 1.110e+04 4.472e-09
 27.41757    -80.8 1.105e+04 3.918e-09
 27.42809    -81.1 1.134e+04 5.744e-09
 27.43982    -82.6 1.145e+04 6.520e-09
 27.47219    -81.8 1.136e+04 6.125e-09
 27.50781    -81.0 1.138e+04 6.261e-09
 27.52926    -82.8 1.146e+04 7.759e-09
 27.55797    -82.9 1.146e+04 8.090e-09
 27.59806    -83.2 1.150e+04 1.022e-08
 27.61951    -84.7 1.096e+04 8.097e-09
 27.63293    -83.4 1.102e+04 9.547e-09
 27.65371    -83.2 1.090e+04 8.731e-09
 27.66443    -83.9 1.061e+04 6.695e-09
 27.67573    -84.0 1.032e+04 5.209e-09
 27.69717    -84.0 1.021e+04 4.400e-09
 27.70956    -84.4 9.898e+03 3.651e-09
 27.72028    -84.9 9.645e+03 2.885e-09
 27.74007    -84.9 9.488e+03 2.736e-09
 27.77233    -84.8 9.398e+03 2.580e-09
 27.80000    -84.4 9.343e+03 2.727e-09
 27.82144    -85.0 9.227e+03 2.262e-09
 27.85821    -84.4 9.201e+03 2.349e-09
 27.89024    -83.8 9.061e+03 2.222e-09
 27.91169    -84.3 8.962e+03 1.899e-09
 27.94400    -83.7 8.905e+03 1.700e-09
 27.98049    -83.6 8.873e+03 1.628e-09
 28.00193    -84.1 8.893e+03 1.615e-09
 28.02978    -84.2 9.016e+03 1.880e-09
 28.07073    -84.3 9.174e+03 2.394e-09
 28.09218    -84.5 9.270e+03 2.646e-09
 28.11557    -84.5 9.346e+03 2.923e-09
 28.15846    -84.6 9.419e+03 3.309e-09
 28.18233    -84.6 9.543e+03 4.225e-09
 28.19295    -84.6 9.600e+03 4.129e-09
 28.21188    -84.6 9.700e+03 4.504e-09
 28.22735    -84.5 9.762e+03 4.654e-09
 28.23808    -84.4 9.764e+03 4.346e-09
 28.25477    -84.6 9.847e+03 4.210e-09
 28.27248    -85.0 9.923e+03 4.084e-09
 28.28320    -84.9 9.930e+03 4.005e-09
 28.29766    -85.6 9.983e+03 4.094e-09
 28.31621    -86.2 9.918e+03 4.676e-09
 28.32543    -86.4 9.653e+03 4.933e-09
 28.32832    -86.2 9.638e+03 4.943e-09
 28.34056    -86.2 9.766e+03 5.704e-09
 28.36200    -86.1 9.901e+03 6.162e-09
 28.37344    -86.0 9.950e+03 6.258e-09
 28.38417    -85.7 9.900e+03 5.922e-09
 28.40489    -85.7 9.829e+03 5.681e-09
 28.41857    -85.7 9.762e+03 5.470e-09
 28.42929    -85.3 9.693e+03 4.986e-09
 28.44779    -85.2 9.642e+03 4.917e-09
 28.46369    -85.0 9.621e+03 5.023e-09
 28.47441    -84.6 9.597e+03 4.549e-09
 28.49068    -84.4 9.585e+03 4.930e-09
 28.50881    -84.0 9.645e+03 5.278e-09
 28.51954    -83.5 9.653e+03 4.967e-09
 28.53357    -83.0 9.744e+03 5.262e-09
 28.55394    -82.7 9.776e+03 5.291e-09
 28.56466    -82.2 9.870e+03 5.290e-09
 28.57646    -81.9 9.891e+03 5.193e-09
 28.59791    -81.7 9.821e+03 4.756e-09
 28.60978    -81.5 9.806e+03 4.233e-09
 28.62050    -81.1 9.915e+03 4.447e-09
 28.64080    -80.9 9.946e+03 3.876e-09
 28.65500    -81.1 9.914e+03 2.975e-09
 28.67655    -80.5 1.004e+04 3.435e-09
 28.71606    -80.3 9.951e+03 2.616e-09
 28.74535    -80.0 9.745e+03 2.065e-09
 28.76679    -79.4 9.887e+03 2.347e-09
 28.80184    -78.9 9.765e+03 2.050e-09
 28.83559    -77.9 9.767e+03 2.021e-09
 28.85704    -77.5 9.796e+03 2.022e-09
 28.88762    -76.6 9.841e+03 2.133e-09
 28.92584    -75.6 9.937e+03 2.249e-09
 28.94728    -75.1 9.946e+03 2.126e-09
 28.97341    -74.0 9.994e+03 2.165e-09
 29.01608    -73.0 1.006e+04 2.109e-09
 29.03753    -72.0 1.004e+04 1.806e-09
 29.05919    -70.8 1.005e+04 1.577e-09
 29.10208    -69.5 1.006e+04 1.351e-09
 29.12777    -68.1 1.009e+04 1.235e-09
 29.14922    -66.5 1.017e+04 8.660e-10
 29.18787    -65.3 1.024e+04 8.066e-10
 29.21445    -64.5 1.043e+04 9.154e-10
 29.22315    -64.4 1.047e+04 1.310e-09
 29.23947    -62.8 1.050e+04 9.612e-10
 29.27365    -62.0 1.046e+04 1.542e-09
 29.30827    -60.4 1.073e+04 2.177e-09
 29.32971    -59.0 1.056e+04 1.844e-09
 29.35944    -57.3 1.075e+04 2.056e-09
 29.39851    -55.8 1.095e+04 1.748e-09
 29.41996    -54.2 1.089e+04 1.647e-09
 29.44522    -52.9 1.107e+04 1.431e-09
 29.48811    -51.6 1.118e+04 1.502e-09
 29.51020    -50.3 1.138e+04 1.998e-09
 29.53165    -49.1 1.136e+04 1.837e-09
 29.57390    -48.2 1.188e+04 3.660e-09
 29.60045    -47.4 1.259e+04 9.293e-09
 29.62189    -46.6 1.246e+04 9.016e-09
 29.64547    -47.5 1.326e+04 1.682e-08
 29.65610    -47.0 1.298e+04 1.398e-08
 29.67021    -47.0 1.333e+04 2.064e-08
 29.69050    -46.7 1.379e+04 2.534e-08
 29.70122    -46.2 1.330e+04 1.993e-08
 29.71310    -45.9 1.361e+04 2.267e-08
 29.73455    -45.7 1.388e+04 1.830e-08
 29.74634    -46.0 1.363e+04 1.692e-08
 29.75707    -45.3 1.355e+04 1.672e-08
 29.77744    -45.2 1.359e+04 1.170e-08
 29.79147    -45.7 1.327e+04 1.027e-08
 29.80219    -44.7 1.326e+04 1.113e-08
 29.82033    -44.5 1.323e+04 7.695e-09
 29.83659    -44.1 1.339e+04 4.054e-09
 29.84731    -43.1 1.317e+04 5.578e-09
 29.86322    -43.1 1.348e+04 3.216e-09
 29.88171    -43.6 1.376e+04 1.919e-09
 29.89244    -42.2 1.360e+04 2.491e-09
 29.91694    -42.3 1.356e+04 2.018e-09
 29.95993    -42.8 1.318e+04 2.366e-09
 29.98288    -42.3 1.314e+04 2.741e-09
 30.00432    -40.4 1.307e+04 2.649e-09
 30.04571    -40.5 1.342e+04 2.207e-09
 30.07312    -40.7 1.323e+04 2.040e-09
 30.09457    -39.0 1.326e+04 1.835e-09
 30.13149    -40.1 1.336e+04 2.471e-09
 30.16337    -40.7 1.278e+04 4.155e-09
 30.18481    -39.3 1.287e+04 5.048e-09
 30.21728    -39.9 1.283e+04 4.864e-09
 30.25361    -40.1 1.257e+04 3.543e-09
 30.27506    -38.9 1.269e+04 4.580e-09
 30.30306    -39.2 1.247e+04 2.887e-09
 30.34386    -38.8 1.213e+04 2.091e-09
 30.36531    -37.6 1.219e+04 2.534e-09
 30.38885    -36.5 1.209e+04 1.491e-09
 30.43174    -35.5 1.213e+04 9.309e-10
 30.45555    -34.3 1.208e+04 6.470e-10
 30.47700    -33.2 1.205e+04 8.484e-10
 30.51752    -31.8 1.200e+04 6.469e-10
 30.54580    -30.3 1.194e+04 5.176e-10
 30.56724    -29.2 1.188e+04 6.790e-10
 30.60331    -27.6 1.179e+04 5.596e-10
 30.63604    -25.9 1.175e+04 4.741e-10
 30.65749    -24.7 1.172e+04 5.543e-10
 30.68909    -22.9 1.166e+04 4.713e-10
 30.72629    -21.0 1.161e+04 4.223e-10
 30.74773    -19.8 1.163e+04 4.357e-10
 30.77487    -18.0 1.164e+04 3.877e-10
 30.81653    -16.0 1.157e+04 3.832e-10
 30.83798    -14.8 1.160e+04 3.837e-10
 30.86066    -12.9 1.160e+04 3.983e-10
 30.90355    -11.0 1.157e+04 4.585e-10
 30.92822     -9.0 1.150e+04 5.642e-10
 30.94967     -7.9 1.151e+04 6.462e-10
 30.98908     -5.8 1.150e+04 8.104e-10
 31.01052     -5.9 1.143e+04 7.018e-10
 31.01847     -3.8 1.145e+04 8.541e-10
 31.03992     -2.7 1.145e+04 9.322e-10
 31.07512     -0.7 1.152e+04 1.074e-09
 31.10872      1.2 1.157e+04 1.082e-09
 31.13016      2.3 1.158e+04 1.224e-09
 31.16090      4.1 1.163e+04 1.226e-09
 31.19896      5.8 1.168e+04 1.149e-09
 31.22041      6.9 1.166e+04 1.298e-09
 31.24669      8.6 1.171e+04 1.268e-09
 31.28921     10.3 1.179e+04 1.187e-09
 31.31065     11.4 1.175e+04 1.352e-09
 31.33247     13.0 1.184e+04 1.328e-09
 31.37536     14.6 1.190e+04 1.308e-09
 31.40090     16.1 1.193e+04 1.311e-09
 31.42235     17.2 1.191e+04 1.366e-09
 31.46115     18.7 1.198e+04 1.392e-09
 31.49114     20.1 1.203e+04 1.531e-09
 31.51259     21.3 1.188e+04 1.528e-09
 31.54693     22.5 1.186e+04 1.921e-09
 31.58139     23.5 1.184e+04 2.685e-09
 31.60284     24.6 1.168e+04 2.820e-09
 31.63272     25.4 1.180e+04 4.091e-09
 31.67164     25.9 1.194e+04 5.031e-09
 31.69308     26.7 1.184e+04 5.408e-09
 31.71850     26.7 1.192e+04 6.157e-09
 31.76139     26.5 1.206e+04 6.922e-09
 31.78333     26.0 1.224e+04 7.901e-09
 31.80477     26.4 1.224e+04 9.522e-09
 31.84718     25.1 1.229e+04 9.799e-09
 31.87357     23.8 1.206e+04 8.521e-09
 31.89502     24.3 1.202e+04 9.570e-09
 31.93296     24.2 1.155e+04 6.032e-09
 31.96382     24.1 1.122e+04 3.221e-09
 31.98526     25.0 1.119e+04 3.303e-09
 32.01874     24.9 1.099e+04 1.987e-09
 32.05406     25.2 1.088e+04 1.845e-09
 32.07551     26.0 1.088e+04 1.982e-09
 32.10453     26.1 1.090e+04 2.144e-09
 32.14431     25.8 1.102e+04 2.867e-09
 32.16576     25.4 1.115e+04 4.855e-09
 32.19031     24.3 1.144e+04 6.672e-09
 32.22238     22.3 1.191e+04 8.667e-09
 32.24373     21.7 1.180e+04 9.526e-09
 32.25581     20.5 1.200e+04 9.966e-09
 32.26653     19.7 1.199e+04 9.432e-09
 32.28662     18.5 1.195e+04 8.699e-09
 32.30093     16.6 1.203e+04 7.898e-09
 32.31165     15.4 1.187e+04 6.860e-09
 32.32952     14.4 1.173e+04 6.287e-09
 32.34605     12.5 1.193e+04 6.832e-09
 32.35678     11.6 1.191e+04 6.740e-09
 32.37241      9.5 1.214e+04 8.197e-09
 32.39117      7.3 1.245e+04 1.279e-08
 32.40190      6.4 1.245e+04 1.490e-08
 32.41530      5.9 1.277e+04 2.050e-08
 32.43630      5.6 1.274e+04 1.941e-08
 32.44702      5.4 1.243e+04 1.556e-08
 32.45819      4.8 1.223e+04 1.159e-08
 32.49046      4.1 1.170e+04 7.321e-09
 32.52674      4.1 1.111e+04 3.991e-09
 32.54818      4.0 1.071e+04 2.543e-09
 32.57634      4.7 1.074e+04 2.040e-09
 32.61698      5.8 1.077e+04 1.878e-09
 32.63843      6.1 1.057e+04 1.761e-09
 32.66213      7.5 1.066e+04 1.745e-09
 32.70502      8.8 1.078e+04 1.742e-09
 32.72868     10.2 1.096e+04 1.767e-09
 32.75012     11.0 1.090e+04 1.886e-09
 32.78515     12.2 1.119e+04 2.185e-09
 32.80660     11.0 1.136e+04 3.000e-09
 32.81892     11.9 1.149e+04 3.440e-09
 32.84037     12.4 1.168e+04 4.626e-09
 32.87659     13.3 1.175e+04 6.298e-09
 32.90917     14.1 1.172e+04 7.571e-09
 32.93061     14.4 1.202e+04 8.896e-09
 32.96237     14.9 1.189e+04 8.427e-09
 32.99941     15.5 1.167e+04 7.610e-09
 33.02086     15.5 1.169e+04 7.761e-09
 33.04815     16.4 1.165e+04 7.729e-09
 33.08966     17.2 1.176e+04 8.292e-09
 33.11110     17.5 1.180e+04 8.460e-09
 33.13394     17.7 1.196e+04 9.022e-09
 33.17683     17.7 1.193e+04 8.531e-09
 33.20135     17.6 1.173e+04 6.700e-09
 33.22280     17.9 1.183e+04 6.521e-09
 33.26261     17.7 1.160e+04 4.657e-09
 33.29160     17.5 1.149e+04 3.646e-09
 33.31304     17.3 1.180e+04 5.139e-09
 33.34840     17.5 1.164e+04 4.485e-09
 33.38184     17.9 1.153e+04 3.780e-09
 33.40329     17.7 1.163e+04 3.918e-09
 33.43418     18.7 1.136e+04 2.595e-09
 33.47209     20.0 1.108e+04 1.630e-09
 33.49353     20.5 1.109e+04 1.227e-09
 33.51997     22.0 1.089e+04 7.929e-10
 33.56233     23.8 1.077e+04 5.605e-10
 33.58378     24.6 1.085e+04 5.022e-10
 33.60575     26.7 1.073e+04 4.264e-10
 33.64864     28.9 1.064e+04 3.794e-10
 33.67402     31.4 1.058e+04 3.726e-10
 33.69547     32.4 1.086e+04 3.772e-10
 33.73443     34.9 1.085e+04 3.916e-10
 33.76427     37.4 1.087e+04 4.593e-10
 33.78572     38.3 1.105e+04 7.329e-10
 33.82021     40.9 1.135e+04 9.355e-10
 33.85228     41.5 1.181e+04 1.063e-09
 33.86504     40.9 1.218e+04 1.458e-09
 33.87577     39.6 1.207e+04 3.175e-09
 33.89508     38.2 1.260e+04 1.005e-08
 33.91017     37.4 1.437e+04 3.601e-08
 33.92089     37.3 1.489e+04 5.459e-08
 33.93797     35.9 1.640e+04 1.107e-07
 33.95529     33.2 1.731e+04 1.289e-07
 33.96601     31.7 1.636e+04 8.075e-08
 33.98086     28.6 1.578e+04 5.071e-08
 34.00041     25.3 1.440e+04 2.252e-08
 34.01113     24.0 1.319e+04 1.329e-08
 34.02375     22.0 1.209e+04 6.838e-09
 34.04520     20.9 1.155e+04 4.321e-09
 34.05626     20.9 1.139e+04 3.345e-09
 34.06698     22.0 1.134e+04 3.065e-09
 34.08809     22.2 1.128e+04 2.674e-09
 34.10138     23.0 1.110e+04 2.320e-09
 34.11210     23.8 1.105e+04 2.156e-09
 34.13098     24.2 1.093e+04 2.093e-09
 34.14660     25.3 1.087e+04 2.408e-09
 34.16814     26.7 1.070e+04 2.065e-09
 34.20624     28.2 1.061e+04 2.128e-09
 34.23694     29.7 1.045e+04 2.384e-09
 34.25839     30.8 1.040e+04 2.297e-09
 34.29202     32.1 1.029e+04 2.831e-09
 34.32719     33.2 1.029e+04 3.602e-09
 34.34864     33.8 1.025e+04 3.770e-09
 34.37781     34.0 1.033e+04 5.361e-09
 34.41744     34.1 1.047e+04 7.103e-09
 34.43888     34.2 1.089e+04 9.817e-09
 34.46359     33.9 1.094e+04 1.031e-08
 34.50648     33.6 1.069e+04 9.296e-09
 34.52903     33.5 1.044e+04 8.536e-09
 34.53965     33.5 1.058e+04 9.822e-09
 34.55990     33.8 1.024e+04 8.105e-09
 34.57405     34.2 9.901e+03 6.537e-09
 34.58446     34.0 9.914e+03 6.653e-09
 34.59176     33.5 1.006e+04 7.379e-09
 34.60280     33.7 9.718e+03 5.816e-09
 34.61918     34.0 9.476e+03 4.726e-09
 34.62990     33.6 9.528e+03 5.273e-09
 34.64569     34.0 9.324e+03 4.740e-09
 34.66430     34.7 9.261e+03 4.684e-09
 34.67502     34.3 9.383e+03 5.482e-09
 34.68858     35.0 9.393e+03 5.585e-09
 34.70942     35.9 9.439e+03 5.912e-09
 34.72015     35.4 9.510e+03 6.578e-09
 34.73147     36.4 9.625e+03 7.215e-09
 34.75292     37.3 9.801e+03 8.115e-09
 34.76527     38.4 1.007e+04 9.473e-09
 34.77599     37.8 9.935e+03 9.016e-09
 34.79581     38.7 1.025e+04 1.018e-08
 34.81039     38.5 1.134e+04 1.305e-08
 34.82111     35.8 1.159e+04 1.265e-08
 34.83290     36.0 1.234e+04 1.607e-08
 34.83822     33.9 1.318e+04 1.759e-08
 34.84397     30.3 1.547e+04 2.602e-08
 34.85469     24.7 1.767e+04 5.697e-08
 34.86078     20.6 1.790e+04 1.397e-07
 34.86614     19.5 1.721e+04 1.924e-07
 34.87613     19.6 1.740e+04 3.630e-07
 34.88334     19.7 1.770e+04 4.784e-07
 34.88870     20.1 1.769e+04 4.874e-07
 34.89758     19.6 1.796e+04 4.824e-07
 34.90590     17.3 1.913e+04 4.000e-07
 34.91126     16.4 1.947e+04 2.850e-07
 34.91903      9.5 2.131e+04 1.916e-07
 34.92846      1.7 2.024e+04 1.307e-07
 34.93382     -0.5 1.801e+04 8.718e-08
 34.94047     -4.9 1.547e+04 7.157e-08
 34.95102     -6.7 1.452e+04 6.503e-08
 34.95639     -6.1 1.394e+04 5.095e-08
 34.96192     -6.8 1.380e+04 4.570e-08
 34.97264     -7.4 1.366e+04 4.189e-08
 34.98877     -8.9 1.330e+04 3.092e-08
 35.00161    -11.2 1.255e+04 2.327e-08
 35.01233    -10.9 1.162e+04 1.737e-08
 35.03172    -13.1 1.151e+04 1.796e-08
 35.04673    -14.2 1.164e+04 2.147e-08
 35.05745    -13.6 1.098e+04 1.588e-08
 35.07461    -13.7 1.139e+04 1.905e-08
 35.09185    -13.9 1.151e+04 1.933e-08
 35.10257    -13.6 1.054e+04 1.249e-08
 35.11750    -14.2 1.035e+04 1.086e-08
 35.13697    -15.4 1.004e+04 8.832e-09
 35.14770    -15.5 9.134e+03 5.658e-09
 35.16039    -17.1 8.928e+03 4.667e-09
 35.18184    -18.4 8.951e+03 4.407e-09
 35.19282    -19.3 9.206e+03 4.551e-09
 35.20354    -19.0 8.484e+03 3.404e-09
 35.22473    -19.7 8.656e+03 3.436e-09
 35.23794    -20.5 8.981e+03 3.606e-09
 35.24867    -20.0 8.545e+03 3.038e-09
 35.26762    -20.7 8.715e+03 3.116e-09
 35.28307    -21.7 9.273e+03 3.573e-09
 35.29379    -21.4 8.824e+03 3.136e-09
 35.31051    -26.7 1.143e+04 5.473e-09
 35.32819    -32.9 1.293e+04 1.803e-08
 35.33891    -30.2 1.166e+04 1.113e-08
 35.35341    -31.8 1.265e+04 3.151e-08
 35.37331    -31.2 1.320e+04 4.296e-08
 35.38403    -30.8 1.244e+04 2.815e-08
 35.39630    -32.1 1.207e+04 2.757e-08
 35.41774    -33.2 1.137e+04 2.071e-08
 35.42916    -34.7 1.060e+04 1.193e-08
 35.43988    -33.9 1.033e+04 1.141e-08
 35.46064    -35.1 9.846e+03 8.998e-09
 35.47438    -36.8 8.969e+03 5.932e-09
 35.49592    -35.0 8.945e+03 5.632e-09
 35.53589    -36.1 8.327e+03 4.032e-09
 35.56462    -35.6 8.429e+03 3.979e-09
 35.57525    -35.5 8.430e+03 3.966e-09
 35.58931    -35.6 8.451e+03 4.045e-09
 35.60965    -35.7 8.753e+03 4.866e-09
 35.62037    -35.9 8.877e+03 5.051e-09
 35.63220    -36.2 9.007e+03 5.662e-09
 35.65365    -36.5 9.279e+03 6.955e-09
 35.66549    -37.8 1.003e+04 8.950e-09
 35.67622    -38.6 1.005e+04 9.039e-09
 35.69654    -41.0 1.128e+04 1.384e-08
 35.71062    -43.6 1.221e+04 2.220e-08
 35.72134    -43.1 1.150e+04 1.628e-08
 35.73943    -44.6 1.177e+04 2.131e-08
 35.75574    -45.1 1.190e+04 2.318e-08
 35.76646    -45.3 1.118e+04 1.608e-08
 35.78233    -46.0 1.107e+04 1.479e-08
 35.80086    -46.9 1.080e+04 1.057e-08
 35.81159    -46.7 1.037e+04 8.803e-09
 35.82522    -47.6 1.009e+04 6.608e-09
 35.84599    -48.2 9.819e+03 5.206e-09
 35.85671    -47.6 9.668e+03 4.562e-09
 35.86811    -47.9 9.571e+03 3.622e-09
 35.88956    -48.1 9.574e+03 3.312e-09
 35.92182    -48.0 9.678e+03 3.043e-09
 35.94715    -47.8 9.721e+03 2.558e-09
 35.96860    -47.2 9.514e+03 2.300e-09
 36.00771    -46.8 9.548e+03 2.053e-09
 36.03740    -46.1 9.598e+03 1.814e-09
 36.05884    -45.4 9.463e+03 1.633e-09
 36.09349    -44.5 9.487e+03 1.290e-09
 36.12764    -43.7 9.490e+03 1.078e-09
 36.14909    -43.0 9.459e+03 9.035e-10
 36.17927    -41.9 9.457e+03 8.572e-10
 36.21789    -40.7 9.518e+03 8.858e-10
 36.23933    -39.8 9.513e+03 8.104e-10
 36.26506    -38.6 9.543e+03 8.555e-10
 36.30795    -37.3 9.548e+03 9.444e-10
 36.35084    -34.8 9.652e+03 8.105e-10
 36.37730    -33.3 9.748e+03 7.740e-10
 36.39875    -33.2 9.540e+03 7.722e-10
 36.41982    -31.9 9.811e+03 6.357e-10
 36.44127    -31.4 9.905e+03 6.522e-10
 36.47952    -31.1 1.049e+04 6.888e-10
 36.51007    -31.8 1.054e+04 1.449e-09
 36.53152    -31.0 1.063e+04 2.530e-09
 36.56530    -30.0 1.081e+04 4.037e-09
 36.60031    -29.1 1.104e+04 5.150e-09
 36.62176    -29.0 1.115e+04 4.440e-09
 36.65109    -28.1 1.136e+04 4.389e-09
 36.69056    -27.1 1.171e+04 3.834e-09
 36.71201    -26.5 1.162e+04 3.558e-09
 36.73687    -25.4 1.210e+04 4.007e-09
 36.77976    -24.4 1.257e+04 6.530e-09
 36.80225    -22.7 1.313e+04 1.082e-08
 36.81288    -22.1 1.300e+04 1.082e-08
 36.83318    -21.2 1.350e+04 1.333e-08
 36.84718    -20.6 1.400e+04 1.902e-08
 36.85790    -20.4 1.444e+04 1.965e-08
 36.87607    -23.2 1.708e+04 4.529e-08
 36.89230    -24.8 1.758e+04 1.463e-07
 36.90298    -25.6 1.814e+04 3.339e-07
 36.91351    -24.7 1.784e+04 6.350e-07
 36.92013    -23.2 1.776e+04 8.193e-07
 36.92549    -23.4 1.777e+04 9.589e-07
 36.93495    -22.1 1.805e+04 6.868e-07
 36.94269    -21.5 1.849e+04 3.376e-07
 36.94805    -21.7 1.895e+04 2.320e-07
 36.96181    -27.1 1.877e+04 4.254e-08
 36.98255    -32.8 1.514e+04 1.769e-08
 36.99327    -35.2 1.328e+04 8.129e-09
 37.00475    -35.3 1.281e+04 8.025e-09
 37.02620    -34.5 1.259e+04 7.965e-09
 37.03839    -33.8 1.251e+04 7.438e-09
 37.04912    -34.3 1.226e+04 6.294e-09
 37.06909    -33.1 1.219e+04 5.746e-09
 37.08352    -33.0 1.213e+04 5.573e-09
 37.09434    -33.2 1.203e+04 5.191e-09
 37.11208    -32.0 1.193e+04 4.393e-09
 37.12864    -31.8 1.187e+04 4.189e-09
 37.13936    -31.6 1.174e+04 3.989e-09
 37.15487    -31.0 1.186e+04 4.046e-09
 37.17376    -31.0 1.192e+04 4.325e-09
 37.18449    -30.7 1.206e+04 4.543e-09
 37.19776    -30.4 1.209e+04 6.435e-09
 37.21889    -30.5 1.247e+04 7.222e-09
 37.22961    -30.1 1.256e+04 8.223e-09
 37.24066    -30.5 1.285e+04 1.212e-08
 37.26210    -30.9 1.309e+04 1.575e-08
 37.27473    -30.6 1.328e+04 1.954e-08
 37.27705    -29.6 1.354e+04 2.438e-08
 37.28587    -30.9 1.350e+04 2.157e-08
 37.30499    -30.9 1.360e+04 1.797e-08
 37.31985    -31.4 1.351e+04 1.189e-08
 37.33058    -30.3 1.356e+04 1.135e-08
 37.34789    -31.6 1.331e+04 6.820e-09
 37.36498    -32.9 1.300e+04 5.142e-09
 37.37570    -32.2 1.301e+04 4.953e-09
 37.39078    -32.7 1.293e+04 4.687e-09
 37.41010    -33.2 1.313e+04 5.041e-09
 37.42082    -32.8 1.326e+04 5.428e-09
 37.43367    -32.9 1.327e+04 6.865e-09
 37.45512    -32.6 1.343e+04 8.430e-09
 37.46595    -32.6 1.371e+04 9.003e-09
 37.47667    -31.5 1.396e+04 1.227e-08
 37.49801    -32.0 1.464e+04 1.138e-08
 37.51107    -32.9 1.484e+04 1.101e-08
 37.52179    -32.7 1.613e+04 2.774e-08
 37.54090    -33.5 1.664e+04 2.688e-08
 37.55619    -33.9 1.639e+04 2.643e-08
 37.56691    -34.0 1.761e+04 1.158e-07
 37.58379    -34.1 1.763e+04 1.203e-07
 37.60131    -34.1 1.817e+04 8.246e-08
 37.61199    -33.9 1.832e+04 6.021e-07
 37.62123    -34.8 1.844e+04 4.004e-07
 37.62914    -35.1 1.868e+04 2.384e-07
 37.63450    -35.7 1.820e+04 1.117e-06
 37.64267    -36.2 1.850e+04 5.252e-07
 37.65170    -36.3 1.878e+04 2.869e-07
 37.65706    -37.1 1.830e+04 1.105e-06
 37.66412    -37.8 1.845e+04 8.230e-07
 37.67426    -38.8 1.880e+04 6.812e-07
 37.67962    -38.0 1.744e+04 4.215e-06
 37.68556    -40.3 1.747e+04 3.858e-06
 37.69629    -41.5 1.849e+04 1.264e-06
 37.70218    -41.8 1.913e+04 4.282e-07
 37.70755    -43.1 1.906e+04 8.861e-07
 37.71773    -43.3 1.936e+04 3.809e-07
 37.72407    -43.8 1.903e+04 2.299e-07
 37.72572    -43.6 1.878e+04 1.921e-07
 37.73011    -44.4 1.894e+04 2.370e-07
 37.73918    -44.6 1.866e+04 1.726e-07
 37.74736    -45.0 1.819e+04 1.332e-07
 37.75813    -45.2 1.811e+04 1.467e-07
 37.77681    -44.8 1.786e+04 1.238e-07
 37.79253    -44.7 1.790e+04 1.253e-07
 37.80325    -43.9 1.795e+04 1.443e-07
 37.81970    -43.7 1.789e+04 1.588e-07
 37.83765    -43.4 1.747e+04 1.619e-07
 37.84837    -42.7 1.786e+04 1.914e-07
 37.86259    -43.0 1.761e+04 2.000e-07
 37.88277    -43.5 1.712e+04 1.684e-07
 37.89350    -43.3 1.770e+04 2.148e-07
 37.90548    -43.7 1.720e+04 1.568e-07
 37.92693    -44.1 1.664e+04 9.730e-08
 37.93862    -44.2 1.591e+04 5.485e-08
 37.94934    -43.9 1.658e+04 7.521e-08
 37.96982    -43.9 1.622e+04 5.642e-08
 37.98374    -43.8 1.577e+04 5.036e-08
 37.99447    -43.8 1.605e+04 5.453e-08
 38.01271    -43.3 1.584e+04 5.548e-08
 38.02887    -42.6 1.566e+04 5.639e-08
 38.03959    -42.6 1.568e+04 4.869e-08
 38.05561    -41.9 1.564e+04 5.298e-08
 38.07399    -41.4 1.549e+04 5.049e-08
 38.08471    -40.9 1.512e+04 3.196e-08
 38.09850    -40.5 1.496e+04 3.224e-08
 38.11911    -40.2 1.488e+04 2.977e-08
 38.12983    -39.5 1.455e+04 1.980e-08
 38.14139    -39.2 1.449e+04 2.072e-08
 38.16246    -38.7 1.445e+04 1.906e-08
 38.17318    -39.4 1.439e+04 1.627e-08
 38.17496    -39.2 1.435e+04 1.220e-08
 38.18568    -38.1 1.424e+04 1.294e-08
 38.20573    -38.0 1.437e+04 1.044e-08
 38.22008    -38.2 1.431e+04 8.544e-09
 38.23080    -36.9 1.443e+04 1.049e-08
 38.24862    -37.5 1.428e+04 9.507e-09
 38.26520    -38.2 1.416e+04 9.436e-09
 38.27593    -37.4 1.429e+04 1.129e-08
 38.29151    -38.1 1.417e+04 1.222e-08
 38.31033    -38.6 1.427e+04 1.257e-08
 38.32105    -38.0 1.429e+04 1.490e-08
 38.33440    -38.7 1.435e+04 1.371e-08
 38.35545    -39.4 1.430e+04 1.284e-08
 38.36617    -39.3 1.430e+04 1.343e-08
 38.37730    -39.9 1.440e+04 1.374e-08
 38.39874    -40.3 1.462e+04 1.485e-08
 38.41129    -40.6 1.477e+04 1.531e-08
 38.42202    -40.7 1.478e+04 1.650e-08
 38.44163    -41.0 1.483e+04 1.599e-08
 38.45642    -41.4 1.473e+04 1.526e-08
 38.46714    -41.5 1.477e+04 1.631e-08
 38.48453    -41.9 1.464e+04 1.565e-08
 38.50154    -42.2 1.460e+04 1.491e-08
 38.51226    -42.4 1.462e+04 1.614e-08
 38.52742    -43.1 1.448e+04 1.412e-08
 38.54666    -43.8 1.437e+04 1.131e-08
 38.55739    -44.1 1.429e+04 1.166e-08
 38.57031    -44.3 1.415e+04 8.298e-09
 38.59176    -45.2 1.404e+04 5.993e-09
 38.62402    -46.3 1.381e+04 4.599e-09
 38.66701    -46.9 1.350e+04 3.848e-09
 38.69295    -46.8 1.342e+04 4.127e-09
 38.71439    -45.5 1.334e+04 5.243e-09
 38.75280    -45.3 1.345e+04 6.948e-09
 38.78319    -45.5 1.354e+04 7.612e-09
 38.80464    -43.9 1.349e+04 9.222e-09
 38.83858    -44.4 1.318e+04 7.905e-09
 38.87344    -44.8 1.286e+04 4.697e-09
 38.89489    -43.0 1.275e+04 4.940e-09
 38.92437    -43.5 1.253e+04 3.608e-09
 38.96369    -43.5 1.244e+04 3.557e-09
 38.98513    -41.7 1.231e+04 3.040e-09
 39.01015    -41.6 1.216e+04 3.266e-09
 39.05304    -41.2 1.198e+04 3.330e-09
 39.07538    -40.5 1.166e+04 2.720e-09
 39.09682    -38.6 1.180e+04 2.668e-09
 39.13883    -37.9 1.158e+04 2.201e-09
 39.16562    -37.1 1.133e+04 2.082e-09
 39.18707    -35.1 1.157e+04 2.411e-09
 39.22461    -34.2 1.142e+04 2.875e-09
 39.25577    -33.3 1.136e+04 3.536e-09
 39.27722    -31.8 1.178e+04 5.449e-09
 39.29957    -31.8 1.168e+04 6.922e-09
 39.31152    -31.9 1.160e+04 8.289e-09
 39.32224    -31.3 1.206e+04 1.132e-08
 39.34237    -30.9 1.224e+04 1.475e-08
 39.35664    -30.8 1.228e+04 1.559e-08
 39.36737    -30.0 1.288e+04 2.054e-08
 39.38526    -30.1 1.277e+04 2.066e-08
 39.40176    -30.0 1.232e+04 1.536e-08
 39.41249    -29.4 1.264e+04 1.738e-08
 39.42815    -29.4 1.214e+04 1.214e-08
 39.44689    -29.4 1.164e+04 8.115e-09
 39.45761    -29.0 1.171e+04 8.624e-09
 39.47104    -28.9 1.142e+04 5.846e-09
 39.49201    -28.7 1.123e+04 3.970e-09
 39.50273    -28.4 1.123e+04 4.135e-09
 39.52476    -28.5 1.068e+04 2.560e-09
 39.54805    -27.6 1.036e+04 1.716e-09
 39.56950    -26.6 1.038e+04 1.660e-09
 39.61064    -25.3 1.029e+04 1.501e-09
 39.63830    -25.0 1.049e+04 2.056e-09
 39.65974    -24.7 1.077e+04 2.682e-09
 39.69642    -24.6 1.094e+04 5.823e-09
 39.72854    -23.7 1.121e+04 9.162e-09
 39.74999    -22.4 1.161e+04 1.287e-08
 39.78221    -22.2 1.125e+04 1.185e-08
 39.81879    -21.8 1.079e+04 8.341e-09
 39.84023    -21.4 1.078e+04 7.334e-09
 39.86799    -20.4 1.059e+04 6.468e-09
 39.90903    -19.1 1.057e+04 6.799e-09
 39.93048    -18.3 1.069e+04 5.515e-09
 39.94801    -18.2 1.127e+04 8.165e-09
 39.96946    -18.2 1.146e+04 8.404e-09
 39.97551    -18.4 1.197e+04 1.626e-08
 39.98613    -17.7 1.181e+04 1.266e-08
 40.00719    -17.4 1.233e+04 1.714e-08
 40.02053    -16.4 1.298e+04 2.275e-08
 40.03125    -16.1 1.279e+04 1.324e-08
 40.05009    -16.2 1.329e+04 1.511e-08
 40.06565    -17.5 1.371e+04 1.625e-08
 40.07638    -16.7 1.313e+04 1.244e-08
 40.09298    -18.9 1.382e+04 1.329e-08
 40.11078    -21.1 1.383e+04 1.738e-08
 40.12150    -19.7 1.370e+04 1.546e-08
 40.13587    -21.5 1.387e+04 1.934e-08
 40.15590    -23.3 1.389e+04 2.183e-08
 40.16662    -22.6 1.399e+04 1.799e-08
 40.17876    -25.4 1.371e+04 1.928e-08
 40.20021    -28.5 1.363e+04 1.984e-08
 40.21174    -32.2 1.375e+04 1.981e-08
 40.22247    -33.9 1.468e+04 2.585e-08
 40.24310    -38.0 1.473e+04 2.626e-08
 40.25687    -41.0 1.416e+04 2.461e-08
 40.26759    -41.8 1.456e+04 3.337e-08
 40.28599    -44.1 1.384e+04 2.494e-08
 40.30199    -45.4 1.327e+04 2.238e-08
 40.31271    -46.0 1.291e+04 2.535e-08
 40.32888    -46.3 1.282e+04 2.578e-08
 40.34711    -46.0 1.279e+04 2.695e-08
 40.35784    -46.1 1.250e+04 2.517e-08
 40.37178    -45.5 1.252e+04 2.691e-08
 40.39224    -44.8 1.248e+04 2.664e-08
 40.40296    -45.1 1.246e+04 2.237e-08
 40.41467    -44.3 1.247e+04 2.467e-08
 40.43611    -43.4 1.242e+04 2.434e-08
 40.44808    -42.7 1.228e+04 1.985e-08
 40.45880    -42.1 1.239e+04 2.589e-08
 40.47901    -41.1 1.217e+04 2.287e-08
 40.49320    -40.2 1.186e+04 1.721e-08
 40.50393    -39.4 1.238e+04 1.994e-08
 40.52190    -38.6 1.206e+04 1.555e-08
 40.55417    -37.9 1.181e+04 1.146e-08
 40.58365    -36.5 1.081e+04 6.792e-09
 40.59427    -35.1 1.255e+04 1.451e-08
 40.60768    -34.2 1.203e+04 1.016e-08
 40.62857    -33.8 1.121e+04 7.623e-09
 40.63930    -33.9 1.410e+04 1.828e-08
 40.65057    -34.1 1.355e+04 1.521e-08
 40.67202    -34.4 1.302e+04 1.440e-08
 40.68442    -34.9 1.249e+04 1.594e-08
 40.69514    -35.3 1.477e+04 4.311e-08
 40.71491    -35.1 1.412e+04 4.277e-08
 40.72954    -34.9 1.367e+04 4.382e-08
 40.74026    -34.4 1.495e+04 6.343e-08
 40.75781    -34.1 1.399e+04 4.854e-08
 40.77466    -34.0 1.339e+04 4.016e-08
 40.78539    -33.9 1.336e+04 3.203e-08
 40.80070    -33.7 1.260e+04 2.393e-08
 40.81979    -33.1 1.206e+04 1.864e-08
 40.83051    -34.0 1.169e+04 1.212e-08
 40.84359    -33.8 1.131e+04 1.102e-08
 40.85658    -33.3 1.119e+04 1.083e-08
 40.86717    -33.7 1.123e+04 1.070e-08
 40.87563    -34.2 1.079e+04 6.454e-09
 40.89730    -33.4 1.070e+04 6.397e-09
 40.94029    -32.2 1.076e+04 7.250e-09
 40.96607    -31.2 1.122e+04 1.061e-08
 40.98752    -31.9 1.071e+04 5.949e-09
 41.01110    -31.1 1.132e+04 9.161e-09
 41.02172    -31.2 1.097e+04 7.854e-09
 41.03660    -30.7 1.089e+04 7.866e-09
 41.05612    -29.6 1.083e+04 7.881e-09
 41.06685    -29.3 1.057e+04 5.092e-09
 41.07950    -28.2 1.045e+04 4.434e-09
 41.10094    -27.1 1.034e+04 3.513e-09
 41.11197    -26.3 1.021e+04 2.588e-09
 41.12269    -26.6 1.010e+04 2.313e-09
 41.14647    -25.5 1.002e+04 1.936e-09
 41.16801    -25.8 1.010e+04 2.302e-09
 41.19764    -23.9 1.008e+04 2.259e-09
 41.23681    -21.6 9.961e+03 2.330e-09
 41.25816    -21.0 9.868e+03 4.147e-09
 41.27251    -19.0 9.911e+03 4.364e-09
 41.29246    -18.4 9.837e+03 4.277e-09
 41.30318    -18.1 1.006e+04 4.917e-09
 41.31540    -16.3 1.014e+04 5.037e-09
 41.33685    -15.5 9.984e+03 4.729e-09
 41.34831    -13.3 1.015e+04 4.696e-09
 41.35903    -13.4 1.038e+04 4.868e-09
 41.37974    -12.5 1.011e+04 4.079e-09
 41.41201    -10.8 1.017e+04 3.532e-09
 41.43875     -8.2 9.912e+03 2.505e-09
 41.46019     -8.4 9.967e+03 3.208e-09
 41.49789     -5.7 9.778e+03 2.367e-09
 41.52899     -3.5 9.576e+03 1.785e-09
 41.55044     -2.8 9.916e+03 1.829e-09
 41.58367     -0.9 9.815e+03 1.590e-09
 41.61924      1.3 9.790e+03 1.652e-09
 41.64069      1.6 1.004e+04 1.711e-09
 41.66946      3.3 1.005e+04 1.896e-09
 41.70949      5.6 9.853e+03 2.301e-09
 41.73093      5.8 1.009e+04 2.719e-09
 41.74409      8.0 1.021e+04 2.873e-09
 41.76553      8.0 1.024e+04 2.286e-09
 41.79813     10.4 1.036e+04 2.024e-09
 41.82118     12.4 1.055e+04 1.655e-09
 41.84262     12.1 1.039e+04 2.601e-09
 41.88392     14.4 1.038e+04 2.312e-09
 41.91142     16.7 1.046e+04 1.992e-09
 41.93287     16.5 1.065e+04 2.046e-09
 41.96970     18.7 1.074e+04 2.000e-09
 42.00167     20.9 1.078e+04 2.065e-09
 42.02311     20.9 1.086e+04 2.210e-09
 42.05549     23.1 1.099e+04 2.534e-09
 42.09191     25.0 1.102e+04 3.395e-09
 42.11336     25.2 1.135e+04 5.294e-09
 42.14127     26.8 1.200e+04 9.152e-09
 42.17334     26.6 1.276e+04 1.663e-08
 42.19269     27.0 1.302e+04 2.491e-08
 42.20341     27.0 1.383e+04 3.481e-08
 42.21613     27.3 1.433e+04 4.428e-08
 42.23758     27.3 1.473e+04 5.263e-08
 42.24853     27.4 1.487e+04 5.483e-08
 42.25926     26.8 1.491e+04 8.319e-08
 42.28047     27.2 1.486e+04 8.967e-08
 42.29366     27.6 1.476e+04 8.739e-08
 42.30438     27.7 1.440e+04 6.936e-08
 42.32337     27.9 1.436e+04 7.162e-08
 42.33878     28.3 1.432e+04 7.145e-08
 42.34950     29.0 1.403e+04 2.399e-08
 42.36626     29.7 1.406e+04 2.598e-08
 42.38390     30.4 1.406e+04 2.626e-08
 42.39462     28.8 1.293e+04 1.181e-08
 42.40915     29.4 1.280e+04 1.224e-08
 42.42902     29.9 1.271e+04 1.288e-08
 42.43975     28.8 1.164e+04 7.667e-09
 42.45204     29.6 1.177e+04 8.620e-09
 42.47349     30.3 1.199e+04 9.691e-09
 42.48487     30.1 1.266e+04 1.220e-08
 42.49559     29.5 1.229e+04 1.013e-08
 42.51638     28.6 1.316e+04 1.624e-08
 42.52999     27.2 1.496e+04 4.357e-08
 42.54072     27.9 1.387e+04 2.628e-08
 42.55927     26.8 1.556e+04 5.214e-08
 42.57512     25.2 1.707e+04 8.676e-08
 42.58584     25.4 1.533e+04 3.933e-08
 42.60216     23.2 1.621e+04 5.264e-08
 42.62024     20.3 1.677e+04 8.863e-08
 42.63096     21.2 1.561e+04 4.629e-08
 42.64193     18.9 1.614e+04 7.698e-08
 42.65265     18.7 1.606e+04 8.685e-08
 42.66536     17.6 1.613e+04 1.174e-07
 42.67608     19.1 1.515e+04 5.909e-08
 42.68795     18.2 1.492e+04 6.159e-08
 42.70939     17.8 1.453e+04 5.394e-08
 42.72121     17.8 1.368e+04 3.928e-08
 42.73193     18.2 1.312e+04 2.893e-08
 42.75229     18.1 1.265e+04 2.186e-08
 42.76633     18.4 1.162e+04 1.354e-08
 42.77705     19.9 1.126e+04 1.188e-08
 42.79518     19.2 1.102e+04 9.560e-09
 42.82744     20.5 1.038e+04 6.363e-09
 42.85677     21.6 9.857e+03 4.655e-09
 42.87822     23.7 9.802e+03 3.575e-09
 42.91333     25.1 9.838e+03 3.878e-09
 42.94702     26.7 1.015e+04 5.809e-09
 42.96846     29.1 1.013e+04 4.625e-09
 42.99911     29.6 1.096e+04 8.189e-09
 43.03118     29.3 1.181e+04 1.519e-08
 43.04779     29.9 1.188e+04 2.234e-08
 43.05851     30.9 1.186e+04 2.070e-08
 43.07398     31.7 1.205e+04 2.410e-08
 43.09291     32.1 1.199e+04 2.258e-08
 43.10364     32.9 1.219e+04 2.428e-08
 43.11687     33.1 1.209e+04 2.177e-08
 43.13804     32.6 1.184e+04 1.825e-08
 43.14876     33.5 1.216e+04 2.130e-08
 43.15976     32.8 1.186e+04 1.849e-08
 43.18121     32.0 1.167e+04 1.691e-08
 43.19388     31.7 1.141e+04 1.438e-08
 43.20460     32.5 1.179e+04 1.796e-08
 43.22410     31.9 1.157e+04 1.567e-08
 43.23910     31.6 1.104e+04 1.075e-08
 43.26065     32.8 1.166e+04 1.399e-08
 43.29935     32.2 1.075e+04 7.416e-09
 43.32944     31.4 1.025e+04 5.231e-09
 43.35089     31.7 1.047e+04 6.078e-09
 43.38514     31.5 1.045e+04 5.991e-09
 43.41969     31.4 1.051e+04 5.903e-09
 43.44114     32.0 1.066e+04 6.117e-09
 43.47092     31.7 1.072e+04 4.777e-09
 43.50994     31.0 1.089e+04 4.579e-09
 43.53138     31.8 1.093e+04 3.817e-09
 43.54016     30.9 1.100e+04 4.149e-09
 43.56161     29.5 1.103e+04 4.249e-09
 43.58878     29.7 1.118e+04 4.217e-09
 43.61013     29.5 1.118e+04 4.188e-09
 43.62143     29.5 1.117e+04 3.745e-09
 43.64298     30.4 1.123e+04 2.881e-09
 43.68538     30.8 1.107e+04 2.265e-09
 43.71187     31.0 1.080e+04 1.950e-09
 43.73332     32.5 1.088e+04 1.748e-09
 43.77117     33.4 1.080e+04 1.939e-09
 43.80212     33.8 1.089e+04 2.694e-09
 43.82357     34.8 1.109e+04 2.687e-09
 43.84613     34.3 1.118e+04 4.074e-09
 43.85777     34.3 1.128e+04 6.149e-09
 43.86849     35.0 1.128e+04 6.037e-09
 43.88893     35.4 1.128e+04 8.195e-09
 43.90289     35.8 1.113e+04 8.228e-09
 43.91362     36.3 1.111e+04 7.699e-09
 43.93182     36.3 1.100e+04 6.973e-09
 43.94802     36.0 1.086e+04 5.801e-09
 43.95874     36.3 1.089e+04 5.743e-09
 43.97471     35.7 1.077e+04 4.935e-09
 43.99314     34.8 1.068e+04 4.587e-09
 44.00386     35.1 1.088e+04 5.077e-09
 44.01760     33.4 1.102e+04 5.638e-09
 44.03826     31.3 1.130e+04 8.010e-09
 44.04898     31.8 1.144e+04 8.981e-09
 44.06049     30.8 1.162e+04 1.229e-08
 44.08194     29.7 1.156e+04 1.268e-08
 44.09411     29.8 1.121e+04 1.065e-08
 44.10483     29.4 1.132e+04 1.028e-08
 44.12483     28.3 1.099e+04 7.481e-09
 44.15710     27.0 1.085e+04 5.029e-09
 44.18455     27.1 1.001e+04 3.878e-09
 44.20599     27.4 1.035e+04 5.149e-09
 44.24298     28.1 1.053e+04 5.731e-09
 44.27479     29.0 1.112e+04 8.780e-09
 44.29624     29.2 1.143e+04 9.149e-09
 44.32876     29.7 1.207e+04 1.382e-08
 44.36084     29.2 1.296e+04 2.294e-08
 44.37557     29.6 1.336e+04 3.181e-08
 44.38629     29.6 1.335e+04 3.019e-08
 44.40363     30.1 1.378e+04 3.756e-08
 44.42069     30.4 1.385e+04 3.774e-08
 44.43141     30.6 1.393e+04 3.738e-08
 44.43800     31.0 1.385e+04 3.558e-08
 44.44873     31.4 1.403e+04 4.192e-08
 44.46581     31.8 1.372e+04 3.498e-08
 44.47654     32.0 1.405e+04 4.040e-08
 44.48941     32.6 1.367e+04 3.262e-08
 44.51086     33.1 1.338e+04 2.636e-08
 44.53231     34.2 1.320e+04 2.267e-08
 44.55375     35.0 1.290e+04 1.886e-08
 44.56678     36.0 1.260e+04 1.634e-08
 44.57750     36.5 1.299e+04 1.872e-08
 44.59664     37.7 1.287e+04 1.816e-08
 44.61190     39.2 1.280e+04 1.780e-08
 44.62263     39.9 1.328e+04 2.170e-08
 44.63954     41.3 1.339e+04 2.387e-08
 44.65703     42.7 1.363e+04 2.846e-08
 44.66775     43.8 1.423e+04 3.545e-08
 44.68243     45.2 1.491e+04 5.020e-08
 44.70215     46.8 1.578e+04 7.619e-08
 44.71287     47.9 1.696e+04 1.245e-07
 44.71991     48.7 1.730e+04 1.448e-07
 44.72997     48.8 1.756e+04 1.694e-07
 44.73534     48.9 1.833e+04 2.739e-07
 44.74131     49.2 1.868e+04 4.622e-07
 44.75203     48.9 1.893e+04 7.105e-07
 44.75790     46.0 1.906e+04 1.377e-06
 44.76326     46.4 1.807e+04 3.505e-06
 44.76915     40.5 1.683e+04 1.254e-05
 44.77181     41.4 1.639e+04 1.789e-05
 44.77611     40.3 1.574e+04 3.119e-05
 44.78041     35.8 1.599e+04 2.755e-05
 44.78309     36.3 1.431e+04 1.159e-04
 44.78683     33.0 1.597e+04 2.482e-05
 44.79490     30.6 1.844e+04 3.815e-06
 44.80302     21.6 2.267e+04 3.129e-07
 44.80838     17.4 2.277e+04 2.914e-07
 44.81637      7.0 1.908e+04 6.390e-08
 44.83250     -0.6 1.464e+04 3.130e-08
 44.84824     -0.5 1.341e+04 2.435e-08
 44.85896     -1.4 1.392e+04 3.505e-08
 44.87544     -0.1 1.350e+04 3.247e-08
 44.89336      1.3 1.333e+04 2.910e-08
 44.90409      0.4 1.404e+04 3.819e-08
 44.91833      0.8 1.389e+04 3.237e-08
 44.93849      0.8 1.345e+04 2.577e-08
 44.94921     -1.1 1.345e+04 2.808e-08
 44.96123     -0.9 1.300e+04 2.488e-08
 44.98267     -0.0 1.266e+04 2.208e-08
 44.99433      1.0 1.240e+04 1.891e-08
 45.00506     -0.3 1.224e+04 1.736e-08
 45.02556      0.3 1.182e+04 1.380e-08
 45.03946      1.4 1.160e+04 1.134e-08
 45.06100     -0.2 1.081e+04 7.567e-09
 45.10082      2.0 1.039e+04 6.225e-09
 45.12990      4.6 1.019e+04 5.572e-09
 45.15134      3.3 9.695e+03 3.352e-09
 45.18661      5.6 9.719e+03 3.435e-09
 45.22014      7.9 9.865e+03 3.417e-09
 45.24159      5.5 9.614e+03 3.018e-09
 45.27239      6.8 9.562e+03 3.249e-09
 45.31039      8.1 9.597e+03 3.676e-09
 45.33134      6.8 9.271e+03 3.117e-09
 45.33624      6.5 9.461e+03 3.594e-09
 45.35817      7.3 9.514e+03 3.431e-09
 45.40063      7.1 9.681e+03 3.510e-09
 45.42208      5.2 9.586e+03 3.729e-09
 45.44396      5.5 9.789e+03 5.558e-09
 45.48685      6.3 9.928e+03 7.098e-09
 45.51232      7.5 9.874e+03 6.749e-09
 45.53377      7.4 9.716e+03 5.985e-09
 45.57263      7.9 9.240e+03 3.397e-09
 45.60257      7.7 8.757e+03 2.476e-09
 45.62402      7.3 8.680e+03 2.529e-09
 45.65842      8.2 8.680e+03 2.730e-09
 45.69282      7.8 9.232e+03 4.301e-09
 45.71426      7.5 9.459e+03 5.804e-09
 45.73338      6.7 1.005e+04 9.158e-09
 45.74847      5.8 1.061e+04 1.300e-08
 45.75919      5.7 1.072e+04 1.313e-08
 45.77618      5.1 1.097e+04 1.663e-08
 45.79359      4.0 1.126e+04 1.793e-08
 45.80431      2.0 1.186e+04 2.203e-08
 45.81907     -2.1 1.360e+04 2.952e-08
 45.83871     -8.0 1.502e+04 4.421e-08
 45.84943     -8.5 1.503e+04 5.729e-08
 45.86196    -11.9 1.482e+04 6.594e-08
 45.88341    -13.4 1.464e+04 6.774e-08
 45.89456    -15.8 1.489e+04 5.269e-08
 45.90528    -16.0 1.429e+04 3.579e-08
 45.92630    -23.2 1.393e+04 2.419e-08
 45.93968    -30.9 1.437e+04 2.884e-08
 45.95040    -28.8 1.285e+04 2.276e-08
 45.96919    -32.6 1.448e+04 3.717e-08
 45.98480    -35.6 1.523e+04 5.559e-08
 45.99553    -32.7 1.459e+04 3.843e-08
 46.01208    -35.5 1.463e+04 4.615e-08
 46.02993    -37.4 1.399e+04 4.683e-08
 46.04065    -35.3 1.378e+04 3.552e-08
 46.05497    -36.3 1.288e+04 3.390e-08
 46.07505    -36.5 1.197e+04 2.467e-08
 46.08577    -34.8 1.213e+04 2.520e-08
 46.09787    -34.8 1.133e+04 1.843e-08
 46.11931    -34.9 1.066e+04 1.285e-08
 46.13089    -34.8 1.012e+04 9.282e-09
 46.14162    -33.2 1.034e+04 1.110e-08
 46.16220    -32.9 9.980e+03 8.967e-09
 46.17602    -32.4 9.702e+03 7.844e-09
 46.18674    -31.0 9.863e+03 8.587e-09
 46.20510    -30.4 9.629e+03 7.551e-09
 46.22114    -29.5 9.447e+03 6.776e-09
 46.22868    -28.4 9.467e+03 6.549e-09
 46.23408    -28.3 9.681e+03 7.437e-09
 46.24799    -27.4 9.432e+03 6.199e-09
 46.26626    -26.5 9.232e+03 5.218e-09
 46.27699    -25.5 9.195e+03 4.603e-09
 46.29088    -24.7 8.951e+03 3.555e-09
 46.31139    -24.0 8.767e+03 2.830e-09
 46.32211    -23.7 8.805e+03 2.621e-09
 46.34459    -23.0 8.632e+03 2.340e-09
 46.36743    -21.3 8.602e+03 2.332e-09
 46.38887    -19.8 8.300e+03 1.590e-09
 46.43047    -18.1 8.391e+03 1.682e-09
 46.45767    -16.5 8.731e+03 2.389e-09
 46.47912    -15.2 8.655e+03 2.097e-09
 46.51626    -13.2 8.941e+03 2.837e-09
 46.54792    -11.3 9.225e+03 3.591e-09
 46.56936    -10.1 9.033e+03 2.851e-09
 46.60204     -8.0 9.176e+03 3.368e-09
 46.63816     -5.4 9.436e+03 4.068e-09
 46.65961     -4.3 9.268e+03 3.345e-09
 46.68783     -1.6 9.508e+03 3.798e-09
 46.72841      0.8 9.753e+03 3.754e-09
 46.74986      2.1 9.610e+03 3.236e-09
 46.77361      4.4 9.866e+03 2.984e-09
 46.81650      6.2 1.010e+04 2.897e-09
 46.84010      7.3 1.033e+04 3.384e-09
 46.86155      9.0 1.004e+04 2.467e-09
 46.90229     10.0 9.964e+03 3.510e-09
 46.93035     11.6 1.003e+04 4.855e-09
 46.95179     13.2 9.963e+03 4.812e-09
 46.98807     14.9 9.974e+03 5.535e-09
 47.02059     16.5 9.856e+03 4.266e-09
 47.04204     18.0 1.011e+04 6.163e-09
 47.07386     19.3 9.823e+03 4.412e-09
 47.11084     20.3 9.612e+03 3.612e-09
 47.13228     22.0 1.004e+04 6.716e-09
 47.15964     23.0 9.903e+03 5.260e-09
 47.20108     23.8 9.843e+03 5.664e-09
 47.22253     25.5 9.831e+03 5.179e-09
 47.24542     26.7 9.856e+03 6.153e-09
 47.28832     28.1 1.019e+04 8.036e-09
 47.31278     28.9 1.068e+04 1.059e-08
 47.33422     31.2 1.095e+04 1.074e-08
 47.35780     30.9 1.153e+04 1.576e-08
 47.36843     32.1 1.161e+04 1.499e-08
 47.38463     31.8 1.210e+04 2.112e-08
 47.40283     32.3 1.239e+04 2.653e-08
 47.41355     33.4 1.280e+04 3.119e-08
 47.42752     33.7 1.287e+04 3.105e-08
 47.44795     33.7 1.272e+04 2.633e-08
 47.45867     34.8 1.315e+04 3.171e-08
 47.47041     34.5 1.257e+04 2.460e-08
 47.49186     34.1 1.198e+04 1.757e-08
 47.50379     33.3 1.149e+04 1.496e-08
 47.51452     34.3 1.181e+04 1.735e-08
 47.53475     34.7 1.132e+04 1.338e-08
 47.54892     34.6 1.118e+04 1.285e-08
 47.55964     35.3 1.135e+04 1.356e-08
 47.58341     36.1 1.095e+04 1.173e-08
 47.60496     37.3 1.139e+04 1.317e-08
 47.63145     38.8 1.112e+04 1.156e-08
 47.67376     40.3 1.094e+04 9.767e-09
 47.69520     41.3 1.125e+04 1.107e-08
 47.71724     42.9 1.103e+04 9.441e-09
 47.74023     44.3 1.115e+04 9.695e-09
 47.75085     44.9 1.108e+04 9.122e-09
 47.77066     45.1 1.120e+04 9.416e-09
 47.78525     44.8 1.169e+04 1.130e-08
 47.79598     45.4 1.184e+04 1.099e-08
 47.81355     44.8 1.264e+04 1.722e-08
 47.83038     44.0 1.359e+04 2.966e-08
 47.84110     44.1 1.396e+04 3.381e-08
 47.85644     44.1 1.488e+04 6.095e-08
 47.87550     43.8 1.489e+04 6.081e-08
 47.88622     44.0 1.539e+04 7.777e-08
 47.89933     45.1 1.448e+04 4.743e-08
 47.92062     44.5 1.358e+04 2.194e-08
 47.93135     44.7 1.383e+04 2.545e-08
 47.94222     43.1 1.249e+04 1.100e-08
 47.96367     41.7 1.172e+04 6.378e-09
 47.97647     41.9 1.133e+04 5.659e-09
 47.98719     41.6 1.133e+04 5.516e-09
 48.00656     42.3 1.119e+04 4.787e-09
 48.01943     43.3 1.124e+04 4.466e-09
 48.02374     43.0 1.102e+04 4.238e-09
 48.03231     42.6 1.107e+04 4.409e-09
 48.04945     43.3 1.122e+04 4.856e-09
 48.06671     44.0 1.131e+04 5.458e-09
 48.07744     43.7 1.133e+04 5.923e-09
 48.09235     44.4 1.159e+04 6.551e-09
 48.11184     44.7 1.195e+04 8.078e-09
 48.12256     44.4 1.196e+04 7.863e-09
 48.13524     44.9 1.207e+04 9.667e-09
 48.15668     45.7 1.227e+04 1.088e-08
 48.16768     46.3 1.236e+04 1.064e-08
 48.17841     46.3 1.221e+04 8.183e-09
 48.19958     46.9 1.229e+04 7.688e-09
 48.21281     47.3 1.240e+04 7.468e-09
 48.22353     47.2 1.226e+04 5.676e-09
 48.24247     47.7 1.236e+04 6.234e-09
 48.25793     48.2 1.247e+04 7.539e-09
 48.26865     48.3 1.232e+04 6.416e-09
 48.28536     48.7 1.262e+04 9.283e-09
 48.30305     49.2 1.298e+04 1.393e-08
 48.31377     49.0 1.293e+04 1.404e-08
 48.32825     49.6 1.339e+04 2.115e-08
 48.34817     50.3 1.380e+04 2.775e-08
 48.35890     49.9 1.370e+04 2.716e-08
 48.37114     50.5 1.395e+04 3.009e-08
 48.39259     50.8 1.407e+04 3.064e-08
 48.40402     51.1 1.414e+04 3.046e-08
 48.41474     50.6 1.355e+04 2.234e-08
 48.43548     50.9 1.353e+04 2.090e-08
 48.44914     51.6 1.349e+04 1.940e-08
 48.45987     50.9 1.289e+04 1.221e-08
 48.47837     51.7 1.288e+04 1.074e-08
 48.49427     52.5 1.284e+04 9.444e-09
 48.50499     51.4 1.223e+04 6.553e-09
 48.52127     52.3 1.227e+04 5.815e-09
 48.53939     53.0 1.243e+04 5.134e-09
 48.55011     51.8 1.185e+04 4.556e-09
 48.56416     52.3 1.188e+04 4.198e-09
 48.58451     52.5 1.201e+04 4.289e-09
 48.59523     51.4 1.190e+04 4.254e-09
 48.60705     50.9 1.211e+04 4.601e-09
 48.62850     49.4 1.248e+04 5.972e-09
 48.64036     46.4 1.328e+04 1.032e-08
 48.65108     47.2 1.284e+04 9.260e-09
 48.67139     45.5 1.358e+04 1.773e-08
 48.68548     44.5 1.422e+04 2.669e-08
 48.69620     45.5 1.370e+04 1.723e-08
 48.71428     44.1 1.403e+04 1.833e-08
 48.73060     41.9 1.435e+04 1.986e-08
 48.74133     42.3 1.420e+04 1.731e-08
 48.75717     39.9 1.450e+04 2.776e-08
 48.77573     38.9 1.431e+04 3.842e-08
 48.78645     39.4 1.448e+04 4.243e-08
 48.80007     39.6 1.400e+04 3.792e-08
 48.82085     40.6 1.310e+04 2.041e-08
 48.83157     40.9 1.319e+04 2.114e-08
 48.84296     39.6 1.280e+04 1.099e-08
 48.87522     39.4 1.209e+04 7.196e-09
 48.90694     41.2 1.140e+04 4.337e-09
 48.92146     41.8 1.151e+04 4.648e-09
 48.93274     41.6 1.174e+04 5.850e-09
 48.96111     44.1 1.152e+04 4.492e-09
 49.00153     46.2 1.158e+04 3.911e-09
 49.02298     46.4 1.168e+04 5.108e-09
 49.04689     48.2 1.162e+04 4.853e-09
 49.08978     49.9 1.147e+04 4.701e-09
 49.11323     51.7 1.117e+04 4.541e-09
 49.13467     52.5 1.130e+04 5.952e-09
 49.17557     54.5 1.091e+04 4.855e-09
 49.20347     56.5 1.054e+04 3.588e-09
 49.22492     57.1 1.078e+04 4.506e-09
 49.26135     59.2 1.041e+04 3.102e-09
 49.29372     61.4 1.013e+04 2.134e-09
 49.31516     62.3 1.030e+04 3.023e-09
 49.34713     64.7 1.007e+04 2.289e-09
 49.38396     67.2 9.894e+03 1.897e-09
 49.40541     68.3 1.017e+04 3.139e-09
 49.43292     70.9 1.014e+04 2.782e-09
 49.47421     73.1 1.006e+04 2.610e-09
 49.49556     73.5 1.017e+04 3.361e-09
 49.50778     75.3 1.004e+04 3.263e-09
 49.52923     76.1 1.000e+04 3.183e-09
 49.54058     77.7 9.901e+03 3.145e-09
 49.55131     77.6 1.002e+04 4.060e-09
 49.57212     78.7 9.936e+03 3.972e-09
 49.58571     79.8 9.803e+03 3.968e-09
 49.59643     79.8 9.902e+03 5.028e-09
 49.61501     81.0 9.874e+03 4.994e-09
 49.63083     82.2 9.874e+03 5.362e-09
 49.64155     81.9 1.011e+04 6.623e-09
 49.65791     82.7 1.022e+04 7.419e-09
 49.67595     83.4 1.043e+04 8.603e-09
 49.68667     82.9 1.057e+04 9.712e-09
 49.70080     83.3 1.094e+04 1.127e-08
 49.72107     83.0 1.149e+04 1.409e-08
 49.73180     82.0 1.136e+04 1.332e-08
 49.74369     81.2 1.231e+04 1.927e-08
 49.76514     80.1 1.357e+04 3.312e-08
 49.77692     79.6 1.481e+04 5.767e-08
 49.78764     78.8 1.418e+04 4.676e-08
 49.80479     78.2 1.456e+04 5.376e-08
 49.81551     78.4 1.513e+04 6.976e-08
 49.82204     77.9 1.497e+04 6.590e-08
 49.83277     77.5 1.412e+04 4.981e-08
 49.85092     77.5 1.345e+04 3.905e-08
 49.86717     77.4 1.241e+04 2.598e-08
 49.87789     77.3 1.197e+04 2.268e-08
 49.89381     77.2 1.109e+04 1.575e-08
 49.91229     77.1 1.036e+04 1.157e-08
 49.92301     77.3 1.018e+04 1.092e-08
 49.93670     77.7 9.681e+03 8.744e-09
 49.95741     78.4 9.339e+03 7.503e-09
 49.96813     78.6 9.178e+03 7.034e-09
 49.97960     79.4 8.967e+03 6.417e-09
 50.00104     80.3 8.937e+03 6.346e-09
 50.01326     81.3 8.968e+03 6.453e-09
 50.02398     81.7 8.859e+03 6.147e-09
 50.04393     82.5 8.993e+03 6.526e-09
 50.05838     82.5 9.462e+03 7.820e-09
 50.06910     83.5 9.241e+03 7.302e-09
 50.08683     83.3 1.013e+04 1.001e-08
 50.10350     82.4 1.189e+04 1.826e-08
 50.11423     83.6 1.118e+04 1.461e-08
 50.12972     83.0 1.294e+04 2.795e-08
 50.14863     83.4 1.431e+04 5.073e-08
 50.15935     84.1 1.382e+04 4.087e-08
 50.17261     84.7 1.485e+04 6.338e-08
 50.19375     85.3 1.533e+04 7.280e-08
 50.20447     85.6 1.488e+04 6.006e-08
 50.21550     85.9 1.490e+04 5.843e-08
 50.23695     86.1 1.470e+04 5.298e-08
 50.24959     86.0 1.443e+04 4.580e-08
 50.26032     86.4 1.347e+04 3.205e-08
 50.27984     86.5 1.324e+04 2.911e-08
 50.29472     86.7 1.344e+04 2.996e-08
 50.30544     87.3 1.167e+04 1.562e-08
 50.32273     87.5 1.211e+04 1.696e-08
 50.33984     87.7 1.348e+04 2.283e-08
 50.35056     88.4 9.836e+03 8.087e-09
 50.36563     88.9 1.127e+04 1.060e-08
 50.38496     89.4 1.302e+04 1.555e-08
 50.39569     89.6 9.381e+03 4.379e-09
 50.40852     90.5 1.089e+04 6.486e-09
 50.42996     91.5 1.254e+04 1.018e-08
 50.44081     92.4 1.387e+04 1.691e-08
 50.45153     93.2 1.058e+04 4.215e-09
 50.47286     93.8 1.304e+04 8.489e-09
 50.48593     93.5 1.580e+04 2.405e-08
 50.49665     95.0 1.267e+04 4.828e-09
 50.51575     94.0 1.624e+04 1.892e-08
 50.53105     93.2 1.755e+04 6.119e-08
 50.54178     94.6 1.621e+04 1.583e-08
 50.55864     93.9 1.726e+04 5.861e-08
 50.57468     93.3 1.727e+04 7.441e-08
 50.58144     92.6 1.755e+04 1.052e-07
 50.58685     94.4 1.726e+04 5.663e-08
 50.59612     92.3 1.773e+04 1.135e-07
 50.60400     91.6 1.794e+04 1.691e-07
 50.60936     91.5 1.797e+04 1.572e-07
 50.61752     91.1 1.869e+04 2.317e-07
 50.62656     89.2 2.066e+04 3.014e-07
 50.63192     89.5 1.933e+04 4.101e-07
 50.63896     85.8 2.127e+04 5.087e-07
 50.64912     79.6 2.250e+04 4.617e-07
 50.65449     80.8 1.999e+04 1.374e-06
 50.66041     74.4 2.116e+04 8.031e-07
 50.67113     67.5 2.162e+04 3.339e-07
 50.67705     62.1 2.003e+04 1.920e-07
 50.68241     60.6 2.146e+04 2.117e-07
 50.69258     56.1 1.869e+04 1.490e-07
 50.69961     51.4 2.112e+04 1.446e-07
 50.70439     40.5 2.696e+04 1.528e-07
 50.70809     42.2 2.540e+04 1.343e-07
 50.71403     17.4 2.791e+04 5.649e-07
 50.72217      1.5 1.800e+04 5.359e-06
 50.72753     -5.9 1.769e+04 5.467e-06
 50.73547     -8.9 1.684e+04 1.093e-05
 50.74473    -16.1 1.760e+04 7.862e-06
 50.75009    -20.6 1.836e+04 4.600e-06
 50.75692    -37.4 2.203e+04 2.290e-07
 50.76729    -56.1 1.624e+04 2.176e-08
 50.77265    -57.9 1.425e+04 2.004e-08
 50.77836    -60.1 1.219e+04 1.527e-08
 50.79450    -59.5 1.187e+04 1.403e-08
 50.81251    -59.9 1.081e+04 1.094e-08
 50.82324    -58.9 1.154e+04 1.280e-08
 50.83744    -59.3 9.992e+03 8.962e-09
 50.85764    -59.0 9.652e+03 7.340e-09
 50.86836    -58.4 9.743e+03 7.755e-09
 50.88033    -57.8 9.441e+03 6.429e-09
 50.90178    -56.5 9.103e+03 5.367e-09
 50.91348    -55.2 8.847e+03 4.543e-09
 50.92421    -55.3 9.037e+03 5.074e-09
 50.94467    -54.0 8.903e+03 4.621e-09
 50.95861    -52.6 8.807e+03 4.328e-09
 50.96933    -52.9 9.104e+03 5.154e-09
 50.98756    -51.4 9.071e+03 5.089e-09
 51.00373    -49.7 9.052e+03 5.115e-09
 51.01445    -49.9 9.411e+03 6.207e-09
 51.03045    -48.3 9.415e+03 6.274e-09
 51.04885    -46.7 9.416e+03 6.319e-09
 51.05957    -46.8 9.810e+03 7.572e-09
 51.07334    -45.2 9.804e+03 7.593e-09
 51.09397    -43.8 9.924e+03 7.911e-09
 51.10470    -44.0 1.033e+04 9.399e-09
 51.11624    -42.8 1.055e+04 1.016e-08
 51.13768    -41.7 1.083e+04 1.099e-08
 51.14982    -40.2 1.097e+04 1.166e-08
 51.16054    -40.2 1.103e+04 1.179e-08
 51.18432    -38.0 1.105e+04 1.212e-08
 51.20576    -38.4 1.118e+04 1.270e-08
 51.22347    -36.8 1.119e+04 1.292e-08
 51.24007    -36.0 1.113e+04 1.244e-08
 51.25079    -36.1 1.105e+04 1.182e-08
 51.26636    -35.0 1.089e+04 1.058e-08
 51.28519    -33.9 1.065e+04 9.036e-09
 51.29591    -33.8 1.039e+04 7.663e-09
 51.30925    -32.9 1.017e+04 6.411e-09
 51.33031    -31.9 9.979e+03 5.402e-09
 51.34103    -31.8 9.723e+03 4.724e-09
 51.35214    -30.7 9.614e+03 4.204e-09
 51.37359    -29.7 9.526e+03 3.889e-09
 51.38616    -28.6 9.453e+03 3.690e-09
 51.39688    -28.0 9.442e+03 3.698e-09
 51.41648    -26.7 9.463e+03 3.543e-09
 51.43128    -25.5 9.505e+03 3.416e-09
 51.44200    -24.8 9.520e+03 3.595e-09
 51.45937    -23.6 9.562e+03 3.529e-09
 51.47640    -22.3 9.613e+03 3.496e-09
 51.48713    -21.7 9.719e+03 3.930e-09
 51.50226    -20.4 9.854e+03 3.924e-09
 51.52152    -19.2 9.963e+03 4.056e-09
 51.53225    -18.6 1.008e+04 4.669e-09
 51.54516    -17.5 1.021e+04 4.901e-09
 51.56660    -16.5 1.040e+04 5.324e-09
 51.58805    -15.2 1.082e+04 6.872e-09
 51.60086    -14.6 1.112e+04 7.889e-09
 51.61158    -13.7 1.094e+04 6.972e-09
 51.62249    -13.1 1.120e+04 7.903e-09
 51.63322    -12.6 1.129e+04 8.422e-09
 51.65239    -12.1 1.150e+04 9.007e-09
 51.66762    -11.7 1.176e+04 9.568e-09
 51.67834    -11.5 1.182e+04 9.758e-09
 51.69528    -11.5 1.208e+04 1.029e-08
 51.71274    -11.5 1.238e+04 1.148e-08
 51.72346    -11.6 1.256e+04 1.232e-08
 51.73817    -11.4 1.280e+04 1.412e-08
 51.75786    -10.7 1.298e+04 1.606e-08
 51.76859    -10.7 1.298e+04 1.589e-08
 51.78106     -9.8 1.305e+04 1.638e-08
 51.80251     -8.8 1.313e+04 1.660e-08
 51.81371     -7.6 1.320e+04 1.658e-08
 51.82443     -7.9 1.291e+04 1.271e-08
 51.84540     -6.7 1.294e+04 1.267e-08
 51.85883     -5.5 1.320e+04 1.312e-08
 51.86955     -6.1 1.272e+04 1.095e-08
 51.88829     -5.1 1.323e+04 1.339e-08
 51.90395     -4.4 1.393e+04 1.981e-08
 51.91468     -4.8 1.340e+04 1.745e-08
 51.93119     -4.3 1.407e+04 2.588e-08
 51.94908     -3.7 1.479e+04 4.058e-08
 51.95980     -4.0 1.394e+04 2.854e-08
 51.97408     -3.4 1.446e+04 3.736e-08
 51.99420     -3.0 1.507e+04 4.891e-08
 52.00492     -3.1 1.359e+04 2.369e-08
 52.01697     -2.6 1.391e+04 2.607e-08
 52.03842     -2.1 1.418e+04 2.880e-08
 52.05004     -1.7 1.432e+04 3.046e-08
 52.06077     -1.6 1.206e+04 8.123e-09
 52.08131     -1.2 1.224e+04 8.149e-09
 52.09517     -0.8 1.245e+04 8.391e-09
 52.10589     -0.7 1.102e+04 2.599e-09
 52.12420     -0.5 1.109e+04 2.953e-09
 52.14029     -0.0 1.149e+04 4.593e-09
 52.15111      0.3 1.057e+04 2.623e-09
 52.16719      1.6 1.101e+04 4.332e-09
 52.18541      2.1 1.132e+04 6.439e-09
 52.19614      3.0 1.086e+04 4.408e-09
 52.20998      4.0 1.112e+04 7.193e-09
 52.23054      5.1 1.157e+04 1.081e-08
 52.24126      6.0 1.111e+04 6.914e-09
 52.25288      7.0 1.157e+04 1.120e-08
 52.27432      7.9 1.197e+04 1.507e-08
 52.28638      9.0 1.234e+04 1.895e-08
 52.29710      9.6 1.195e+04 1.565e-08
 52.31721     10.5 1.224e+04 1.895e-08
 52.33150     11.7 1.248e+04 2.099e-08
 52.34223     12.2 1.216e+04 1.862e-08
 52.36011     13.2 1.235e+04 2.013e-08
 52.37663     14.2 1.244e+04 2.008e-08
 52.38735     14.6 1.226e+04 1.931e-08
 52.40300     15.3 1.231e+04 1.884e-08
 52.42175     16.0 1.228e+04 1.748e-08
 52.43247     16.3 1.219e+04 1.766e-08
 52.44589     16.8 1.213e+04 1.649e-08
 52.46687     17.2 1.205e+04 1.492e-08
 52.47760     17.5 1.195e+04 1.571e-08
 52.48818     17.8 1.184e+04 1.516e-08
 52.49890     19.4 1.212e+04 1.685e-08
 52.51023     19.7 1.200e+04 1.631e-08
 52.52272     20.0 1.201e+04 1.713e-08
 52.53344     20.1 1.198e+04 1.701e-08
 52.55312     20.4 1.196e+04 1.785e-08
 52.56784     20.9 1.191e+04 1.818e-08
 52.57856     21.0 1.163e+04 1.631e-08
 52.59601     21.5 1.141e+04 1.487e-08
 52.61296     21.7 1.107e+04 1.256e-08
 52.62369     21.8 1.075e+04 1.073e-08
 52.63890     21.9 1.056e+04 9.712e-09
 52.65809     22.0 1.051e+04 9.426e-09
 52.66881     22.2 1.026e+04 8.380e-09
 52.68180     22.5 1.034e+04 8.550e-09
 52.70321     22.7 1.039e+04 8.814e-09
 52.72466     23.4 1.013e+04 7.714e-09
 52.74613     23.7 1.016e+04 7.479e-09
 52.75906     23.9 1.020e+04 7.146e-09
 52.76978     24.4 9.834e+03 5.553e-09
 52.78903     24.4 9.857e+03 5.030e-09
 52.80418     24.4 9.884e+03 4.925e-09
 52.82572     25.8 9.670e+03 3.860e-09
 52.84940     25.3 9.977e+03 4.164e-09
 52.86002     26.1 9.635e+03 3.626e-09
 52.87481     26.3 9.981e+03 4.104e-09
 52.89442     26.6 1.026e+04 5.006e-09
 52.90515     27.3 1.013e+04 4.611e-09
 52.91770     27.0 1.045e+04 6.020e-09
 52.93915     27.0 1.120e+04 9.100e-09
 52.95027     25.5 1.202e+04 1.474e-08
 52.96099     25.6 1.218e+04 1.631e-08
 52.98204     25.5 1.343e+04 3.513e-08
 52.99539     25.8 1.440e+04 5.662e-08
 53.00612     25.5 1.465e+04 5.917e-08
 53.02493     25.8 1.529e+04 7.105e-08
 53.04052     24.5 1.500e+04 5.741e-08
 53.05124     24.1 1.519e+04 6.334e-08
 53.06782     23.0 1.416e+04 3.597e-08
 53.08564     21.7 1.322e+04 2.010e-08
 53.09636     21.5 1.329e+04 2.110e-08
 53.11072     20.8 1.275e+04 1.362e-08
 53.13076     20.6 1.234e+04 1.013e-08
 53.14148     20.3 1.232e+04 1.008e-08
 53.16443     21.0 1.202e+04 8.214e-09
 53.18680     23.1 1.172e+04 6.900e-09
 53.20825     22.7 1.160e+04 5.828e-09
 53.25031     24.3 1.156e+04 5.518e-09
 53.27705     26.0 1.155e+04 5.571e-09
 53.29849     26.2 1.118e+04 3.333e-09
 53.33610     28.1 1.110e+04 3.124e-09
 53.36729     30.0 1.091e+04 2.616e-09
 53.38874     30.4 1.078e+04 1.606e-09
 53.42188     32.5 1.073e+04 1.493e-09
 53.45754     34.7 1.071e+04 1.257e-09
 53.47899     35.5 1.067e+04 1.130e-09
 53.50766     37.6 1.071e+04 9.924e-10
 53.54779     39.7 1.072e+04 9.212e-10
 53.56923     40.6 1.073e+04 1.013e-09
 53.59345     42.5 1.070e+04 1.178e-09
 53.63634     44.7 1.072e+04 1.492e-09
 53.65948     46.9 1.083e+04 1.732e-09
 53.68092     47.7 1.100e+04 1.958e-09
 53.72212     49.7 1.122e+04 1.991e-09
 53.74972     51.0 1.146e+04 2.324e-09
 53.77117     51.4 1.158e+04 2.384e-09
 53.80791     52.7 1.171e+04 3.234e-09
 53.83997     54.2 1.177e+04 4.281e-09
 53.86141     54.5 1.196e+04 4.386e-09
 53.89369     55.6 1.233e+04 5.014e-09
 53.93021     55.9 1.277e+04 6.673e-09
 53.95166     55.7 1.293e+04 6.787e-09
 53.97948     56.0 1.270e+04 1.101e-08
 54.02046     56.8 1.243e+04 9.642e-09
 54.04191     56.9 1.233e+04 8.892e-09
 54.06526     59.6 1.188e+04 3.687e-09
 54.10815     60.8 1.225e+04 1.104e-09
 54.13215     61.9 1.170e+04 8.155e-10
 54.15360     62.7 1.176e+04 7.116e-10
 54.19394     65.3 1.162e+04 7.371e-10
 54.22240     67.9 1.150e+04 9.006e-10
 54.24384     68.9 1.157e+04 7.618e-10
 54.27372     71.5 1.143e+04 1.047e-09
 54.29517     71.5 1.147e+04 8.562e-10
 54.31264     74.2 1.125e+04 1.248e-09
 54.33409     75.3 1.132e+04 9.513e-10
 54.36550     78.0 1.115e+04 1.321e-09
 54.40289     80.7 1.112e+04 1.515e-09
 54.42433     81.9 1.112e+04 1.278e-09
 54.45129     84.5 1.110e+04 1.478e-09
 54.49313     87.1 1.113e+04 1.622e-09
 54.51458     88.4 1.110e+04 1.588e-09
 54.53707     91.0 1.118e+04 1.856e-09
 54.57997     93.4 1.127e+04 2.191e-09
 54.60473     95.0 1.122e+04 2.416e-09
 54.61535     95.8 1.119e+04 2.450e-09
 54.63338     96.9 1.113e+04 2.785e-09
 54.64975     98.2 1.116e+04 3.384e-09
 54.66048     98.8 1.108e+04 3.396e-09
 54.67628     99.9 1.129e+04 4.296e-09
 54.69488    100.4 1.177e+04 5.994e-09
 54.70560    101.5 1.148e+04 5.605e-09
 54.71917    101.8 1.199e+04 8.243e-09
 54.74000    102.3 1.247e+04 1.374e-08
 54.75072    103.1 1.225e+04 1.121e-08
 54.76206    103.4 1.272e+04 1.661e-08
 54.78351    103.2 1.287e+04 1.907e-08
 54.79584    102.5 1.279e+04 1.837e-08
 54.80657    102.9 1.262e+04 1.618e-08
 54.82640    102.1 1.243e+04 1.481e-08
 54.84097    101.5 1.212e+04 1.256e-08
 54.85169    101.9 1.195e+04 1.174e-08
 54.86929    101.9 1.179e+04 1.074e-08
 54.88609    102.2 1.183e+04 1.072e-08
 54.89681    102.9 1.169e+04 1.010e-08
 54.91218    103.6 1.188e+04 1.058e-08
 54.93121    104.3 1.212e+04 1.174e-08
 54.94194    105.1 1.207e+04 1.138e-08
 54.95508    105.9 1.232e+04 1.404e-08
 54.97634    106.7 1.250e+04 1.837e-08
 54.98706    107.4 1.268e+04 1.945e-08
 54.99797    108.3 1.304e+04 2.732e-08
 55.01941    109.3 1.347e+04 3.756e-08
 55.03218    110.8 1.409e+04 5.186e-08
 55.04290    111.0 1.501e+04 6.729e-08
 55.06231    112.0 1.552e+04 8.439e-08
 55.07726    113.0 1.547e+04 9.311e-08
 55.08257    113.1 1.608e+04 1.150e-07
 55.08902    113.8 1.600e+04 1.181e-07
 55.09974    114.5 1.598e+04 1.277e-07
 55.11046    114.8 1.649e+04 1.831e-07
 55.12118    115.4 1.663e+04 2.128e-07
 55.12769    116.1 1.683e+04 2.475e-07
 55.13305    116.1 1.692e+04 3.302e-07
 55.14263    116.9 1.703e+04 3.854e-07
 55.15025    117.6 1.705e+04 4.236e-07
 55.15561    117.5 1.743e+04 6.934e-07
 55.16408    118.1 1.726e+04 7.576e-07
 55.17281    119.2 1.711e+04 8.192e-07
 55.17818    118.6 1.730e+04 1.239e-06
 55.18219    119.8 1.729e+04 1.395e-06
 55.18755    119.1 1.752e+04 1.202e-06
 55.19538    120.0 1.756e+04 1.450e-06
 55.20074    118.4 1.769e+04 1.473e-06
 55.20697    118.5 1.773e+04 1.820e-06
 55.21769    117.9 1.776e+04 2.237e-06
 55.22330    117.3 1.776e+04 2.299e-06
 55.22866    115.4 1.788e+04 1.287e-06
 55.23914    115.8 1.781e+04 1.027e-06
 55.24586    116.3 1.788e+04 8.162e-07
 55.25122    114.5 1.775e+04 3.431e-07
 55.26058    114.4 1.781e+04 2.759e-07
 55.26842    115.0 1.824e+04 2.006e-07
 55.27919    112.4 1.899e+04 3.801e-08
 55.29821    109.8 2.026e+04 2.707e-08
 55.31364    106.0 1.954e+04 5.026e-08
 55.32436    106.2 1.656e+04 1.941e-08
 55.34110    105.2 1.720e+04 3.741e-08
 55.35876    104.5 1.763e+04 7.006e-08
 55.36949    106.7 1.639e+04 2.262e-08
 55.38400    105.8 1.729e+04 4.348e-08
 55.40389    105.4 1.748e+04 7.201e-08
 55.41461    107.0 1.623e+04 2.939e-08
 55.42689    106.8 1.604e+04 4.597e-08
 55.44833    107.2 1.562e+04 5.427e-08
 55.45973    107.6 1.511e+04 5.088e-08
 55.47046    108.5 1.411e+04 3.680e-08
 55.49123    109.1 1.376e+04 3.511e-08
 55.50486    109.8 1.330e+04 3.063e-08
 55.51558    110.9 1.270e+04 2.541e-08
 55.53412    111.7 1.237e+04 2.262e-08
 55.54998    112.3 1.205e+04 1.970e-08
 55.56070    113.7 1.162e+04 1.749e-08
 55.57701    114.2 1.156e+04 1.697e-08
 55.59510    114.5 1.162e+04 1.734e-08
 55.60582    116.1 1.122e+04 1.490e-08
 55.61990    116.2 1.145e+04 1.641e-08
 55.64022    115.8 1.205e+04 2.142e-08
 55.65095    117.6 1.158e+04 1.696e-08
 55.66279    116.9 1.248e+04 2.554e-08
 55.68424    116.4 1.318e+04 3.637e-08
 55.69607    116.1 1.338e+04 4.057e-08
 55.70679    117.0 1.365e+04 4.445e-08
 55.72713    116.5 1.356e+04 4.319e-08
 55.74119    116.0 1.315e+04 3.422e-08
 55.74651    116.2 1.356e+04 4.097e-08
 55.75384    116.1 1.336e+04 3.818e-08
 55.76366    114.4 1.310e+04 2.847e-08
 55.76902    114.7 1.349e+04 3.401e-08
 55.77529    113.6 1.319e+04 3.032e-08
 55.78627    110.6 1.268e+04 2.365e-08
 55.79704    110.9 1.348e+04 3.323e-08
 55.81292    107.2 1.276e+04 2.667e-08
 55.83144    104.2 1.196e+04 2.066e-08
 55.84216    104.3 1.230e+04 2.108e-08
 55.85581    101.2 1.119e+04 1.241e-08
 55.87656     98.5 1.026e+04 7.976e-09
 55.88728     96.8 1.009e+04 7.154e-09
 55.89870     96.2 9.731e+03 6.499e-09
 55.92015     96.6 9.608e+03 6.386e-09
 55.93241     97.5 9.689e+03 6.638e-09
 55.94313     97.3 9.974e+03 7.791e-09
 55.96304     98.4 1.013e+04 8.388e-09
 55.97753     99.4 1.021e+04 8.653e-09
 55.98825     99.6 1.052e+04 1.087e-08
 56.00593    100.7 1.057e+04 1.096e-08
 56.02265    100.9 1.065e+04 1.128e-08
 56.03338    100.7 1.115e+04 1.452e-08
 56.04882    100.3 1.148e+04 1.580e-08
 56.06778     99.3 1.214e+04 1.928e-08
 56.07783     98.6 1.316e+04 2.584e-08
 56.08033     98.9 1.181e+04 1.809e-08
 56.09171     97.9 1.215e+04 2.150e-08
 56.11290     97.1 1.242e+04 2.383e-08
 56.12362     96.1 1.275e+04 2.468e-08
 56.13461     94.6 1.270e+04 2.252e-08
 56.15605     92.8 1.291e+04 2.221e-08
 56.16874     90.6 1.329e+04 2.458e-08
 56.17947     88.7 1.247e+04 1.662e-08
 56.19894     87.4 1.259e+04 2.097e-08
 56.21387     87.3 1.292e+04 2.744e-08
 56.22459     86.5 1.221e+04 2.067e-08
 56.24184     86.9 1.222e+04 2.065e-08
 56.25899     87.7 1.200e+04 1.797e-08
 56.26971     87.4 1.160e+04 1.443e-08
 56.28473     87.5 1.129e+04 1.015e-08
 56.30411     87.0 1.102e+04 7.338e-09
 56.31484     86.5 1.087e+04 6.347e-09
 56.32762     86.2 1.056e+04 5.775e-09
 56.34907     86.6 1.048e+04 5.783e-09
 56.35996     87.4 1.061e+04 6.104e-09
 56.37068     87.0 1.049e+04 5.759e-09
 56.39196     87.0 1.102e+04 7.351e-09
 56.40508     86.3 1.180e+04 1.085e-08
 56.41580     85.4 1.178e+04 1.091e-08
 56.43485     84.5 1.267e+04 1.762e-08
 56.45020     84.2 1.349e+04 2.737e-08
 56.46093     83.4 1.301e+04 2.341e-08
 56.47774     82.8 1.314e+04 2.520e-08
 56.49533     82.4 1.290e+04 2.366e-08
 56.50605     81.5 1.237e+04 1.980e-08
 56.52064     81.1 1.208e+04 1.777e-08
 56.55290     81.3 1.149e+04 1.289e-08
 56.58577     82.0 1.089e+04 8.549e-09
 56.60721     81.3 1.047e+04 6.331e-09
 56.63878     82.7 1.007e+04 3.611e-09
 56.67601     84.1 9.885e+03 2.055e-09
 56.69746     83.6 9.709e+03 1.644e-09
 56.72457     85.0 9.648e+03 1.336e-09
 56.76626     86.8 9.656e+03 1.346e-09
 56.78770     86.7 9.646e+03 1.338e-09
 56.81035     88.5 9.737e+03 1.429e-09
 56.85324     90.2 9.827e+03 1.635e-09
 56.87795     92.0 9.837e+03 1.895e-09
 56.89940     92.0 9.846e+03 1.840e-09
 56.93903     93.6 9.815e+03 2.006e-09
 56.96820     95.1 9.774e+03 2.036e-09
 56.98964     95.1 9.814e+03 2.068e-09
 57.02481     96.5 9.785e+03 2.043e-09
 57.05844     97.8 9.717e+03 1.951e-09
 57.07989     97.6 9.774e+03 1.995e-09
 57.11060     98.9 9.668e+03 1.892e-09
 57.14869    100.3 9.591e+03 1.827e-09
 57.17013     99.9 9.628e+03 1.843e-09
 57.19638    101.1 9.559e+03 1.752e-09
 57.23893    102.4 9.515e+03 1.746e-09
 57.26038    101.5 9.467e+03 1.576e-09
 57.28216    102.6 9.494e+03 1.628e-09
 57.32506    102.8 9.657e+03 2.019e-09
 57.35062    102.6 9.973e+03 3.592e-09
 57.37207    101.3 9.747e+03 2.568e-09
 57.41084    101.0 9.937e+03 4.455e-09
 57.44087    100.6 1.003e+04 5.807e-09
 57.46232     99.8 1.001e+04 5.720e-09
 57.49662     99.5 9.973e+03 5.653e-09
 57.53112     99.7 9.697e+03 4.656e-09
 57.55256     98.8 9.767e+03 4.777e-09
 57.58241     99.3 9.391e+03 2.929e-09
 57.62136     99.8 9.049e+03 1.698e-09
 57.64281     98.5 9.078e+03 1.712e-09
 57.66819     99.3 8.806e+03 1.478e-09
 57.71109    100.8 8.794e+03 1.499e-09
 57.73305    102.4 8.809e+03 1.652e-09
 57.75450    101.7 8.882e+03 1.847e-09
 57.79687    103.6 8.945e+03 2.226e-09
 57.82330    105.6 9.109e+03 2.817e-09
 57.84474    105.3 9.252e+03 3.085e-09
 57.86588    107.4 9.400e+03 3.639e-09
 57.88732    108.3 9.319e+03 3.317e-09
 57.91354    110.2 9.504e+03 3.810e-09
 57.93499    110.1 9.769e+03 4.625e-09
 57.96844    111.7 9.819e+03 4.637e-09
 58.00379    113.3 9.747e+03 4.302e-09
 58.02524    112.9 9.985e+03 5.144e-09
 58.05422    114.5 9.800e+03 4.353e-09
 58.09404    116.0 9.608e+03 3.452e-09
 58.11548    115.5 9.893e+03 4.649e-09
 58.14001    116.7 9.770e+03 3.967e-09
 58.18290    117.8 9.716e+03 3.522e-09
 58.20573    118.9 9.709e+03 3.256e-09
 58.22717    117.8 9.948e+03 4.010e-09
 58.26868    118.7 9.860e+03 3.163e-09
 58.29597    119.6 9.770e+03 2.540e-09
 58.31742    118.5 9.786e+03 2.537e-09
 58.35447    119.9 9.751e+03 2.467e-09
 58.38622    121.7 9.786e+03 2.542e-09
 58.40766    121.0 9.941e+03 2.726e-09
 58.44025    122.8 1.016e+04 3.203e-09
 58.47646    124.5 1.043e+04 4.016e-09
 58.49791    123.6 1.060e+04 4.055e-09
 58.52603    125.3 1.074e+04 4.860e-09
 58.56671    126.9 1.094e+04 5.720e-09
 58.58816    126.1 1.088e+04 4.726e-09
 58.61182    127.8 1.103e+04 5.340e-09
 58.65471    129.4 1.125e+04 6.212e-09
 58.67840    130.9 1.153e+04 7.303e-09
 58.69985    130.7 1.128e+04 5.720e-09
 58.74049    132.0 1.143e+04 6.680e-09
 58.76865    133.0 1.145e+04 6.852e-09
 58.79009    132.9 1.116e+04 5.542e-09
 58.82628    134.0 1.110e+04 5.334e-09
 58.85889    135.2 1.099e+04 4.843e-09
 58.88034    135.2 1.075e+04 3.808e-09
 58.91206    136.7 1.064e+04 3.408e-09
 58.94914    138.4 1.057e+04 3.111e-09
 58.97058    138.7 1.038e+04 2.395e-09
 58.99785    140.6 1.034e+04 2.168e-09
 59.03938    142.6 1.028e+04 1.938e-09
 59.06083    143.3 1.011e+04 1.632e-09
 59.08363    145.5 1.001e+04 1.506e-09
 59.12652    147.8 9.926e+03 1.383e-09
 59.15108    150.2 9.818e+03 1.297e-09
 59.17252    151.3 9.818e+03 1.323e-09
 59.21231    153.8 9.752e+03 1.314e-09
 59.24132    156.4 9.738e+03 1.338e-09
 59.26277    157.4 9.751e+03 1.465e-09
 59.29809    160.1 9.736e+03 1.541e-09
 59.33157    162.8 9.798e+03 1.794e-09
 59.35301    163.3 9.915e+03 2.075e-09
 59.38388    165.6 1.005e+04 2.443e-09
 59.42181    167.0 1.010e+04 2.859e-09
 59.44316    167.9 1.014e+04 3.486e-09
 59.45874    169.3 1.039e+04 4.590e-09
 59.47746    170.5 1.074e+04 6.191e-09
 59.48819    170.5 1.076e+04 6.367e-09
 59.50163    171.1 1.110e+04 8.401e-09
 59.52259    171.7 1.149e+04 1.100e-08
 59.53331    171.2 1.148e+04 1.121e-08
 59.54453    171.6 1.192e+04 1.475e-08
 59.56597    171.7 1.243e+04 1.912e-08
 59.57843    171.3 1.313e+04 2.566e-08
 59.58915    169.6 1.374e+04 3.279e-08
 59.60094    169.1 1.410e+04 3.803e-08
 59.60626    168.5 1.430e+04 4.052e-08
 59.61413    167.7 1.481e+04 4.783e-08
 59.62346    166.5 1.554e+04 6.011e-08
 59.62882    164.1 1.649e+04 8.040e-08
 59.63557    162.4 1.734e+04 1.075e-07
 59.64602    160.5 1.812e+04 1.507e-07
 59.65138    157.6 1.862e+04 1.850e-07
 59.65630    155.2 1.919e+04 2.560e-07
 59.66166    155.8 1.903e+04 3.230e-07
 59.66774    153.6 1.935e+04 4.780e-07
 59.67394    151.1 1.941e+04 6.825e-07
 59.67930    146.6 1.974e+04 5.165e-07
 59.68919    143.4 1.994e+04 4.617e-07
 59.69650    140.8 2.013e+04 3.236e-07
 59.70186    135.8 2.036e+04 1.171e-07
 59.71063    132.9 2.094e+04 5.120e-08
 59.71906    127.4 2.081e+04 1.681e-08
 59.72447    121.5 1.626e+04 1.083e-08
 59.73754    111.6 1.050e+04 6.571e-09
 59.75892    107.0 9.776e+03 5.826e-09
 59.78037    102.7 8.683e+03 5.192e-09
 59.80414    100.0 9.075e+03 5.540e-09
 59.82569     99.2 8.941e+03 4.851e-09
 59.85569     96.9 8.948e+03 4.843e-09
 59.89449     94.7 8.786e+03 4.543e-09
 59.91593     95.5 8.829e+03 4.578e-09
 59.94147     93.9 8.368e+03 3.644e-09
 59.98436     91.5 8.034e+03 2.749e-09
 60.00618     88.3 8.089e+03 2.736e-09
 60.02762     90.5 8.128e+03 2.815e-09
 60.07015     88.3 8.317e+03 3.138e-09
 60.09633     87.3 8.609e+03 3.886e-09
 60.10695     88.6 8.655e+03 3.973e-09
 60.12357     87.4 9.021e+03 4.956e-09
 60.14135     86.3 9.367e+03 6.101e-09
 60.15207     87.4 9.434e+03 6.093e-09
 60.16646     86.6 9.545e+03 6.516e-09
 60.18647     86.0 9.518e+03 6.368e-09
 60.19720     86.8 9.613e+03 6.482e-09
 60.20935     86.3 9.471e+03 5.993e-09
 60.23080     85.6 9.315e+03 5.519e-09
 60.24232     84.6 9.355e+03 5.597e-09
 60.25304     85.5 9.338e+03 5.596e-09
 60.27369     84.0 9.522e+03 6.051e-09
 60.28744     82.1 1.005e+04 8.067e-09
 60.29817     83.2 9.760e+03 6.966e-09
 60.31658     81.4 1.027e+04 9.594e-09
 60.33257     79.8 1.060e+04 1.265e-08
 60.34329     80.6 1.021e+04 9.977e-09
 60.35947     78.5 1.039e+04 1.170e-08
 60.37769     76.8 1.032e+04 1.145e-08
 60.38841     77.2 1.016e+04 1.079e-08
 60.40237     75.3 1.004e+04 1.034e-08
 60.42281     73.7 9.676e+03 8.987e-09
 60.43353     74.1 9.828e+03 9.761e-09
 60.44526     72.4 9.413e+03 8.085e-09
 60.46670     70.5 8.831e+03 6.107e-09
 60.47866     68.0 8.316e+03 4.665e-09
 60.48938     68.6 8.512e+03 5.126e-09
 60.50960     66.0 7.903e+03 3.859e-09
 60.52378     63.5 7.731e+03 3.628e-09
 60.53450     63.6 7.736e+03 3.645e-09
 60.54907     61.7 7.555e+03 3.485e-09
 60.55979     61.3 7.632e+03 3.709e-09
 60.56890     59.3 7.691e+03 3.780e-09
 60.57963     59.8 7.659e+03 3.757e-09
 60.59538     58.7 7.565e+03 3.643e-09
 60.61403     56.3 7.828e+03 3.955e-09
 60.62475     57.0 7.729e+03 3.863e-09
 60.63827     55.6 7.738e+03 3.720e-09
 60.65915     45.4 1.344e+04 7.117e-09
 60.66987     49.9 1.137e+04 5.351e-09
 60.68116     37.7 1.452e+04 2.509e-08
 60.70261     35.7 1.435e+04 6.664e-08
 60.71499     36.4 1.481e+04 8.269e-08
 60.72572     37.4 1.478e+04 8.268e-08
 60.74550     36.2 1.503e+04 4.631e-08
 60.76012     29.4 1.236e+04 7.896e-09
 60.77084     33.2 1.358e+04 1.413e-08
 60.78839     25.3 9.320e+03 3.580e-09
 60.80524     24.2 8.772e+03 2.527e-09
 60.81596     25.6 8.918e+03 2.816e-09
 60.83129     25.3 8.807e+03 2.435e-09
 60.85036     25.3 8.808e+03 2.336e-09
 60.86109     26.4 8.875e+03 2.470e-09
 60.87418     26.5 8.921e+03 2.428e-09
 60.89549     26.6 8.921e+03 2.430e-09
 60.90621     27.7 8.938e+03 2.523e-09
 60.92789     28.0 9.153e+03 2.839e-09
 60.95153     29.0 9.340e+03 3.408e-09
 60.97297     30.8 9.435e+03 3.804e-09
 61.01377     31.7 9.637e+03 4.285e-09
 61.04177     33.0 9.750e+03 4.431e-09
 61.06322     34.4 9.803e+03 4.405e-09
 61.09956     35.7 9.744e+03 3.498e-09
 61.13202     37.2 9.625e+03 2.529e-09
 61.15346     38.4 9.621e+03 2.260e-09
 61.18534     40.1 9.546e+03 1.686e-09
 61.22226     42.0 9.484e+03 1.411e-09
 61.24371     43.4 9.549e+03 1.394e-09
 61.27113     45.6 9.555e+03 1.296e-09
 61.31251     48.0 9.559e+03 1.217e-09
 61.33396     49.6 9.671e+03 1.230e-09
 61.35691     52.2 9.708e+03 1.146e-09
 61.39980     54.8 9.735e+03 1.114e-09
 61.42420     57.6 9.849e+03 1.130e-09
 61.43953     59.2 9.911e+03 1.196e-09
 61.45803     59.6 9.863e+03 1.161e-09
 61.48559     62.4 9.905e+03 1.377e-09
 61.51445     65.3 1.006e+04 1.603e-09
 61.53589     67.1 1.013e+04 2.052e-09
 61.57137     69.9 1.031e+04 2.361e-09
 61.60469     72.5 1.054e+04 2.610e-09
 61.62614     74.3 1.056e+04 2.755e-09
 61.65715     76.7 1.070e+04 2.856e-09
 61.69494     79.0 1.088e+04 3.228e-09
 61.71638     80.6 1.076e+04 2.873e-09
 61.74294     83.0 1.097e+04 3.461e-09
 61.78518     85.0 1.137e+04 4.632e-09
 61.80653     86.2 1.121e+04 4.088e-09
 61.81780     87.0 1.138e+04 4.766e-09
 61.83925     87.9 1.156e+04 5.584e-09
 61.85156     88.7 1.172e+04 6.237e-09
 61.86228     89.8 1.155e+04 5.666e-09
 61.88214     90.6 1.170e+04 6.222e-09
 61.89668     91.4 1.189e+04 6.819e-09
 61.90740     92.5 1.169e+04 6.392e-09
 61.92503     93.2 1.192e+04 7.118e-09
 61.94180     93.5 1.235e+04 8.341e-09
 61.95253     94.7 1.213e+04 7.782e-09
 61.96793     94.7 1.266e+04 9.978e-09
 61.98693     94.7 1.297e+04 1.386e-08
 61.99765     95.7 1.299e+04 1.288e-08
 62.01082     95.6 1.333e+04 1.874e-08
 62.03205     95.8 1.341e+04 2.347e-08
 62.04277     96.1 1.374e+04 2.793e-08
 62.05371     96.1 1.401e+04 3.237e-08
 62.07516     95.8 1.404e+04 2.966e-08
 62.08789     95.2 1.400e+04 2.456e-08
 62.09862     95.6 1.464e+04 3.935e-08
 62.11805     95.2 1.433e+04 2.837e-08
 62.13302     94.5 1.399e+04 2.020e-08
 62.14374     94.3 1.422e+04 2.150e-08
 62.16094     94.4 1.372e+04 1.509e-08
 62.17814     94.4 1.343e+04 1.169e-08
 62.18886     94.3 1.339e+04 1.138e-08
 62.21465     94.6 1.316e+04 8.568e-09
 62.25764     95.7 1.313e+04 7.348e-09
 62.27930     97.6 1.320e+04 7.644e-09
 62.30075     98.6 1.290e+04 6.100e-09
 62.34343    100.6 1.317e+04 7.169e-09
 62.36945    101.8 1.331e+04 8.077e-09
 62.38008    102.8 1.313e+04 7.127e-09
 62.39685    103.0 1.355e+04 9.417e-09
 62.41448    103.1 1.399e+04 1.382e-08
 62.42520    104.1 1.393e+04 1.239e-08
 62.43974    104.0 1.447e+04 2.011e-08
 62.45960    103.7 1.508e+04 3.272e-08
 62.47032    104.7 1.509e+04 3.238e-08
 62.48263    104.1 1.573e+04 5.059e-08
 62.50408    103.3 1.615e+04 6.233e-08
 62.51545    101.9 1.634e+04 6.197e-08
 62.52617    102.5 1.680e+04 8.276e-08
 62.54697    100.9 1.672e+04 7.758e-08
 62.56057     99.6 1.636e+04 6.442e-08
 62.57129    100.0 1.679e+04 8.734e-08
 62.58986     99.1 1.610e+04 5.694e-08
 62.60569     98.5 1.549e+04 3.713e-08
 62.61641     98.6 1.550e+04 3.574e-08
 62.63275     98.5 1.484e+04 2.198e-08
 62.65081     98.7 1.439e+04 1.513e-08
 62.66154     98.6 1.432e+04 1.406e-08
 62.67565     99.6 1.388e+04 1.016e-08
 62.69594    100.0 1.372e+04 8.754e-09
 62.70666    100.0 1.367e+04 8.660e-09
 62.72936    101.3 1.335e+04 6.330e-09
 62.75198    102.7 1.330e+04 5.700e-09
 62.77342    103.6 1.307e+04 5.360e-09
 62.81524    105.3 1.305e+04 5.655e-09
 62.84222    107.0 1.301e+04 5.564e-09
 62.86367    108.1 1.291e+04 5.737e-09
 62.90102    109.9 1.274e+04 5.273e-09
 62.93247    112.0 1.254e+04 3.980e-09
 62.95392    113.1 1.249e+04 4.885e-09
 62.98681    115.3 1.235e+04 3.595e-09
 63.02271    117.5 1.229e+04 2.539e-09
 63.04416    118.7 1.220e+04 3.521e-09
 63.07259    121.0 1.215e+04 2.602e-09
 63.11296    123.3 1.215e+04 2.002e-09
 63.13441    124.4 1.204e+04 2.752e-09
 63.15838    126.6 1.206e+04 2.212e-09
 63.20127    128.9 1.211e+04 1.939e-09
 63.22465    131.1 1.216e+04 1.886e-09
 63.23459    132.0 1.203e+04 2.245e-09
 63.25410    131.4 1.211e+04 2.408e-09
 63.28705    133.6 1.210e+04 2.303e-09
 63.31490    135.7 1.208e+04 2.246e-09
 63.33634    136.6 1.199e+04 2.351e-09
 63.37284    138.8 1.196e+04 2.254e-09
 63.40514    140.9 1.188e+04 2.031e-09
 63.42659    141.8 1.183e+04 2.084e-09
 63.45862    143.9 1.174e+04 1.686e-09
 63.49539    145.9 1.163e+04 1.247e-09
 63.51683    146.7 1.160e+04 1.256e-09
 63.54440    148.5 1.155e+04 8.915e-10
 63.58563    150.0 1.150e+04 6.788e-10
 63.60708    150.9 1.148e+04 6.824e-10
 63.63019    152.4 1.141e+04 5.923e-10
 63.67308    154.0 1.133e+04 5.766e-10
 63.69733    155.6 1.130e+04 5.834e-10
 63.71877    156.9 1.129e+04 5.860e-10
 63.75886    158.7 1.127e+04 6.047e-10
 63.78757    160.4 1.127e+04 6.266e-10
 63.80902    161.9 1.126e+04 6.317e-10
 63.84465    163.6 1.127e+04 6.499e-10
 63.87782    165.1 1.126e+04 6.750e-10
 63.89926    166.6 1.126e+04 6.777e-10
 63.93043    168.1 1.126e+04 7.167e-10
 63.96806    169.5 1.129e+04 7.918e-10
 63.98951    171.0 1.128e+04 7.934e-10
 64.01622    172.4 1.137e+04 9.069e-10
 64.05831    173.8 1.147e+04 1.056e-09
 64.07975    175.4 1.142e+04 1.102e-09
 64.10200    176.8 1.153e+04 1.297e-09
 64.14489    178.2 1.163e+04 1.462e-09
 64.17000    179.5 1.175e+04 1.555e-09
 64.19145    180.9 1.171e+04 1.680e-09
 64.23068    182.0 1.176e+04 1.690e-09
 64.26025    182.8 1.188e+04 1.705e-09
 64.28169    184.0 1.174e+04 1.630e-09
 64.31646    184.5 1.183e+04 1.597e-09
 64.35049    184.7 1.194e+04 1.667e-09
 64.37194    185.9 1.156e+04 1.583e-09
 64.40225    186.1 1.176e+04 1.788e-09
 64.44074    186.3 1.207e+04 2.229e-09
 64.46218    187.5 1.171e+04 2.031e-09
 64.48803    187.9 1.198e+04 2.490e-09
 64.53092    188.4 1.200e+04 2.837e-09
 64.57381    190.3 1.177e+04 3.074e-09
 64.61671    191.3 1.170e+04 2.969e-09
 64.64267    192.6 1.150e+04 2.568e-09
 64.65330    192.9 1.155e+04 2.945e-09
 64.67013    193.1 1.151e+04 2.829e-09
 64.70239    194.3 1.136e+04 2.636e-09
 64.73292    195.0 1.127e+04 2.376e-09
 64.74355    195.4 1.129e+04 3.034e-09
 64.75591    195.5 1.128e+04 2.965e-09
 64.77736    195.8 1.131e+04 2.883e-09
 64.78857    195.9 1.133e+04 2.859e-09
 64.79929    196.5 1.133e+04 3.795e-09
 64.82025    196.6 1.137e+04 3.713e-09
 64.83369    196.7 1.141e+04 3.602e-09
 64.84442    196.8 1.144e+04 4.910e-09
 64.86314    196.9 1.148e+04 4.606e-09
 64.87882    197.1 1.149e+04 4.229e-09
 64.88954    197.0 1.158e+04 5.620e-09
 64.90603    197.1 1.154e+04 5.052e-09
 64.92394    197.3 1.146e+04 4.487e-09
 64.93466    197.0 1.167e+04 5.934e-09
 64.94892    197.1 1.157e+04 5.292e-09
 64.96906    197.2 1.141e+04 4.829e-09
 64.97978    196.6 1.170e+04 6.458e-09
 64.99182    196.7 1.149e+04 6.365e-09
 65.01326    196.8 1.147e+04 6.389e-09
 65.02491    197.0 1.147e+04 6.557e-09
 65.02946    195.8 1.180e+04 8.631e-09
 65.03926    196.1 1.189e+04 9.022e-09
 65.05615    196.0 1.192e+04 9.560e-09
 65.07003    195.6 1.203e+04 1.040e-08
 65.08075    194.1 1.208e+04 1.122e-08
 65.09905    193.4 1.215e+04 1.126e-08
 65.11515    192.5 1.235e+04 1.225e-08
 65.12588    191.0 1.194e+04 9.719e-09
 65.14194    190.2 1.199e+04 9.452e-09
 65.16028    189.4 1.196e+04 9.365e-09
 65.17100    187.7 1.079e+04 5.976e-09
 65.18483    186.7 1.078e+04 6.369e-09
 65.20540    185.6 1.089e+04 7.457e-09
 65.21612    184.8 1.079e+04 7.364e-09
 65.22772    184.3 1.098e+04 8.723e-09
 65.24917    184.0 1.118e+04 9.965e-09
 65.26124    183.9 1.131e+04 1.027e-08
 65.27197    183.9 1.129e+04 1.043e-08
 65.29206    183.9 1.129e+04 1.038e-08
 65.30637    184.0 1.123e+04 1.009e-08
 65.31709    183.8 1.128e+04 1.050e-08
 65.33495    183.9 1.117e+04 9.843e-09
 65.35149    184.0 1.102e+04 9.218e-09
 65.36221    183.4 1.102e+04 9.120e-09
 65.37784    183.6 1.087e+04 8.828e-09
 65.39661    184.0 1.085e+04 8.857e-09
 65.40734    183.3 1.072e+04 8.170e-09
 65.42074    183.9 1.074e+04 8.365e-09
 65.44174    184.4 1.090e+04 9.140e-09
 65.45246    183.8 1.057e+04 7.654e-09
 65.46363    184.4 1.086e+04 8.863e-09
 65.48507    184.7 1.128e+04 1.085e-08
 65.49758    184.8 1.175e+04 1.369e-08
 65.50830    184.4 1.128e+04 1.090e-08
 65.52797    184.5 1.180e+04 1.426e-08
 65.54270    184.7 1.229e+04 1.837e-08
 65.55343    184.1 1.178e+04 1.448e-08
 65.57086    184.2 1.227e+04 1.845e-08
 65.58783    184.2 1.260e+04 2.116e-08
 65.59855    183.5 1.206e+04 1.706e-08
 65.61375    183.3 1.223e+04 1.789e-08
 65.63295    183.1 1.217e+04 1.747e-08
 65.64367    182.4 1.169e+04 1.419e-08
 65.65664    182.1 1.155e+04 1.335e-08
 65.67807    182.0 1.121e+04 1.155e-08
 65.69952    181.4 1.056e+04 8.429e-09
 65.72098    181.7 1.023e+04 7.283e-09
 65.73392    182.1 9.939e+03 6.569e-09
 65.74464    181.4 9.644e+03 5.510e-09
 65.76387    182.1 9.516e+03 5.416e-09
 65.77904    183.0 9.519e+03 5.427e-09
 65.78976    182.1 9.206e+03 4.590e-09
 65.80677    183.0 9.216e+03 4.680e-09
 65.82416    183.9 9.313e+03 4.923e-09
 65.83489    182.8 9.196e+03 4.742e-09
 65.84966    183.4 9.285e+03 4.938e-09
 65.86929    183.8 9.427e+03 5.177e-09
 65.88001    182.3 9.301e+03 4.952e-09
 65.89255    182.3 9.323e+03 4.859e-09
 65.91400    182.1 9.408e+03 4.700e-09
 65.92513    182.1 1.028e+04 5.642e-09
 65.92699    180.1 9.027e+03 3.713e-09
 65.93730    179.3 9.072e+03 4.016e-09
 65.95689    179.0 9.296e+03 3.824e-09
 65.97026    178.6 9.816e+03 4.002e-09
 65.98098    176.3 8.701e+03 3.447e-09
 65.99978    176.2 8.931e+03 3.553e-09
 66.01538    175.7 9.703e+03 4.013e-09
 66.02610    175.1 8.781e+03 3.756e-09
 66.04267    175.0 9.359e+03 4.532e-09
 66.06050    173.5 1.125e+04 7.125e-09
 66.07122    174.1 9.921e+03 6.084e-09
 66.08556    172.2 1.180e+04 1.133e-08
 66.10562    171.4 1.499e+04 3.983e-08
 66.11635    171.0 1.400e+04 2.880e-08
 66.12846    171.3 1.640e+04 8.000e-08
 66.14449    171.2 1.706e+04 1.136e-07
 66.15517    171.2 1.791e+04 1.690e-07
 66.16137    171.3 1.879e+04 2.917e-07
 66.16673    170.5 1.856e+04 2.448e-07
 66.17661    170.2 1.918e+04 4.082e-07
 66.18393    169.2 1.923e+04 5.095e-07
 66.18930    169.4 1.900e+04 4.542e-07
 66.19806    169.0 1.900e+04 4.824e-07
 66.20650    169.0 1.887e+04 4.466e-07
 66.21186    169.1 1.893e+04 4.224e-07
 66.21950    169.2 1.879e+04 3.779e-07
 66.22906    169.4 1.860e+04 3.140e-07
 66.23442    169.1 1.867e+04 3.107e-07
 66.24095    169.3 1.848e+04 2.619e-07
 66.25162    169.7 1.834e+04 2.265e-07
 66.25698    169.4 1.852e+04 2.281e-07
 66.26240    169.8 1.854e+04 2.135e-07
 66.27312    170.3 1.840e+04 2.038e-07
 66.27954    171.1 1.846e+04 1.888e-07
 66.28490    170.7 1.868e+04 2.304e-07
 66.29456    171.8 1.872e+04 2.343e-07
 66.30210    172.8 1.880e+04 2.263e-07
 66.30746    171.9 1.939e+04 3.054e-07
 66.31601    173.1 1.924e+04 3.266e-07
 66.32466    174.3 1.924e+04 3.330e-07
 66.33003    173.2 2.002e+04 4.358e-07
 66.33746    174.5 1.982e+04 5.159e-07
 66.34723    175.5 1.963e+04 5.778e-07
 66.35259    172.7 2.023e+04 6.335e-07
 66.35890    173.2 2.006e+04 7.361e-07
 66.36963    173.6 1.983e+04 8.123e-07
 66.37515    173.7 1.969e+04 8.251e-07
 66.37566    170.2 1.986e+04 7.906e-07
 66.38086    169.4 2.023e+04 6.257e-07
 66.39107    169.4 2.005e+04 6.522e-07
 66.39771    169.6 1.994e+04 6.492e-07
 66.40307    166.0 2.046e+04 4.649e-07
 66.41252    166.5 2.035e+04 4.801e-07
 66.42027    167.0 2.034e+04 4.806e-07
 66.42563    162.5 2.227e+04 2.145e-07
 66.43396    163.3 2.220e+04 2.216e-07
 66.44283    164.2 2.211e+04 2.243e-07
 66.45360    158.1 2.764e+04 4.924e-08
 66.47159    161.6 2.784e+04 5.310e-08
 66.48763    160.7 2.894e+04 3.089e-08
 66.49332    163.6 2.934e+04 3.447e-08
 66.49873    153.8 2.466e+04 1.723e-08
 66.51448    157.4 2.897e+04 1.787e-08
 66.53052    155.8 2.558e+04 1.837e-08
 66.53844    155.1 2.330e+04 2.056e-08
 66.54380    144.9 1.771e+04 2.673e-08
 66.55192    143.9 1.738e+04 2.778e-08
 66.56100    141.6 1.721e+04 2.924e-08
 66.56636    134.7 1.664e+04 3.770e-08
 66.57336    131.9 1.681e+04 4.111e-08
 66.58356    128.6 1.734e+04 4.302e-08
 66.58892    123.7 1.725e+04 4.615e-08
 66.59481    112.9 2.298e+04 6.141e-08
 66.60553     76.1 2.937e+04 3.796e-07
 66.61149     46.9 2.535e+04 6.350e-07
 66.61685     45.4 2.404e+04 6.292e-07
 66.62698     28.2 2.395e+04 2.681e-07
 66.63405     21.9 2.261e+04 5.513e-08
 66.63941     25.0 2.433e+04 5.617e-08
 66.64842     12.2 2.360e+04 1.317e-08
 66.66456     -3.8 1.274e+04 1.419e-08
 66.67927     -2.6 1.225e+04 1.293e-08
 66.68999      1.6 1.218e+04 1.326e-08
 66.70750      1.7 1.148e+04 1.091e-08
 66.72439      3.7 1.083e+04 9.010e-09
 66.73521      6.1 1.087e+04 9.255e-09
 66.76131      9.6 9.947e+03 6.858e-09
 66.80336     13.6 9.399e+03 5.735e-09
 66.82472     13.7 8.962e+03 4.714e-09
 66.84700     18.6 9.393e+03 6.435e-09
 66.88998     22.3 9.553e+03 7.076e-09
 66.91580     25.4 9.615e+03 7.274e-09
 66.92643     24.9 1.002e+04 9.005e-09
 66.94340     25.4 1.002e+04 9.163e-09
 66.96073     27.2 9.922e+03 8.865e-09
 66.97145     27.1 1.028e+04 9.945e-09
 66.98630     28.0 1.021e+04 9.715e-09
 67.00585     28.8 9.980e+03 8.624e-09
 67.01657     28.2 1.015e+04 8.877e-09
 67.02919     28.5 1.003e+04 8.490e-09
 67.06146     28.2 9.860e+03 7.766e-09
 67.09629     28.6 9.900e+03 8.112e-09
 67.11774     27.3 9.438e+03 6.066e-09
 67.14734     27.8 9.307e+03 5.387e-09
 67.18654     28.1 9.186e+03 4.661e-09
 67.20798     25.1 8.718e+03 3.182e-09
 67.23312     25.4 8.539e+03 2.998e-09
 67.27601     25.8 8.391e+03 2.839e-09
 67.29823     26.0 8.250e+03 2.818e-09
 67.31967     23.5 7.833e+03 1.983e-09
 67.36180     23.5 7.805e+03 2.019e-09
 67.38847     23.4 7.880e+03 2.275e-09
 67.40992     21.2 7.585e+03 1.672e-09
 67.44758     21.1 7.696e+03 2.087e-09
 67.47872     21.1 7.861e+03 2.658e-09
 67.50017     20.5 7.220e+03 1.472e-09
 67.53337     20.8 7.237e+03 1.446e-09
 67.56897     20.7 7.293e+03 1.404e-09
 67.59041     20.0 6.836e+03 6.924e-10
 67.61915     19.4 6.935e+03 8.615e-10
 67.65921     18.5 7.371e+03 1.453e-09
 67.68066     19.2 7.200e+03 1.342e-09
 67.70493     18.6 7.917e+03 2.548e-09
 67.74783     16.7 9.263e+03 5.294e-09
 67.77090     15.4 1.025e+04 1.059e-08
 67.79235     17.3 9.657e+03 7.472e-09
 67.83361     16.3 9.521e+03 7.639e-09
 67.86115     17.8 8.611e+03 3.882e-09
 67.88259     19.3 8.261e+03 3.258e-09
 67.91939     18.8 7.785e+03 1.481e-09
 67.95139     17.7 7.192e+03 1.083e-09
 67.97284     20.3 7.177e+03 1.124e-09
 68.00518     20.6 6.980e+03 1.195e-09
 68.04164     16.5 8.889e+03 1.947e-09
 68.06309     23.4 7.015e+03 1.478e-09
 68.09096     18.5 9.660e+03 2.760e-09
 68.12303     15.6 1.052e+04 5.103e-09
 68.14241     13.6 1.185e+04 1.279e-08
 68.15314     17.3 1.067e+04 6.346e-09
 68.16583     16.0 1.237e+04 1.652e-08
 68.18727     13.9 1.437e+04 3.338e-08
 68.19826     11.6 1.569e+04 4.914e-08
 68.20898     14.9 1.486e+04 3.810e-08
 68.23017     12.0 1.606e+04 5.268e-08
 68.24338      7.1 1.622e+04 5.887e-08
 68.25410     10.7 1.678e+04 5.874e-08
 68.27306      5.0 1.680e+04 7.163e-08
 68.28850     -0.1 1.663e+04 7.430e-08
 68.29923      2.8 1.708e+04 9.020e-08
 68.31595     -1.1 1.640e+04 8.312e-08
 68.33363     -4.7 1.494e+04 4.375e-08
 68.34435     -1.7 1.597e+04 7.042e-08
 68.35884     -6.2 1.366e+04 2.377e-08
 68.37875    -12.3 1.064e+04 1.014e-08
 68.38947     -9.4 1.156e+04 1.200e-08
 68.40173    -14.6 9.904e+03 8.593e-09
 68.42318    -16.7 9.974e+03 9.000e-09
 68.43460    -18.3 1.113e+04 1.454e-08
 68.44532    -17.1 1.097e+04 1.357e-08
 68.46607    -18.2 1.188e+04 2.001e-08
 68.47972    -19.2 1.233e+04 2.350e-08
 68.49044    -18.1 1.228e+04 2.293e-08
 68.50896    -19.6 1.236e+04 2.365e-08
 68.52484    -21.1 1.196e+04 2.030e-08
 68.53556    -20.2 1.187e+04 1.980e-08
 68.55186    -21.9 1.100e+04 1.326e-08
 68.56996    -24.5 1.007e+04 8.594e-09
 68.58069    -23.4 1.001e+04 8.566e-09
 68.59475    -26.4 9.512e+03 6.534e-09
 68.60997    -29.2 9.420e+03 6.122e-09
 68.61958    -28.3 9.459e+03 6.296e-09
 68.62581    -27.3 9.445e+03 6.305e-09
 68.63764    -29.9 9.459e+03 6.234e-09
 68.65909    -32.6 9.792e+03 6.874e-09
 68.67093    -35.0 1.022e+04 8.355e-09
 68.68166    -34.1 1.012e+04 7.994e-09
 68.70198    -36.2 1.043e+04 9.214e-09
 68.71606    -38.1 1.054e+04 9.662e-09
 68.72678    -37.1 1.038e+04 9.081e-09
 68.74487    -38.8 1.037e+04 9.068e-09
 68.76118    -40.4 1.021e+04 8.323e-09
 68.77190    -39.2 1.006e+04 7.905e-09
 68.78776    -40.7 9.870e+03 6.987e-09
 68.80630    -42.3 9.708e+03 6.205e-09
 68.81702    -40.8 9.592e+03 5.940e-09
 68.83066    -42.4 9.526e+03 5.500e-09
 68.85142    -44.1 9.521e+03 5.374e-09
 68.86215    -42.6 9.407e+03 5.129e-09
 68.87355    -44.2 9.443e+03 5.122e-09
 68.89499    -46.0 9.621e+03 5.354e-09
 68.90727    -47.7 9.790e+03 5.674e-09
 68.91799    -46.1 9.755e+03 5.658e-09
 68.93789    -47.9 9.866e+03 5.949e-09
 68.95239    -49.6 9.885e+03 5.999e-09
 68.96312    -47.9 9.942e+03 6.320e-09
 68.98078    -49.7 9.925e+03 6.293e-09
 68.99752    -51.3 9.841e+03 5.930e-09
 69.00824    -49.7 9.980e+03 6.563e-09
 69.02367    -51.5 9.904e+03 6.014e-09
 69.04264    -53.3 9.915e+03 5.544e-09
 69.05336    -51.9 1.007e+04 6.164e-09
 69.06656    -54.0 1.015e+04 5.841e-09
 69.08776    -56.3 1.024e+04 5.766e-09
 69.09848    -55.2 1.041e+04 6.262e-09
 69.10945    -58.1 1.062e+04 6.215e-09
 69.13090    -61.0 1.080e+04 6.367e-09
 69.14361    -63.8 1.083e+04 6.519e-09
 69.15433    -63.2 1.096e+04 7.201e-09
 69.17379    -65.7 1.094e+04 7.242e-09
 69.18873    -67.6 1.066e+04 6.955e-09
 69.19945    -67.1 1.075e+04 7.788e-09
 69.21668    -68.8 1.030e+04 6.111e-09
 69.23385    -70.5 9.993e+03 4.635e-09
 69.24458    -70.3 1.010e+04 4.935e-09
 69.25958    -73.3 1.014e+04 4.530e-09
 69.27898    -78.1 1.060e+04 4.568e-09
 69.28970    -79.6 1.140e+04 6.001e-09
 69.30247    -84.8 1.329e+04 1.449e-08
 69.32391    -88.4 1.440e+04 3.254e-08
 69.33482    -91.5 1.499e+04 4.858e-08
 69.34554    -91.9 1.514e+04 5.222e-08
 69.36681    -95.6 1.510e+04 5.212e-08
 69.37994    -98.9 1.428e+04 3.637e-08
 69.39067    -99.9 1.369e+04 2.690e-08
 69.40970   -103.5 1.175e+04 1.193e-08
 69.42507   -106.7 9.780e+03 5.556e-09
 69.43579   -107.5 9.205e+03 4.381e-09
 69.45259   -108.9 8.788e+03 2.962e-09
 69.47019   -109.5 8.724e+03 2.475e-09
 69.48091   -109.0 8.669e+03 2.362e-09
 69.50630   -109.0 8.523e+03 2.092e-09
 69.54929   -108.4 8.270e+03 1.687e-09
 69.57135   -107.6 8.083e+03 1.366e-09
 69.59280   -106.6 8.158e+03 1.488e-09
 69.63508   -105.6 8.116e+03 1.368e-09
 69.66160   -104.5 8.116e+03 1.322e-09
 69.68305   -103.5 8.439e+03 1.830e-09
 69.72086   -102.2 8.419e+03 1.856e-09
 69.75184   -100.9 8.400e+03 1.913e-09
 69.77329   -100.1 8.703e+03 2.694e-09
 69.80664    -98.8 8.612e+03 2.728e-09
 69.84209    -97.4 8.521e+03 2.747e-09
 69.86354    -97.2 8.667e+03 3.240e-09
 69.89243    -95.6 8.473e+03 2.969e-09
 69.93234    -94.1 8.341e+03 2.746e-09
 69.95378    -93.3 8.291e+03 2.775e-09
 69.97821    -91.7 8.198e+03 2.586e-09
 70.02110    -90.1 8.142e+03 2.443e-09
 70.04403    -88.6 8.158e+03 2.359e-09
 70.06547    -87.5 8.292e+03 2.570e-09
 70.10689    -86.1 8.526e+03 2.724e-09
 70.13427    -85.0 8.799e+03 3.077e-09
 70.15572    -83.8 9.094e+03 3.789e-09
 70.17930    -83.6 9.190e+03 3.832e-09
 70.18992    -83.5 9.290e+03 4.274e-09
 70.20320    -83.5 9.471e+03 4.957e-09
 70.22432    -83.5 9.699e+03 5.885e-09
 70.23505    -83.0 9.966e+03 6.981e-09
 70.24609    -83.0 1.029e+04 8.275e-09
 70.26754    -83.1 1.068e+04 9.899e-09
 70.28017    -83.5 1.109e+04 1.187e-08
 70.29089    -83.4 1.145e+04 1.392e-08
 70.31043    -83.9 1.180e+04 1.597e-08
 70.32529    -84.5 1.207e+04 1.734e-08
 70.33602    -84.5 1.211e+04 1.738e-08
 70.35332    -85.1 1.217e+04 1.754e-08
 70.37041    -85.7 1.220e+04 1.745e-08
 70.38114    -85.4 1.213e+04 1.665e-08
 70.39532    -85.9 1.215e+04 1.658e-08
 70.40604    -85.7 1.168e+04 1.270e-08
 70.41554    -86.3 1.201e+04 1.418e-08
 70.42626    -85.9 1.197e+04 1.357e-08
 70.43911    -86.6 1.241e+04 1.663e-08
 70.46055    -87.4 1.276e+04 1.956e-08
 70.47138    -88.3 1.295e+04 2.094e-08
 70.48211    -87.8 1.304e+04 2.180e-08
 70.50345    -88.8 1.308e+04 2.208e-08
 70.51651    -89.5 1.308e+04 2.157e-08
 70.52723    -89.2 1.331e+04 2.341e-08
 70.54634    -90.0 1.335e+04 2.223e-08
 70.56163    -90.6 1.340e+04 2.155e-08
 70.57235    -90.7 1.380e+04 2.562e-08
 70.58923    -91.5 1.383e+04 2.557e-08
 70.60675    -92.3 1.427e+04 2.641e-08
 70.61748    -92.6 1.443e+04 3.146e-08
 70.63212    -93.7 1.560e+04 3.940e-08
 70.65187    -94.4 1.688e+04 7.123e-08
 70.66260    -97.0 1.813e+04 8.588e-08
 70.66960    -96.0 1.835e+04 1.362e-07
 70.67970    -96.3 1.876e+04 1.744e-07
 70.68506    -98.1 1.918e+04 2.677e-07
 70.69100    -98.5 1.917e+04 5.878e-07
 70.70172    -99.2 1.877e+04 1.479e-06
 70.70762   -101.5 1.835e+04 3.036e-06
 70.71298   -104.0 1.838e+04 3.300e-06
 70.72317   -108.4 1.818e+04 4.100e-06
 70.73018   -112.5 1.810e+04 4.119e-06
 70.73555   -112.9 1.819e+04 2.543e-06
 70.74462   -114.3 1.840e+04 1.278e-06
 70.75275   -114.7 1.861e+04 4.777e-07
 70.75811   -114.4 1.838e+04 1.957e-07
 70.76606   -115.5 1.781e+04 8.736e-08
 70.78219   -116.5 1.695e+04 4.562e-08
 70.79797   -116.4 1.597e+04 2.308e-08
 70.80869   -116.8 1.490e+04 1.149e-08
 70.82514   -117.0 1.407e+04 7.739e-09
 70.84309   -116.9 1.389e+04 6.898e-09
 70.85381   -116.8 1.368e+04 7.432e-09
 70.86803   -116.1 1.357e+04 7.162e-09
 70.88821   -115.3 1.355e+04 7.138e-09
 70.89893   -115.0 1.345e+04 8.375e-09
 70.91092   -114.4 1.343e+04 8.393e-09
 70.93237   -113.9 1.340e+04 8.633e-09
 70.94406   -113.4 1.336e+04 8.978e-09
 70.95478   -113.3 1.327e+04 9.244e-09
 70.97526   -112.9 1.328e+04 9.293e-09
 70.98918   -112.4 1.326e+04 9.485e-09
 70.99990   -112.2 1.311e+04 9.267e-09
 71.01815   -111.7 1.307e+04 9.313e-09
 71.03430   -111.0 1.302e+04 9.355e-09
 71.04503   -110.8 1.278e+04 8.529e-09
 71.06104   -110.2 1.271e+04 8.376e-09
 71.07943   -109.5 1.264e+04 8.143e-09
 71.09015   -109.3 1.240e+04 6.543e-09
 71.10393   -108.7 1.232e+04 6.100e-09
 71.13620   -107.9 1.223e+04 5.751e-09
 71.16987   -105.5 1.210e+04 5.470e-09
 71.19131   -104.4 1.182e+04 3.033e-09
 71.22208   -102.6 1.178e+04 3.000e-09
 71.26011   -100.9 1.175e+04 2.993e-09
 71.28156   -100.0 1.170e+04 1.629e-09
 71.30787    -98.2 1.164e+04 1.762e-09
 71.35036    -96.5 1.159e+04 1.842e-09
 71.37180    -95.6 1.160e+04 1.267e-09
 71.39365    -93.9 1.148e+04 1.542e-09
 71.43654    -92.2 1.137e+04 1.899e-09
 71.46205    -90.5 1.128e+04 2.329e-09
 71.48350    -89.4 1.125e+04 2.398e-09
 71.52233    -87.6 1.125e+04 3.109e-09
 71.55230    -86.0 1.125e+04 3.633e-09
 71.57374    -85.1 1.128e+04 3.700e-09
 71.60811    -83.7 1.127e+04 3.901e-09
 71.64254    -82.2 1.123e+04 3.903e-09
 71.66399    -81.5 1.120e+04 3.809e-09
 71.69390    -79.8 1.102e+04 3.545e-09
 71.73279    -77.8 1.086e+04 3.114e-09
 71.75423    -77.1 1.073e+04 2.934e-09
 71.77968    -75.2 1.064e+04 2.687e-09
 71.82257    -73.4 1.063e+04 2.625e-09
 71.84448    -71.9 1.068e+04 2.654e-09
 71.86592    -71.1 1.053e+04 2.314e-09
 71.90836    -70.0 1.082e+04 2.887e-09
 71.93472    -69.3 1.113e+04 4.353e-09
 71.95617    -68.2 1.094e+04 4.027e-09
 71.99414    -67.5 1.132e+04 5.813e-09
 72.02497    -67.1 1.146e+04 6.809e-09
 72.03560    -66.2 1.139e+04 6.882e-09
 72.04756    -66.4 1.139e+04 7.195e-09
 72.06901    -66.4 1.137e+04 7.491e-09
 72.08062    -66.2 1.117e+04 6.946e-09
 72.09134    -65.6 1.119e+04 7.434e-09
 72.11190    -65.3 1.101e+04 6.531e-09
 72.12574    -64.8 1.078e+04 5.480e-09
 72.13647    -64.3 1.092e+04 6.575e-09
 72.15479    -63.7 1.070e+04 5.585e-09
 72.17087    -63.1 1.050e+04 4.639e-09
 72.18159    -62.6 1.069e+04 5.925e-09
 72.19139    -61.9 1.050e+04 4.920e-09
 72.20212    -61.7 1.048e+04 4.896e-09
 72.21599    -61.0 1.035e+04 4.119e-09
 72.22671    -60.5 1.049e+04 5.090e-09
 72.24057    -59.8 1.038e+04 4.271e-09
 72.26111    -59.1 1.034e+04 3.703e-09
 72.27183    -58.6 1.044e+04 4.344e-09
 72.28347    -58.0 1.040e+04 3.811e-09
 72.30491    -57.4 1.041e+04 3.533e-09
 72.31706    -56.8 1.048e+04 3.372e-09
 72.32778    -56.3 1.046e+04 3.517e-09
 72.34780    -55.9 1.047e+04 3.445e-09
 72.36208    -55.4 1.051e+04 3.424e-09
 72.37280    -55.0 1.044e+04 3.419e-09
 72.39070    -54.6 1.043e+04 3.416e-09
 72.40720    -54.2 1.048e+04 3.520e-09
 72.42875    -53.2 1.047e+04 3.719e-09
 72.46595    -51.8 1.054e+04 3.824e-09
 72.49764    -50.6 1.060e+04 3.893e-09
 72.51909    -49.0 1.063e+04 4.320e-09
 72.55174    -47.8 1.082e+04 4.450e-09
 72.58789    -46.4 1.107e+04 4.614e-09
 72.60924    -45.6 1.117e+04 4.950e-09
 72.62660    -45.4 1.132e+04 5.018e-09
 72.64354    -45.3 1.141e+04 5.250e-09
 72.65426    -44.6 1.151e+04 5.590e-09
 72.66949    -44.3 1.160e+04 6.018e-09
 72.68866    -44.1 1.171e+04 6.520e-09
 72.69939    -43.3 1.183e+04 6.853e-09
 72.71239    -43.2 1.194e+04 7.398e-09
 72.73379    -43.2 1.203e+04 7.697e-09
 72.75523    -42.6 1.251e+04 9.307e-09
 72.77672    -43.4 1.272e+04 1.003e-08
 72.78963    -44.9 1.298e+04 1.086e-08
 72.80035    -44.7 1.356e+04 1.503e-08
 72.81962    -48.4 1.449e+04 1.870e-08
 72.83471    -53.3 1.674e+04 2.699e-08
 72.84002    -57.8 1.919e+04 7.118e-08
 72.84633    -62.9 1.937e+04 2.124e-07
 72.85705    -66.5 1.924e+04 4.684e-07
 72.86258    -69.3 1.930e+04 7.398e-07
 72.86794    -72.1 1.931e+04 9.482e-07
 72.87850    -75.2 1.947e+04 8.345e-07
 72.88514    -78.1 1.973e+04 6.712e-07
 72.89050    -81.1 1.991e+04 4.232e-07
 72.89994    -83.7 1.980e+04 2.614e-07
 72.90770    -86.0 1.910e+04 1.624e-07
 72.91306    -87.3 1.835e+04 1.158e-07
 72.92495    -87.2 1.796e+04 1.087e-07
 72.93572    -88.8 1.708e+04 6.178e-08
 72.94829    -89.0 1.613e+04 4.226e-08
 72.96974    -88.9 1.500e+04 2.408e-08
 72.98085    -88.7 1.369e+04 1.240e-08
 72.99157    -89.5 1.347e+04 1.082e-08
 73.01263    -89.0 1.264e+04 7.047e-09
 73.02597    -88.3 1.220e+04 5.008e-09
 73.03669    -88.3 1.237e+04 5.453e-09
 73.05552    -87.4 1.210e+04 4.316e-09
 73.07109    -86.3 1.192e+04 3.728e-09
 73.08181    -86.3 1.205e+04 4.329e-09
 73.08943    -85.0 1.187e+04 3.852e-09
 73.10016    -85.0 1.173e+04 4.263e-09
 73.11621    -83.5 1.164e+04 3.643e-09
 73.12694    -83.6 1.174e+04 4.085e-09
 73.14131    -81.9 1.171e+04 3.349e-09
 73.16134    -80.5 1.183e+04 2.780e-09
 73.17206    -80.4 1.185e+04 2.958e-09
 73.19502    -78.7 1.212e+04 2.394e-09
 73.23801    -77.4 1.226e+04 2.009e-09
 73.26250    -75.0 1.226e+04 1.590e-09
 73.28395    -74.4 1.246e+04 1.679e-09
 73.32379    -71.7 1.237e+04 1.440e-09
 73.35275    -69.1 1.230e+04 1.319e-09
 73.37419    -68.0 1.242e+04 1.601e-09
 73.40958    -65.4 1.240e+04 1.633e-09
 73.44299    -63.2 1.245e+04 1.752e-09
 73.46434    -62.8 1.256e+04 2.040e-09
 73.48444    -61.5 1.262e+04 2.194e-09
 73.49864    -61.1 1.266e+04 2.264e-09
 73.50937    -61.3 1.280e+04 2.697e-09
 73.52734    -61.0 1.293e+04 3.007e-09
 73.54377    -61.2 1.301e+04 3.858e-09
 73.55449    -63.4 1.385e+04 1.013e-08
 73.57023    -64.5 1.460e+04 2.024e-08
 73.58889    -65.4 1.524e+04 3.731e-08
 73.59961    -67.7 1.651e+04 8.679e-08
 73.61312    -68.6 1.666e+04 1.003e-07
 73.63401    -69.3 1.623e+04 7.930e-08
 73.64473    -72.0 1.608e+04 7.079e-08
 73.65601    -72.3 1.521e+04 4.357e-08
 73.67746    -72.6 1.423e+04 2.427e-08
 73.68986    -72.7 1.338e+04 1.335e-08
 73.70058    -75.1 1.244e+04 4.819e-09
 73.72035    -75.2 1.173e+04 2.846e-09
 73.73498    -75.0 1.119e+04 2.057e-09
 73.74570    -76.7 1.056e+04 1.734e-09
 73.76324    -75.9 1.045e+04 1.627e-09
 73.79551    -74.4 1.034e+04 1.516e-09
 73.82542    -71.2 1.001e+04 1.322e-09
 73.84687    -71.1 9.996e+03 1.329e-09
 73.88139    -68.2 9.986e+03 1.222e-09
 73.91567    -65.6 9.989e+03 1.166e-09
 73.93711    -65.4 9.958e+03 1.284e-09
 73.96622    -62.9 9.951e+03 1.280e-09
 73.98767    -63.5 9.853e+03 1.606e-09
 74.00591    -61.2 9.827e+03 1.796e-09
 74.02736    -60.8 9.727e+03 1.859e-09
 74.05296    -58.4 9.730e+03 1.990e-09
 74.09585    -56.1 9.719e+03 2.110e-09
 74.11760    -53.8 9.712e+03 2.178e-09
 74.13905    -53.3 9.542e+03 1.975e-09
 74.18163    -51.2 9.550e+03 2.029e-09
 74.20785    -49.2 9.595e+03 2.176e-09
 74.22930    -48.5 9.604e+03 2.289e-09
 74.26742    -46.7 9.674e+03 2.731e-09
 74.29810    -45.2 9.772e+03 3.353e-09
 74.31954    -44.5 1.014e+04 5.021e-09
 74.35320    -43.2 1.039e+04 6.253e-09
 74.38834    -42.1 1.061e+04 7.219e-09
 74.40979    -41.9 1.106e+04 9.560e-09
 74.43899    -41.2 1.112e+04 9.588e-09
 74.47106    -40.7 1.120e+04 9.404e-09
 74.48911    -40.8 1.124e+04 9.203e-09
 74.49984    -41.2 1.131e+04 9.260e-09
 74.51385    -41.3 1.128e+04 8.866e-09
 74.53424    -41.3 1.124e+04 8.460e-09
 74.54496    -41.5 1.116e+04 8.016e-09
 74.55674    -41.7 1.107e+04 7.445e-09
 74.57819    -42.0 1.098e+04 6.934e-09
 74.59008    -42.4 1.090e+04 6.500e-09
 74.60081    -42.8 1.070e+04 5.922e-09
 74.62108    -43.3 1.066e+04 5.862e-09
 74.63521    -43.7 1.062e+04 5.976e-09
 74.64593    -43.9 1.057e+04 6.021e-09
 74.66397    -44.3 1.059e+04 6.259e-09
 74.68033    -44.6 1.061e+04 6.440e-09
 74.69105    -44.7 1.062e+04 6.773e-09
 74.70687    -44.9 1.063e+04 6.841e-09
 74.72545    -45.1 1.067e+04 6.725e-09
 74.73617    -45.1 1.066e+04 6.656e-09
 74.74976    -45.4 1.052e+04 6.047e-09
 74.77057    -45.6 1.032e+04 5.330e-09
 74.78130    -45.8 1.016e+04 4.779e-09
 74.79265    -46.0 9.864e+03 4.129e-09
 74.81410    -46.1 9.616e+03 3.699e-09
 74.82642    -46.1 9.472e+03 3.453e-09
 74.83714    -46.2 9.374e+03 3.227e-09
 74.86092    -45.8 9.390e+03 3.282e-09
 74.88246    -45.8 9.161e+03 2.716e-09
 74.91080    -45.6 9.183e+03 2.802e-09
 74.95126    -45.6 9.307e+03 3.225e-09
 74.97271    -45.6 9.329e+03 3.188e-09
 74.98576    -45.5 9.491e+03 3.691e-09
 75.00691    -45.8 9.529e+03 3.830e-09
 75.01763    -46.3 9.561e+03 4.015e-09
 75.02856    -46.8 9.654e+03 4.422e-09
 75.05000    -47.1 9.708e+03 4.598e-09
 75.06276    -47.5 9.704e+03 4.621e-09
 75.07348    -47.9 9.778e+03 5.000e-09
 75.09290    -48.2 9.607e+03 4.526e-09
 75.10788    -48.7 9.451e+03 3.778e-09
 75.11860    -48.9 9.427e+03 3.671e-09
 75.13579    -49.3 9.276e+03 3.107e-09
 75.15310    -49.4 9.169e+03 2.807e-09
 75.17464    -49.4 9.011e+03 2.546e-09
 75.21104    -49.4 8.899e+03 2.270e-09
 75.24344    -49.3 8.908e+03 2.225e-09
 75.26489    -49.0 8.913e+03 2.265e-09
 75.29683    -48.8 8.933e+03 2.222e-09
 75.33369    -48.5 8.936e+03 2.149e-09
 75.35514    -48.0 8.933e+03 2.180e-09
 75.38261    -47.6 8.949e+03 2.174e-09
 75.42393    -46.9 9.021e+03 2.244e-09
 75.44538    -46.3 9.035e+03 2.280e-09
 75.46840    -45.5 9.085e+03 2.375e-09
 75.51129    -44.5 9.091e+03 2.394e-09
 75.53563    -43.4 9.059e+03 2.295e-09
 75.55707    -42.7 9.052e+03 2.266e-09
 75.59707    -41.4 8.993e+03 1.992e-09
 75.62587    -39.9 8.936e+03 1.744e-09
 75.64732    -39.3 8.918e+03 1.730e-09
 75.68286    -37.7 8.911e+03 1.642e-09
 75.71612    -36.3 8.916e+03 1.631e-09
 75.73756    -35.7 8.881e+03 1.623e-09
 75.76230    -34.5 9.083e+03 1.711e-09
 75.78374    -34.7 9.118e+03 1.636e-09
 75.80636    -34.3 9.462e+03 2.383e-09
 75.82781    -33.6 9.381e+03 2.086e-09
 75.85442    -33.4 9.656e+03 3.007e-09
 75.89661    -33.4 9.906e+03 4.015e-09
 75.91805    -32.7 9.786e+03 3.411e-09
 75.94021    -33.1 1.005e+04 4.544e-09
 75.98310    -33.6 1.031e+04 5.567e-09
 76.00830    -34.4 1.057e+04 6.169e-09
 76.02975    -33.7 1.077e+04 7.011e-09
 76.06888    -35.0 1.086e+04 7.248e-09
 76.09855    -36.7 1.096e+04 6.640e-09
 76.11999    -36.5 1.118e+04 7.961e-09
 76.15467    -38.1 1.118e+04 6.008e-09
 76.18879    -39.0 1.118e+04 4.479e-09
 76.21014    -38.9 1.127e+04 4.816e-09
 76.22953    -39.8 1.112e+04 3.725e-09
 76.24444    -40.1 1.109e+04 3.196e-09
 76.25517    -39.9 1.111e+04 3.281e-09
 76.27894    -40.2 1.124e+04 2.860e-09
 76.30039    -39.7 1.128e+04 2.724e-09
 76.32614    -39.4 1.137e+04 2.685e-09
 76.36913    -38.9 1.148e+04 2.654e-09
 76.40120    -38.3 1.165e+04 2.884e-09
 76.42255    -38.2 1.172e+04 3.031e-09
 76.43566    -37.9 1.183e+04 3.255e-09
 76.44638    -37.9 1.193e+04 3.572e-09
 76.46544    -37.8 1.208e+04 3.723e-09
 76.48078    -37.8 1.220e+04 3.901e-09
 76.49150    -38.0 1.225e+04 3.908e-09
 76.50833    -38.0 1.224e+04 4.104e-09
 76.52590    -37.9 1.222e+04 4.421e-09
 76.53663    -38.3 1.221e+04 4.383e-09
 76.55122    -38.2 1.225e+04 4.821e-09
 76.57112    -38.0 1.231e+04 5.281e-09
 76.59267    -38.1 1.216e+04 4.991e-09
 76.62648    -37.7 1.211e+04 5.295e-09
 76.66147    -37.4 1.193e+04 5.187e-09
 76.68291    -37.5 1.175e+04 4.512e-09
 76.70144    -37.1 1.183e+04 4.266e-09
 76.71712    -37.0 1.174e+04 3.823e-09
 76.72784    -37.1 1.166e+04 3.617e-09
 76.75161    -36.7 1.169e+04 3.391e-09
 76.77316    -36.4 1.143e+04 3.010e-09
 76.79805    -36.2 1.127e+04 2.340e-09
 76.84094    -35.9 1.115e+04 1.794e-09
 76.86340    -35.5 1.100e+04 1.370e-09
 76.88485    -35.1 1.092e+04 1.370e-09
 76.92673    -34.4 1.088e+04 1.099e-09
 76.95365    -33.5 1.093e+04 9.708e-10
 76.97509    -32.8 1.087e+04 9.936e-10
 77.01251    -31.8 1.091e+04 9.598e-10
 77.04389    -30.9 1.094e+04 9.580e-10
 77.06534    -30.3 1.084e+04 9.848e-10
 77.09829    -29.7 1.094e+04 1.073e-09
 77.13414    -29.3 1.099e+04 1.414e-09
 77.15559    -29.0 1.077e+04 1.423e-09
 77.18408    -28.9 1.083e+04 1.864e-09
 77.22439    -29.2 1.096e+04 2.304e-09
 77.24583    -30.2 1.080e+04 2.453e-09
 77.26986    -31.4 1.091e+04 3.369e-09
 77.30193    -32.5 1.112e+04 4.527e-09
 77.32328    -33.7 1.131e+04 5.696e-09
 77.33588    -35.3 1.163e+04 7.954e-09
 77.34661    -36.4 1.160e+04 8.557e-09
 77.36617    -38.2 1.193e+04 1.082e-08
 77.38100    -40.3 1.211e+04 1.223e-08
 77.39173    -41.8 1.191e+04 1.172e-08
 77.40907    -44.2 1.180e+04 1.172e-08
 77.42613    -46.4 1.131e+04 9.968e-09
 77.43685    -47.6 1.093e+04 8.697e-09
 77.45196    -49.7 1.044e+04 6.161e-09
 77.47125    -52.0 1.010e+04 4.384e-09
 77.48197    -53.3 9.943e+03 3.821e-09
 77.49485    -55.6 9.790e+03 3.109e-09
 77.51630    -57.5 9.720e+03 2.879e-09
 77.53774    -59.9 9.484e+03 2.788e-09
 77.55818    -61.1 9.695e+03 2.914e-09
 77.56890    -61.5 9.758e+03 2.884e-09
 77.57222    -62.7 9.975e+03 3.303e-09
 77.58294    -63.2 1.004e+04 3.719e-09
 77.60208    -64.4 1.035e+04 4.561e-09
 77.61734    -65.6 1.066e+04 5.476e-09
 77.62806    -66.4 1.090e+04 6.964e-09
 77.64497    -68.1 1.113e+04 8.001e-09
 77.66246    -70.0 1.119e+04 8.312e-09
 77.67319    -70.9 1.123e+04 9.227e-09
 77.69696    -72.1 1.102e+04 7.876e-09
 77.71851    -73.3 1.120e+04 1.020e-08
 77.74167    -75.2 1.087e+04 7.984e-09
 77.78457    -76.6 1.056e+04 6.049e-09
 77.80875    -77.5 1.031e+04 4.728e-09
 77.83020    -77.7 1.025e+04 5.696e-09
 77.87035    -77.8 1.027e+04 5.051e-09
 77.89900    -77.7 1.035e+04 4.851e-09
 77.92044    -77.7 1.034e+04 5.637e-09
 77.95614    -77.5 1.048e+04 5.540e-09
 77.98924    -77.2 1.058e+04 5.372e-09
 78.01069    -76.8 1.068e+04 6.188e-09
 78.04192    -75.7 1.080e+04 5.808e-09
 78.07949    -74.6 1.099e+04 5.239e-09
 78.10084    -74.5 1.122e+04 5.961e-09
 78.11678    -74.2 1.143e+04 6.152e-09
 78.13514    -74.0 1.170e+04 6.846e-09
 78.14586    -74.9 1.240e+04 1.135e-08
 78.15968    -74.4 1.265e+04 1.347e-08
 78.18026    -73.8 1.284e+04 1.532e-08
 78.19098    -74.3 1.352e+04 2.501e-08
 78.20257    -73.6 1.352e+04 2.487e-08
 78.22402    -72.9 1.345e+04 2.314e-08
 78.23611    -72.1 1.331e+04 2.105e-08
 78.24683    -72.8 1.339e+04 2.131e-08
 78.26691    -71.9 1.334e+04 1.985e-08
 78.28123    -71.1 1.334e+04 1.949e-08
 78.29195    -71.9 1.331e+04 1.848e-08
 78.30980    -71.8 1.366e+04 1.982e-08
 78.32635    -72.0 1.442e+04 2.853e-08
 78.33708    -73.7 1.487e+04 3.507e-08
 78.35269    -74.0 1.582e+04 6.146e-08
 78.37148    -74.4 1.655e+04 9.181e-08
 78.38220    -75.4 1.692e+04 1.076e-07
 78.39017    -75.7 1.691e+04 1.030e-07
 78.39930    -76.2 1.689e+04 1.014e-07
 78.40466    -77.2 1.694e+04 1.005e-07
 78.41157    -78.0 1.684e+04 9.413e-08
 78.42186    -78.5 1.657e+04 8.117e-08
 78.42722    -80.0 1.653e+04 7.207e-08
 78.43302    -80.8 1.599e+04 5.505e-08
 78.44374    -81.7 1.544e+04 4.259e-08
 78.44979    -82.6 1.493e+04 3.510e-08
 78.45515    -83.9 1.482e+04 3.507e-08
 78.46148    -84.2 1.452e+04 3.152e-08
 78.46689    -83.2 1.433e+04 2.746e-08
 78.47244    -83.3 1.382e+04 2.168e-08
 78.48317    -85.6 1.367e+04 2.115e-08
 78.50281    -85.3 1.327e+04 1.684e-08
 78.51757    -84.9 1.310e+04 1.495e-08
 78.52829    -87.2 1.355e+04 1.912e-08
 78.54571    -87.1 1.389e+04 2.036e-08
 78.56269    -87.2 1.437e+04 2.535e-08
 78.57341    -89.9 1.500e+04 3.751e-08
 78.58860    -89.9 1.513e+04 4.331e-08
 78.60781    -89.9 1.512e+04 4.480e-08
 78.61854    -92.1 1.482e+04 4.047e-08
 78.63149    -91.8 1.437e+04 3.349e-08
 78.65294    -91.4 1.383e+04 2.514e-08
 78.67438    -93.7 1.228e+04 9.988e-09
 78.69583    -94.0 1.169e+04 7.658e-09
 78.72809    -93.9 1.116e+04 6.570e-09
 78.75410    -91.7 1.058e+04 5.466e-09
 78.77555    -92.6 1.062e+04 5.194e-09
 78.81398    -90.9 1.041e+04 4.530e-09
 78.84435    -89.0 1.020e+04 3.801e-09
 78.86579    -90.1 1.024e+04 3.828e-09
 78.89976    -88.1 1.006e+04 3.293e-09
 78.93459    -86.2 9.936e+03 2.985e-09
 78.95604    -87.5 1.020e+04 3.592e-09
 78.98554    -85.7 1.017e+04 3.569e-09
 79.02484    -84.0 1.017e+04 3.589e-09
 79.04628    -85.5 1.042e+04 3.783e-09
 79.07133    -84.1 1.042e+04 3.980e-09
 79.11422    -82.8 1.045e+04 4.284e-09
 79.13653    -81.6 1.050e+04 4.629e-09
 79.15797    -82.7 1.053e+04 4.008e-09
 79.20000    -81.2 1.055e+04 4.004e-09
 79.22677    -79.6 1.060e+04 3.819e-09
 79.24822    -79.8 1.051e+04 2.679e-09
 79.28579    -78.0 1.052e+04 2.433e-09
 79.31702    -76.1 1.054e+04 2.311e-09
 79.33847    -75.8 1.055e+04 1.399e-09
 79.35445    -73.9 1.059e+04 1.356e-09
 79.37589    -74.1 1.054e+04 1.260e-09
 79.40727    -72.2 1.065e+04 1.266e-09
 79.42871    -71.4 1.064e+04 1.065e-09
 79.45736    -69.5 1.074e+04 1.145e-09
 79.49751    -67.5 1.079e+04 1.220e-09
 79.51896    -66.3 1.088e+04 1.272e-09
 79.54314    -64.2 1.094e+04 1.351e-09
 79.58603    -61.9 1.098e+04 1.420e-09
 79.60920    -59.4 1.105e+04 1.513e-09
 79.63065    -58.3 1.144e+04 2.310e-09
 79.65423    -57.0 1.144e+04 2.038e-09
 79.66485    -56.7 1.155e+04 2.532e-09
 79.68234    -56.4 1.155e+04 2.595e-09
 79.69925    -57.3 1.214e+04 2.922e-09
 79.70998    -59.2 1.293e+04 4.067e-09
 79.72524    -64.8 1.560e+04 1.774e-08
 79.74438    -67.8 1.702e+04 6.978e-08
 79.75510    -68.6 1.719e+04 9.145e-08
 79.76813    -71.4 1.775e+04 1.316e-07
 79.78950    -74.9 1.769e+04 1.331e-07
 79.81094    -80.4 1.539e+04 3.866e-08
 79.83247    -84.5 1.305e+04 1.074e-08
 79.84534    -87.4 1.204e+04 6.280e-09
 79.85607    -88.1 1.195e+04 7.179e-09
 79.87536    -88.5 1.181e+04 6.779e-09
 79.89047    -88.9 1.193e+04 6.764e-09
 79.90119    -88.8 1.195e+04 8.111e-09
 79.91825    -89.0 1.213e+04 8.151e-09
 79.93559    -89.6 1.327e+04 9.525e-09
 79.94631    -89.4 1.244e+04 9.361e-09
 79.96114    -89.7 1.345e+04 1.131e-08
 79.98071    -90.0 1.484e+04 1.871e-08
 79.99144    -89.2 1.368e+04 1.371e-08
 80.00404    -88.9 1.519e+04 2.045e-08
 80.02548    -90.3 1.748e+04 4.534e-08
 80.03651    -93.2 1.944e+04 1.217e-07
 80.04182    -93.8 2.076e+04 9.943e-08
 80.05219    -96.3 1.952e+04 5.087e-07
 80.05902    -98.1 1.822e+04 2.333e-06
 80.06438    -98.9 1.755e+04 4.649e-06
 80.07364   -102.0 1.659e+04 1.479e-05
 80.08158   -108.0 1.621e+04 2.356e-05
 80.08695   -111.0 1.638e+04 2.001e-05
 80.09508   -116.2 1.665e+04 1.369e-05
 80.10415   -118.2 1.804e+04 3.909e-06
 80.10951   -119.1 1.910e+04 1.671e-06
 80.11653   -120.4 2.106e+04 3.875e-07
 80.12671   -122.5 2.143e+04 1.113e-07
 80.13207   -124.4 1.906e+04 1.041e-07
 80.13798   -126.1 1.726e+04 6.239e-08
 80.14870   -126.5 1.619e+04 4.455e-08
 80.15463   -126.4 1.551e+04 3.617e-08
 80.15999   -126.3 1.543e+04 3.695e-08
 80.17014   -126.1 1.503e+04 3.108e-08
 80.17719   -126.0 1.471e+04 2.783e-08
 80.18260   -126.2 1.465e+04 2.960e-08
 80.19705   -126.7 1.364e+04 1.752e-08
 80.21705   -127.0 1.317e+04 1.367e-08
 80.22777   -127.9 1.270e+04 1.236e-08
 80.23994   -128.0 1.245e+04 1.050e-08
 80.25229   -128.0 1.233e+04 9.571e-09
 80.26301   -127.6 1.252e+04 8.229e-09
 80.27290   -127.5 1.250e+04 8.158e-09
 80.28362   -128.3 1.191e+04 7.035e-09
 80.30428   -128.1 1.187e+04 6.672e-09
 80.31802   -127.8 1.180e+04 6.375e-09
 80.32874   -128.0 1.155e+04 5.545e-09
 80.34717   -127.5 1.141e+04 4.969e-09
 80.36314   -126.8 1.125e+04 4.324e-09
 80.37386   -126.4 1.106e+04 3.422e-09
 80.39006   -125.6 1.097e+04 2.909e-09
 80.40826   -125.2 1.092e+04 2.682e-09
 80.41899   -125.2 1.094e+04 2.593e-09
 80.44276   -124.6 1.082e+04 2.492e-09
 80.46431   -124.1 1.067e+04 2.145e-09
 80.48677   -122.3 1.043e+04 1.748e-09
 80.52966   -120.3 1.028e+04 1.454e-09
 80.55455   -118.3 1.024e+04 1.256e-09
 80.57600   -117.6 1.030e+04 1.210e-09
 80.61544   -115.6 1.032e+04 1.167e-09
 80.64480   -113.6 1.033e+04 1.162e-09
 80.66624   -113.0 1.040e+04 1.152e-09
 80.70123   -111.2 1.041e+04 1.217e-09
 80.73504   -109.5 1.035e+04 1.325e-09
 80.75649   -109.1 1.037e+04 1.204e-09
 80.78701   -107.6 1.024e+04 1.308e-09
 80.82529   -106.4 1.009e+04 1.520e-09
 80.84673   -106.5 1.019e+04 1.564e-09
 80.87279   -106.2 1.028e+04 2.194e-09
 80.91553   -106.3 1.048e+04 3.247e-09
 80.94760   -107.2 1.098e+04 5.778e-09
 80.96911   -107.5 1.107e+04 6.924e-09
 80.98191   -107.9 1.106e+04 7.917e-09
 80.99263   -109.4 1.135e+04 1.111e-08
 81.01200   -109.8 1.130e+04 1.123e-08
 81.02703   -110.3 1.103e+04 1.009e-08
 81.03775   -111.5 1.114e+04 1.066e-08
 81.05489   -112.1 1.075e+04 8.527e-09
 81.07215   -112.6 1.037e+04 6.860e-09
 81.08288   -113.9 1.027e+04 6.605e-09
 81.09778   -114.1 9.925e+03 5.380e-09
 81.11728   -114.2 9.645e+03 4.471e-09
 81.12800   -115.4 9.493e+03 4.051e-09
 81.13960   -115.5 9.337e+03 3.589e-09
 81.15033   -115.2 9.525e+03 4.360e-09
 81.16212   -115.2 9.390e+03 4.004e-09
 81.17312   -115.1 9.267e+03 3.784e-09
 81.18384   -115.3 9.246e+03 3.763e-09
 81.20762   -115.0 9.119e+03 3.576e-09
 81.22916   -116.5 8.936e+03 3.261e-09
 81.25882   -115.7 8.673e+03 2.921e-09
 81.29796   -114.9 8.518e+03 2.711e-09
 81.31941   -116.3 8.329e+03 2.279e-09
 81.34461   -115.4 8.218e+03 2.081e-09
 81.38750   -114.5 8.153e+03 1.945e-09
 81.40965   -113.8 8.145e+03 1.883e-09
 81.43110   -115.3 7.952e+03 1.720e-09
 81.47328   -114.6 7.943e+03 1.717e-09
 81.49990   -114.0 7.914e+03 1.793e-09
 81.52135   -114.7 7.842e+03 1.721e-09
 81.55907   -113.8 7.845e+03 1.789e-09
 81.59014   -112.9 7.881e+03 1.880e-09
 81.61159   -113.2 7.770e+03 1.552e-09
 81.64485   -112.2 7.767e+03 1.575e-09
 81.68039   -111.1 7.760e+03 1.580e-09
 81.70184   -111.2 7.652e+03 1.177e-09
 81.73064   -110.1 7.656e+03 1.174e-09
 81.77064   -109.0 7.797e+03 1.165e-09
 81.79208   -110.3 8.052e+03 1.381e-09
 81.81642   -109.7 8.224e+03 1.808e-09
 81.85931   -108.8 8.372e+03 2.427e-09
 81.88233   -107.7 8.496e+03 3.073e-09
 81.90377   -108.4 8.631e+03 3.453e-09
 81.94510   -107.1 8.660e+03 3.197e-09
 81.97257   -105.8 8.720e+03 2.813e-09
 81.99402   -107.0 8.746e+03 2.629e-09
 82.03088   -107.2 8.955e+03 2.662e-09
 82.06282   -108.1 9.643e+03 3.914e-09
 82.08427   -109.9 1.014e+04 7.453e-09
 82.11666   -110.4 1.059e+04 1.021e-08
 82.15306   -111.0 1.085e+04 1.109e-08
 82.17451   -112.9 1.083e+04 1.006e-08
 82.20245   -113.5 1.074e+04 8.308e-09
 82.24331   -114.2 1.061e+04 6.988e-09
 82.26476   -115.2 1.061e+04 7.681e-09
 82.28823   -115.4 1.059e+04 7.685e-09
 82.33112   -115.5 1.043e+04 7.526e-09
 82.35500   -115.2 1.016e+04 6.767e-09
 82.37645   -115.4 1.041e+04 6.423e-09
 82.41691   -114.7 1.015e+04 5.407e-09
 82.44525   -113.8 9.910e+03 4.359e-09
 82.46669   -113.9 9.831e+03 3.142e-09
 82.50269   -112.8 9.688e+03 2.648e-09
 82.53549   -111.6 9.653e+03 2.399e-09
 82.55694   -111.4 9.626e+03 1.839e-09
 82.58848   -110.0 9.641e+03 1.799e-09
 82.62574   -108.7 9.687e+03 1.794e-09
 82.64718   -108.6 9.663e+03 1.410e-09
 82.67426   -107.3 9.811e+03 1.435e-09
 82.71598   -106.1 9.958e+03 1.708e-09
 82.73743   -105.7 9.970e+03 1.268e-09
 82.76005   -104.5 1.010e+04 1.689e-09
 82.80294   -103.3 1.026e+04 2.323e-09
 82.82768   -102.3 1.049e+04 2.929e-09
 82.84912   -101.7 1.048e+04 2.373e-09
 82.88872   -100.8 1.067e+04 2.975e-09
 82.91792    -99.9 1.086e+04 3.280e-09
 82.93291    -99.2 1.088e+04 3.144e-09
 82.94660    -99.5 1.088e+04 3.229e-09
 82.97451    -98.5 1.099e+04 3.464e-09
 83.00817    -97.4 1.111e+04 3.511e-09
 83.02961    -96.8 1.130e+04 3.776e-09
 83.06029    -95.7 1.146e+04 4.222e-09
 83.09841    -94.6 1.159e+04 4.605e-09
 83.11986    -94.4 1.177e+04 5.154e-09
 83.14607    -93.0 1.196e+04 6.113e-09
 83.18866    -91.4 1.216e+04 7.010e-09
 83.21010    -91.4 1.199e+04 5.710e-09
 83.23186    -90.0 1.200e+04 6.918e-09
 83.27475    -88.7 1.201e+04 7.653e-09
 83.30035    -87.2 1.200e+04 7.776e-09
 83.32180    -86.7 1.200e+04 3.780e-09
 83.36053    -85.2 1.191e+04 4.365e-09
 83.39060    -83.8 1.183e+04 5.182e-09
 83.41204    -83.4 1.182e+04 2.231e-09
 83.44632    -82.0 1.191e+04 3.058e-09
 83.48084    -80.8 1.201e+04 4.793e-09
 83.50229    -80.3 1.151e+04 2.096e-09
 83.53210    -79.1 1.176e+04 2.768e-09
 83.57109    -78.1 1.205e+04 3.902e-09
 83.59253    -77.9 1.137e+04 1.753e-09
 83.61789    -77.0 1.149e+04 2.495e-09
 83.66078    -76.1 1.170e+04 3.607e-09
 83.68278    -75.1 1.190e+04 4.768e-09
 83.70422    -74.2 1.110e+04 3.721e-09
 83.74656    -72.8 1.130e+04 4.732e-09
 83.77302    -71.2 1.147e+04 5.053e-09
 83.79447    -70.2 1.112e+04 4.339e-09
 83.83235    -68.7 1.135e+04 5.204e-09
 83.86327    -67.2 1.148e+04 5.395e-09
 83.88472    -66.6 1.118e+04 6.240e-09
 83.91813    -65.2 1.128e+04 6.941e-09
 83.95352    -63.8 1.127e+04 6.784e-09
 83.97496    -62.9 1.102e+04 5.182e-09
 84.00391    -61.5 1.093e+04 4.632e-09
 84.04376    -59.9 1.092e+04 3.523e-09
 84.06521    -59.3 1.089e+04 2.212e-09
 84.08970    -57.8 1.094e+04 1.963e-09
 84.13259    -56.3 1.104e+04 1.862e-09
 84.15545    -54.9 1.121e+04 1.844e-09
 84.17690    -55.0 1.126e+04 2.587e-09
 84.21838    -54.1 1.157e+04 3.702e-09
 84.24570    -53.1 1.188e+04 6.145e-09
 84.26714    -52.4 1.180e+04 9.083e-09
 84.30416    -51.8 1.197e+04 1.012e-08
 84.33594    -51.4 1.197e+04 1.020e-08
 84.35739    -51.7 1.185e+04 8.935e-09
 84.38994    -51.5 1.155e+04 7.061e-09
 84.42619    -51.3 1.125e+04 6.165e-09
 84.44764    -52.6 1.131e+04 7.434e-09
 84.47573    -52.1 1.106e+04 6.686e-09
 84.51644    -51.5 1.099e+04 6.558e-09
 84.53778    -53.0 1.103e+04 9.139e-09
 84.55059    -52.7 1.117e+04 1.051e-08
 84.57204    -52.5 1.119e+04 1.097e-08
 84.60431    -52.0 1.140e+04 1.289e-08
 84.62813    -51.3 1.138e+04 1.355e-08
 84.64957    -52.2 1.104e+04 1.067e-08
 84.69019    -51.1 1.048e+04 7.079e-09
 84.71837    -49.8 9.918e+03 4.028e-09
 84.72787    -50.2 9.446e+03 3.058e-09
 84.74258    -50.2 9.119e+03 2.001e-09
 84.77597    -48.7 8.963e+03 1.276e-09
 84.80862    -47.2 8.965e+03 9.754e-10
 84.83006    -47.1 8.952e+03 9.108e-10
 84.86176    -45.4 8.944e+03 8.651e-10
 84.89886    -43.7 8.942e+03 8.561e-10
 84.92031    -43.4 9.003e+03 1.067e-09
 84.94754    -41.7 9.122e+03 1.070e-09
 84.98911    -40.4 9.356e+03 1.219e-09
 85.01056    -40.4 9.421e+03 2.111e-09
 85.03332    -39.1 9.604e+03 2.719e-09
 85.07622    -37.7 9.801e+03 3.443e-09
 85.10080    -36.5 1.000e+04 3.792e-09
 85.12225    -36.9 9.953e+03 4.057e-09
 85.16200    -36.1 1.003e+04 3.615e-09
 85.19105    -35.4 1.001e+04 3.357e-09
 85.21249    -35.4 9.894e+03 3.922e-09
 85.24778    -34.2 9.871e+03 3.848e-09
 85.28129    -32.6 9.863e+03 3.087e-09
 85.30274    -32.2 9.864e+03 2.832e-09
 85.33357    -30.7 9.924e+03 2.183e-09
 85.37154    -29.5 1.003e+04 1.913e-09
 85.39298    -29.5 1.015e+04 2.186e-09
 85.41935    -28.6 1.052e+04 2.543e-09
 85.46178    -28.3 1.096e+04 4.248e-09
 85.48323    -28.6 1.130e+04 9.135e-09
 85.49432    -29.0 1.190e+04 1.184e-08
 85.51566    -30.3 1.272e+04 1.853e-08
 85.52816    -30.9 1.331e+04 2.985e-08
 85.53888    -30.5 1.360e+04 4.108e-08
 85.55856    -30.5 1.378e+04 4.381e-08
 85.57328    -30.5 1.357e+04 3.121e-08
 85.58400    -31.3 1.308e+04 2.032e-08
 85.60145    -35.2 1.211e+04 8.830e-09
 85.61840    -39.5 1.056e+04 5.781e-09
 85.62530    -41.4 1.003e+04 5.182e-09
 85.62979    -41.0 1.008e+04 5.222e-09
 85.64434    -42.0 9.894e+03 5.007e-09
 85.66353    -42.4 9.869e+03 5.139e-09
 85.67425    -43.2 9.709e+03 4.851e-09
 85.68723    -43.5 9.715e+03 4.732e-09
 85.70865    -43.7 9.638e+03 4.296e-09
 85.73009    -45.2 9.544e+03 3.673e-09
 85.75157    -47.3 1.057e+04 3.659e-09
 85.76449    -50.9 1.207e+04 4.851e-09
 85.77522    -56.4 1.265e+04 1.235e-08
 85.79446    -57.1 1.225e+04 1.921e-08
 85.80962    -56.8 1.231e+04 2.664e-08
 85.82034    -57.0 1.252e+04 2.931e-08
 85.83735    -57.3 1.302e+04 2.519e-08
 85.85474    -58.7 1.301e+04 1.992e-08
 85.86546    -64.6 1.205e+04 1.282e-08
 85.88025    -67.7 1.175e+04 1.307e-08
 85.89986    -70.0 1.211e+04 1.722e-08
 85.91059    -72.6 1.179e+04 1.735e-08
 85.92314    -73.9 1.242e+04 2.083e-08
 85.94458    -75.9 1.278e+04 2.173e-08
 85.95571    -78.5 1.297e+04 2.016e-08
 85.96643    -82.7 1.140e+04 1.315e-08
 85.98748    -85.8 1.104e+04 1.164e-08
 86.00083    -88.2 1.080e+04 1.067e-08
 86.01155    -90.1 1.048e+04 9.918e-09
 86.03037    -91.6 1.031e+04 9.113e-09
 86.04595    -92.5 1.015e+04 8.272e-09
 86.05668    -94.0 1.001e+04 7.704e-09
 86.07326    -94.5 9.802e+03 6.732e-09
 86.09108    -95.1 9.598e+03 5.767e-09
 86.10180    -96.3 9.497e+03 5.152e-09
 86.11615    -96.8 9.344e+03 4.531e-09
 86.13620    -97.0 9.215e+03 4.053e-09
 86.14692    -98.4 9.132e+03 3.745e-09
 86.15905    -98.6 9.124e+03 3.612e-09
 86.18049    -99.1 9.156e+03 3.599e-09
 86.19205   -101.9 9.643e+03 3.860e-09
 86.20277   -107.4 1.123e+04 4.514e-09
 86.22338   -115.9 1.525e+04 2.064e-08
 86.23717   -121.0 1.699e+04 8.282e-08
 86.24789   -123.6 1.674e+04 9.405e-08
 86.26628   -127.9 1.716e+04 1.390e-07
 86.28229   -132.3 1.706e+04 1.401e-07
 86.29301   -134.0 1.599e+04 8.706e-08
 86.30917   -137.7 1.468e+04 4.670e-08
 86.32741   -140.9 1.325e+04 2.317e-08
 86.33814   -141.4 1.273e+04 1.843e-08
 86.35206   -142.7 1.216e+04 1.322e-08
 86.37254   -143.2 1.186e+04 1.040e-08
 86.38326   -142.8 1.181e+04 1.086e-08
 86.39495   -143.0 1.161e+04 8.933e-09
 86.41640   -143.1 1.143e+04 7.282e-09
 86.42838   -143.1 1.130e+04 5.958e-09
 86.43911   -142.6 1.129e+04 6.542e-09
 86.45929   -142.6 1.117e+04 5.396e-09
 86.47351   -142.4 1.108e+04 4.496e-09
 86.48423   -142.0 1.104e+04 4.854e-09
 86.50218   -141.8 1.096e+04 4.037e-09
 86.51711   -141.6 1.090e+04 3.421e-09
 86.52283   -141.8 1.097e+04 3.868e-09
 86.52935   -141.3 1.093e+04 3.986e-09
 86.54507   -141.1 1.093e+04 3.528e-09
 86.56375   -140.9 1.092e+04 3.320e-09
 86.57447   -140.5 1.086e+04 3.224e-09
 86.58797   -140.3 1.086e+04 3.147e-09
 86.60887   -140.1 1.087e+04 3.137e-09
 86.61960   -139.7 1.078e+04 2.733e-09
 86.63086   -139.7 1.094e+04 2.849e-09
 86.65230   -139.8 1.104e+04 3.263e-09
 86.66472   -139.9 1.115e+04 3.803e-09
 86.67544   -139.7 1.108e+04 3.342e-09
 86.69520   -139.8 1.121e+04 4.046e-09
 86.70984   -140.0 1.136e+04 4.860e-09
 86.72057   -139.7 1.124e+04 4.150e-09
 86.73809   -139.7 1.136e+04 5.070e-09
 86.75497   -139.7 1.149e+04 6.042e-09
 86.76569   -139.3 1.137e+04 5.096e-09
 86.78098   -139.2 1.147e+04 6.038e-09
 86.80009   -139.1 1.155e+04 6.779e-09
 86.81081   -138.6 1.146e+04 5.936e-09
 86.82387   -138.4 1.148e+04 6.472e-09
 86.84521   -138.2 1.147e+04 6.626e-09
 86.85593   -137.7 1.143e+04 6.148e-09
 86.86676   -137.4 1.140e+04 6.159e-09
 86.88821   -137.1 1.135e+04 5.991e-09
 86.90106   -136.8 1.126e+04 5.616e-09
 86.91178   -136.3 1.131e+04 5.814e-09
 86.93110   -136.1 1.126e+04 5.422e-09
 86.94618   -135.9 1.121e+04 4.929e-09
 86.95690   -135.5 1.133e+04 5.581e-09
 86.97399   -135.4 1.129e+04 5.121e-09
 86.99130   -135.4 1.124e+04 4.652e-09
 87.00203   -135.1 1.139e+04 5.441e-09
 87.01689   -135.2 1.136e+04 5.008e-09
 87.03643   -135.5 1.136e+04 4.686e-09
 87.04715   -135.4 1.151e+04 5.453e-09
 87.05978   -135.9 1.153e+04 5.314e-09
 87.08122   -136.7 1.153e+04 5.284e-09
 87.09227   -137.5 1.167e+04 5.638e-09
 87.10309   -137.8 1.182e+04 6.487e-09
 87.13503   -140.5 1.240e+04 9.250e-09
 87.17199   -144.0 1.269e+04 1.158e-08
 87.19334   -146.0 1.285e+04 1.226e-08
 87.22072   -147.9 1.256e+04 1.023e-08
 87.26223   -149.7 1.208e+04 6.036e-09
 87.28358   -149.5 1.191e+04 3.826e-09
 87.29568   -149.7 1.181e+04 2.961e-09
 87.31713   -149.9 1.176e+04 2.417e-09
 87.34940   -150.2 1.164e+04 2.035e-09
 87.37393   -149.6 1.142e+04 1.628e-09
 87.39537   -148.9 1.140e+04 1.416e-09
 87.43528   -147.9 1.128e+04 1.203e-09
 87.46417   -146.7 1.125e+04 1.080e-09
 87.48562   -146.1 1.129e+04 9.427e-10
 87.52106   -145.0 1.129e+04 8.898e-10
 87.55442   -143.8 1.133e+04 8.660e-10
 87.57586   -143.1 1.137e+04 7.938e-10
 87.60685   -142.1 1.144e+04 7.967e-10
 87.64466   -141.3 1.157e+04 9.016e-10
 87.66611   -140.8 1.165e+04 9.395e-10
 87.69263   -140.2 1.172e+04 1.244e-09
 87.73491   -139.6 1.179e+04 1.658e-09
 87.75636   -139.2 1.182e+04 1.707e-09
 87.77842   -138.9 1.191e+04 2.005e-09
 87.82131   -138.8 1.196e+04 2.084e-09
 87.84660   -139.0 1.200e+04 2.066e-09
 87.86805   -138.4 1.205e+04 2.006e-09
 87.90709   -138.7 1.214e+04 2.045e-09
 87.93685   -139.5 1.234e+04 2.260e-09
 87.95829   -138.7 1.236e+04 2.250e-09
 87.99288   -140.1 1.251e+04 2.433e-09
 88.02709   -141.7 1.253e+04 2.470e-09
 88.04854   -141.0 1.268e+04 2.559e-09
 88.07866   -142.5 1.275e+04 2.439e-09
 88.11734   -143.5 1.284e+04 2.274e-09
 88.13878   -143.3 1.291e+04 3.356e-09
 88.16444   -143.9 1.295e+04 3.126e-09
 88.20734   -144.3 1.303e+04 2.917e-09
 88.22903   -144.7 1.311e+04 2.798e-09
 88.25048   -144.8 1.318e+04 3.706e-09
 88.29193   -145.1 1.324e+04 3.597e-09
 88.31338   -146.3 1.314e+04 2.501e-09
 88.31927   -146.5 1.317e+04 2.479e-09
 88.34072   -146.7 1.332e+04 3.016e-09
 88.37890   -147.1 1.338e+04 2.977e-09
 88.40952   -147.4 1.358e+04 3.256e-09
 88.43097   -147.5 1.364e+04 3.661e-09
 88.46469   -148.0 1.380e+04 4.601e-09
 88.49977   -148.7 1.392e+04 5.545e-09
 88.52121   -148.5 1.392e+04 6.605e-09
 88.55047   -149.4 1.393e+04 6.958e-09
 88.59001   -150.0 1.375e+04 6.737e-09
 88.61146   -149.9 1.361e+04 7.147e-09
 88.63626   -150.1 1.340e+04 5.440e-09
 88.67915   -149.8 1.324e+04 4.030e-09
 88.70170   -149.4 1.316e+04 3.556e-09
 88.72315   -148.7 1.291e+04 3.320e-09
 88.76493   -148.3 1.296e+04 3.292e-09
 88.79195   -148.3 1.317e+04 4.346e-09
 88.81340   -147.4 1.296e+04 3.463e-09
 88.85072   -147.6 1.305e+04 5.131e-09
 88.88219   -147.8 1.316e+04 7.227e-09
 88.90364   -146.6 1.283e+04 4.691e-09
 88.93650   -146.5 1.291e+04 6.175e-09
 88.97244   -146.2 1.300e+04 7.379e-09
 88.99389   -144.4 1.268e+04 5.106e-09
 89.02229   -143.9 1.283e+04 6.627e-09
 89.06269   -143.5 1.302e+04 7.520e-09
 89.08413   -141.6 1.280e+04 6.752e-09
 89.10807   -141.1 1.299e+04 7.937e-09
 89.15096   -141.2 1.304e+04 8.076e-09
 89.17438   -141.5 1.299e+04 7.494e-09
 89.19582   -139.5 1.291e+04 8.027e-09
 89.23675   -139.4 1.286e+04 6.896e-09
 89.26462   -139.1 1.276e+04 5.304e-09
 89.28607   -137.2 1.269e+04 5.727e-09
 89.32253   -136.7 1.260e+04 4.267e-09
 89.35487   -136.2 1.262e+04 3.008e-09
 89.37631   -134.2 1.253e+04 3.412e-09
 89.40831   -133.5 1.254e+04 2.521e-09
 89.44511   -132.5 1.257e+04 1.836e-09
 89.46656   -130.8 1.248e+04 2.187e-09
 89.49410   -129.9 1.254e+04 1.644e-09
 89.53536   -128.8 1.263e+04 1.247e-09
 89.55681   -127.3 1.253e+04 1.479e-09
 89.57988   -126.3 1.264e+04 1.159e-09
 89.62277   -125.2 1.278e+04 9.351e-10
 89.64705   -124.0 1.291e+04 7.898e-10
 89.66850   -122.8 1.282e+04 9.383e-10
 89.70856   -121.6 1.295e+04 8.169e-10
 89.73730   -120.4 1.302e+04 7.627e-10
 89.75874   -119.4 1.300e+04 8.917e-10
 89.79434   -118.3 1.304e+04 8.807e-10
 89.82754   -117.3 1.317e+04 9.175e-10
 89.84899   -116.7 1.319e+04 1.222e-09
 89.88013   -116.0 1.318e+04 1.502e-09
 89.91779   -115.4 1.311e+04 1.851e-09
 89.93923   -115.3 1.322e+04 2.373e-09
 89.96591   -115.0 1.322e+04 2.519e-09
 90.00803   -114.8 1.321e+04 2.546e-09
 90.02948   -114.9 1.334e+04 2.833e-09
 90.05169   -114.5 1.332e+04 2.637e-09
 90.08801   -114.0 1.329e+04 2.378e-09
 90.10946   -115.1 1.327e+04 2.525e-09
 90.11973   -114.6 1.324e+04 2.447e-09
 90.14117   -114.5 1.347e+04 2.049e-09
 90.18037   -114.0 1.349e+04 1.974e-09
 90.20997   -113.7 1.352e+04 1.974e-09
 90.23142   -113.7 1.379e+04 1.446e-09
 90.26615   -114.0 1.381e+04 1.653e-09
 90.30022   -114.4 1.374e+04 1.982e-09
 90.32166   -114.3 1.379e+04 1.925e-09
 90.35194   -114.8 1.376e+04 2.120e-09
 90.39046   -115.3 1.373e+04 2.149e-09
 90.41191   -115.1 1.375e+04 2.100e-09
 90.43772   -115.2 1.361e+04 1.893e-09
 90.48062   -114.9 1.358e+04 1.594e-09
 90.52351   -114.1 1.371e+04 1.189e-09
 90.56640   -113.5 1.373e+04 1.003e-09
 90.59240   -112.8 1.370e+04 8.826e-10
 90.61385   -112.3 1.376e+04 8.718e-10
 90.65218   -111.5 1.372e+04 7.998e-10
 90.68265   -110.6 1.365e+04 7.470e-10
 90.70409   -110.2 1.359e+04 8.674e-10
 90.73797   -109.1 1.349e+04 8.197e-10
 90.77289   -108.0 1.343e+04 7.906e-10
 90.79434   -107.5 1.339e+04 9.761e-10
 90.82375   -106.6 1.330e+04 1.053e-09
 90.86314   -106.1 1.314e+04 1.351e-09
 90.88458   -105.6 1.312e+04 1.720e-09
 90.90954   -105.4 1.296e+04 2.331e-09
 90.95243   -105.4 1.283e+04 2.644e-09
 90.97483   -105.7 1.273e+04 2.660e-09
 90.99627   -105.5 1.267e+04 2.753e-09
 91.03821   -105.4 1.241e+04 2.175e-09
 91.06507   -104.9 1.227e+04 1.452e-09
 91.08652   -104.6 1.221e+04 1.526e-09
 91.12400   -103.7 1.212e+04 1.109e-09
 91.15532   -102.6 1.208e+04 8.746e-10
 91.17677   -102.0 1.201e+04 1.027e-09
 91.20978   -100.8 1.197e+04 8.363e-10
 91.24557    -99.5 1.191e+04 7.144e-10
 91.26701    -98.9 1.189e+04 7.271e-10
 91.29556    -97.5 1.182e+04 6.459e-10
 91.33581    -96.0 1.174e+04 6.082e-10
 91.35726    -95.3 1.181e+04 6.149e-10
 91.38135    -93.6 1.173e+04 5.988e-10
 91.42424    -91.8 1.170e+04 5.954e-10
 91.44750    -90.2 1.170e+04 5.986e-10
 91.46895    -89.4 1.163e+04 6.600e-10
 91.51002    -87.9 1.169e+04 7.006e-10
 91.53775    -86.7 1.162e+04 1.016e-09
 91.55919    -85.6 1.162e+04 1.038e-09
 91.59581    -84.6 1.151e+04 1.665e-09
 91.62799    -83.7 1.153e+04 2.526e-09
 91.64944    -82.6 1.155e+04 2.522e-09
 91.68159    -81.7 1.165e+04 3.438e-09
 91.71824    -81.1 1.172e+04 3.913e-09
 91.73969    -80.1 1.181e+04 3.793e-09
 91.76738    -79.7 1.185e+04 3.945e-09
 91.80849    -79.2 1.180e+04 3.798e-09
 91.82993    -78.4 1.192e+04 4.731e-09
 91.85316    -77.9 1.173e+04 4.263e-09
 91.88409    -77.0 1.150e+04 3.107e-09
 91.90553    -77.0 1.153e+04 2.515e-09
 91.92018    -75.7 1.137e+04 1.853e-09
 91.94162    -74.9 1.135e+04 2.622e-09
 91.98184    -73.7 1.127e+04 1.796e-09
 92.01042    -72.6 1.127e+04 1.489e-09
 92.03187    -71.8 1.127e+04 1.494e-09
 92.06762    -70.6 1.127e+04 1.436e-09
 92.10067    -69.6 1.138e+04 1.535e-09
 92.12211    -68.8 1.143e+04 1.613e-09
 92.15341    -68.0 1.148e+04 2.092e-09
 92.19091    -67.2 1.151e+04 2.475e-09
 92.21236    -66.0 1.162e+04 2.505e-09
 92.23919    -65.2 1.163e+04 2.561e-09
 92.28116    -64.1 1.147e+04 2.325e-09
 92.30261    -62.8 1.151e+04 2.339e-09
 92.32497    -61.3 1.139e+04 1.688e-09
 92.36787    -59.8 1.134e+04 1.200e-09
 92.39285    -58.2 1.131e+04 9.218e-10
 92.41430    -57.0 1.137e+04 1.047e-09
 92.45365    -55.3 1.132e+04 9.076e-10
 92.48310    -53.5 1.130e+04 8.800e-10
 92.50454    -52.4 1.137e+04 1.152e-09
 92.53943    -50.6 1.138e+04 1.155e-09
 92.57334    -48.9 1.138e+04 1.232e-09
 92.59479    -47.9 1.148e+04 1.709e-09
 92.62522    -46.3 1.148e+04 1.714e-09
 92.66359    -44.8 1.150e+04 1.630e-09
 92.68503    -44.0 1.164e+04 2.056e-09
 92.71100    -42.7 1.167e+04 1.896e-09
 92.75383    -41.3 1.171e+04 1.788e-09
 92.79673    -39.2 1.199e+04 2.186e-09
 92.83968    -38.5 1.213e+04 2.147e-09
 92.86543    -38.4 1.216e+04 2.511e-09
 92.87605    -38.3 1.216e+04 2.847e-09
 92.89310    -38.0 1.222e+04 3.619e-09
 92.92536    -37.8 1.232e+04 4.652e-09
 92.95577    -38.0 1.247e+04 6.535e-09
 92.97722    -37.7 1.235e+04 5.886e-09
 93.00043    -38.0 1.238e+04 7.064e-09
 93.01142    -38.4 1.251e+04 8.266e-09
 93.02214    -38.5 1.241e+04 7.993e-09
 93.04322    -38.8 1.253e+04 9.969e-09
 93.05654    -39.1 1.262e+04 1.134e-08
 93.06727    -39.0 1.265e+04 1.213e-08
 93.08611    -39.5 1.270e+04 1.282e-08
 93.10167    -40.2 1.276e+04 1.336e-08
 93.11239    -40.6 1.278e+04 1.453e-08
 93.12900    -41.5 1.281e+04 1.584e-08
 93.14679    -42.4 1.286e+04 1.772e-08
 93.15751    -42.9 1.294e+04 2.028e-08
 93.17190    -43.6 1.292e+04 2.145e-08
 93.19191    -44.3 1.274e+04 2.035e-08
 93.20264    -44.6 1.256e+04 1.863e-08
 93.21479    -45.4 1.221e+04 1.479e-08
 93.23623    -46.3 1.180e+04 1.092e-08
 93.24786    -47.7 1.139e+04 7.858e-09
 93.26940    -49.2 1.098e+04 6.112e-09
 93.31149    -50.4 1.058e+04 4.633e-09
 93.33820    -51.2 1.033e+04 3.963e-09
 93.34882    -51.1 1.005e+04 3.466e-09
 93.36491    -51.2 1.003e+04 3.392e-09
 93.38313    -51.5 9.974e+03 3.330e-09
 93.39385    -51.6 9.958e+03 3.301e-09
 93.40780    -51.8 1.001e+04 3.398e-09
 93.42825    -52.1 1.005e+04 3.592e-09
 93.43897    -52.2 9.876e+03 3.395e-09
 93.45069    -52.4 9.911e+03 3.586e-09
 93.47214    -52.5 9.964e+03 3.779e-09
 93.48410    -52.7 1.004e+04 3.959e-09
 93.49482    -52.9 1.016e+04 4.110e-09
 93.51503    -53.0 1.021e+04 4.239e-09
 93.52922    -53.2 1.023e+04 4.289e-09
 93.53994    -53.5 1.016e+04 4.640e-09
 93.55792    -53.5 1.015e+04 4.687e-09
 93.57434    -53.5 1.009e+04 4.603e-09
 93.58506    -53.5 1.020e+04 5.288e-09
 93.60082    -53.3 1.012e+04 4.898e-09
 93.61946    -53.1 9.997e+03 4.205e-09
 93.63019    -53.0 9.984e+03 4.601e-09
 93.65453    -52.8 9.800e+03 3.404e-09
 93.68016    -51.9 9.549e+03 2.445e-09
 93.70161    -51.4 9.560e+03 2.688e-09
 93.72063    -49.8 9.392e+03 1.817e-09
 93.74207    -49.4 9.311e+03 1.726e-09
 93.78330    -47.8 9.296e+03 1.587e-09
 93.81087    -45.9 9.310e+03 1.593e-09
 93.83232    -45.3 9.282e+03 1.599e-09
 93.86909    -43.7 9.493e+03 1.834e-09
 93.90112    -42.2 9.719e+03 2.345e-09
 93.92257    -42.0 9.754e+03 2.474e-09
 93.95487    -40.7 9.967e+03 3.303e-09
 93.99136    -39.2 1.020e+04 4.145e-09
 94.01281    -39.3 1.049e+04 5.079e-09
 94.04066    -38.0 1.055e+04 5.174e-09
 94.08161    -36.5 1.051e+04 4.408e-09
 94.10296    -36.6 1.052e+04 3.853e-09
 94.11552    -35.8 1.050e+04 3.195e-09
 94.13697    -35.0 1.048e+04 2.789e-09
 94.14798    -34.3 1.047e+04 2.552e-09
 94.15871    -34.6 1.054e+04 2.621e-09
 94.17986    -33.7 1.053e+04 2.559e-09
 94.19311    -32.8 1.065e+04 2.606e-09
 94.20383    -33.2 1.072e+04 2.998e-09
 94.22275    -32.7 1.083e+04 3.415e-09
 94.23823    -32.1 1.090e+04 4.080e-09
 94.24895    -32.5 1.099e+04 4.977e-09
 94.26564    -31.9 1.121e+04 6.163e-09
 94.28335    -31.6 1.155e+04 7.730e-09
 94.29408    -32.7 1.190e+04 1.082e-08
 94.30854    -33.0 1.225e+04 1.389e-08
 94.32848    -33.4 1.255e+04 1.770e-08
 94.33920    -34.4 1.284e+04 2.337e-08
 94.35143    -34.7 1.312e+04 2.537e-08
 94.37287    -35.5 1.338e+04 2.639e-08
 94.38432    -36.8 1.369e+04 2.737e-08
 94.39504    -38.4 1.323e+04 2.355e-08
 94.41577    -39.8 1.322e+04 2.347e-08
 94.42944    -41.2 1.316e+04 2.208e-08
 94.44017    -42.6 1.303e+04 1.558e-08
 94.45866    -44.1 1.278e+04 1.295e-08
 94.47457    -45.3 1.244e+04 1.178e-08
 94.48529    -45.6 1.235e+04 1.254e-08
 94.50155    -45.9 1.232e+04 1.239e-08
 94.51969    -46.1 1.252e+04 1.271e-08
 94.53041    -46.9 1.299e+04 1.426e-08
 94.54444    -48.5 1.356e+04 1.968e-08
 94.56481    -49.5 1.388e+04 3.214e-08
 94.57554    -49.8 1.409e+04 4.368e-08
 94.57800    -49.7 1.461e+04 5.390e-08
 94.58873    -49.6 1.429e+04 4.482e-08
 94.60878    -49.7 1.445e+04 4.662e-08
 94.62066    -49.6 1.422e+04 3.226e-08
 94.63138    -50.6 1.360e+04 1.770e-08
 94.65167    -51.2 1.320e+04 8.081e-09
 94.66578    -52.0 1.298e+04 4.358e-09
 94.67650    -53.0 1.260e+04 3.654e-09
 94.69456    -52.6 1.250e+04 2.911e-09
 94.71090    -51.9 1.255e+04 2.599e-09
 94.72163    -52.0 1.249e+04 2.706e-09
 94.73746    -51.0 1.247e+04 2.597e-09
 94.75603    -49.9 1.249e+04 2.595e-09
 94.77757    -49.4 1.255e+04 2.747e-09
 94.81271    -47.5 1.272e+04 2.794e-09
 94.84647    -45.5 1.283e+04 2.859e-09
 94.86791    -45.6 1.277e+04 2.793e-09
 94.89850    -43.4 1.294e+04 2.740e-09
 94.93671    -41.2 1.313e+04 2.693e-09
 94.95816    -41.0 1.292e+04 2.829e-09
 94.98428    -39.0 1.318e+04 2.921e-09
 95.02696    -37.0 1.338e+04 3.098e-09
 95.04831    -36.6 1.329e+04 3.629e-09
 95.05915    -35.4 1.336e+04 3.973e-09
 95.08059    -34.7 1.345e+04 4.206e-09
 95.09333    -33.7 1.362e+04 4.431e-09
 95.10406    -33.7 1.368e+04 4.793e-09
 95.12348    -32.9 1.381e+04 4.834e-09
 95.13846    -32.1 1.390e+04 4.822e-09
 95.14918    -32.4 1.353e+04 4.685e-09
 95.16638    -31.9 1.344e+04 4.378e-09
 95.18358    -30.3 1.357e+04 3.700e-09
 95.19430    -30.4 1.362e+04 3.702e-09
 95.20927    -30.1 1.361e+04 3.602e-09
 95.22870    -29.0 1.370e+04 3.388e-09
 95.25024    -29.2 1.349e+04 3.595e-09
 95.27370    -28.0 1.375e+04 4.732e-09
 95.28455    -28.0 1.373e+04 5.093e-09
 95.29527    -28.3 1.390e+04 5.492e-09
 95.31650    -27.8 1.432e+04 1.122e-08
 95.32967    -28.4 1.416e+04 1.548e-08
 95.34049    -28.6 1.409e+04 1.877e-08
 95.35949    -28.4 1.476e+04 4.455e-08
 95.37479    -27.8 1.543e+04 6.988e-08
 95.38552    -27.9 1.530e+04 6.431e-08
 95.40228    -28.1 1.549e+04 7.107e-08
 95.41992    -28.5 1.520e+04 6.350e-08
 95.43064    -29.1 1.465e+04 4.167e-08
 95.44518    -29.4 1.450e+04 4.325e-08
 95.46504    -29.3 1.440e+04 4.195e-08
 95.47446    -29.1 1.400e+04 2.616e-08
 95.47604    -29.0 1.416e+04 3.351e-08
 95.48807    -28.8 1.407e+04 3.157e-08
 95.50951    -28.6 1.405e+04 2.588e-08
 95.52088    -28.5 1.399e+04 1.986e-08
 95.54243    -28.7 1.352e+04 1.455e-08
 95.58477    -28.6 1.318e+04 1.018e-08
 95.61132    -28.0 1.295e+04 6.798e-09
 95.63277    -27.5 1.267e+04 4.704e-09
 95.67055    -26.6 1.259e+04 3.550e-09
 95.70157    -25.4 1.247e+04 2.945e-09
 95.72302    -24.2 1.234e+04 2.133e-09
 95.75634    -22.9 1.222e+04 1.988e-09
 95.79182    -21.5 1.210e+04 2.010e-09
 95.81326    -20.1 1.206e+04 1.874e-09
 95.84212    -18.6 1.192e+04 2.059e-09
 95.88206    -17.0 1.183e+04 2.120e-09
 95.90351    -16.0 1.188e+04 2.076e-09
 95.92791    -14.4 1.165e+04 1.892e-09
 95.97080    -12.5 1.160e+04 1.416e-09
 95.99375    -10.8 1.152e+04 1.115e-09
 96.01520     -9.6 1.141e+04 1.063e-09
 96.05658     -7.6 1.131e+04 8.849e-10
 96.08400     -5.2 1.125e+04 7.898e-10
 96.10544     -4.0 1.120e+04 6.601e-10
 96.14237     -1.5 1.126e+04 5.197e-10
 96.17424      0.9 1.143e+04 4.087e-10
 96.19569      2.1 1.118e+04 4.103e-10
 96.22815      4.2 1.130e+04 3.471e-10
 96.26449      6.3 1.131e+04 3.690e-10
 96.28594      7.4 1.120e+04 4.370e-10
 96.31393      9.6 1.125e+04 5.105e-10
 96.35474     11.8 1.130e+04 6.404e-10
 96.37618     13.1 1.124e+04 6.757e-10
 96.39972     15.1 1.123e+04 7.247e-10
 96.44261     17.3 1.121e+04 6.992e-10
 96.46643     19.7 1.122e+04 5.812e-10
 96.48787     20.7 1.114e+04 5.413e-10
 96.52839     23.0 1.123e+04 3.905e-10
 96.55667     25.1 1.125e+04 3.228e-10
 96.57812     26.2 1.123e+04 2.811e-10
 96.61418     28.5 1.124e+04 2.568e-10
 96.64692     30.9 1.126e+04 2.654e-10
 96.66836     31.9 1.119e+04 2.304e-10
 96.69996     34.2 1.125e+04 2.432e-10
 96.73716     36.4 1.132e+04 2.965e-10
 96.75861     37.4 1.117e+04 2.842e-10
 96.78575     39.6 1.116e+04 3.699e-10
 96.82741     42.1 1.117e+04 4.745e-10
 96.84886     43.2 1.114e+04 4.792e-10
 96.87153     45.7 1.123e+04 5.293e-10
 96.91442     48.0 1.126e+04 5.219e-10
 96.93910     50.6 1.130e+04 4.696e-10
 96.96055     51.6 1.125e+04 4.511e-10
 97.00021     54.2 1.130e+04 3.498e-10
 97.02935     56.7 1.139e+04 2.576e-10
 97.05079     57.6 1.135e+04 2.684e-10
 97.08599     60.0 1.144e+04 2.164e-10
 97.11959     62.5 1.145e+04 1.990e-10
 97.14104     63.5 1.137e+04 2.535e-10
 97.17178     66.2 1.137e+04 2.537e-10
 97.20984     68.9 1.141e+04 2.563e-10
 97.23128     69.8 1.137e+04 3.392e-10
 97.25087     72.5 1.142e+04 3.580e-10
 97.27231     72.3 1.137e+04 3.374e-10
 97.30008     75.0 1.141e+04 3.634e-10
 97.32153     75.6 1.139e+04 4.961e-10
 97.34334     78.1 1.144e+04 5.580e-10
 97.38624     80.6 1.151e+04 6.343e-10
 97.41178     83.1 1.160e+04 7.183e-10
 97.43322     83.6 1.161e+04 9.145e-10
 97.47202     86.0 1.160e+04 9.755e-10
 97.50202     88.3 1.156e+04 9.863e-10
 97.52347     88.4 1.152e+04 9.801e-10
 97.55780     90.6 1.139e+04 9.563e-10
 97.59227     92.7 1.128e+04 8.790e-10
 97.61371     93.0 1.118e+04 7.798e-10
 97.64359     95.2 1.110e+04 7.078e-10
 97.68251     97.4 1.099e+04 6.851e-10
 97.70396     97.9 1.102e+04 6.261e-10
 97.72937    100.2 1.102e+04 6.478e-10
 97.77226    102.6 1.098e+04 7.321e-10
 97.79420    105.0 1.092e+04 8.825e-10
 97.81565    105.6 1.084e+04 8.217e-10
 97.85805    108.1 1.080e+04 1.021e-09
 97.88445    110.5 1.079e+04 1.271e-09
 97.90590    111.2 1.069e+04 1.153e-09
 97.94383    113.7 1.071e+04 1.455e-09
 97.97470    116.2 1.077e+04 1.837e-09
 97.99614    116.8 1.068e+04 1.735e-09
 98.02962    119.3 1.079e+04 2.282e-09
 98.06494    121.7 1.094e+04 3.025e-09
 98.08639    122.2 1.087e+04 2.808e-09
 98.11540    124.4 1.108e+04 3.769e-09
 98.15519    126.4 1.132e+04 4.748e-09
 98.17663    126.7 1.108e+04 3.680e-09
 98.20118    128.5 1.119e+04 4.175e-09
 98.24408    130.1 1.119e+04 4.185e-09
 98.26688    131.7 1.113e+04 4.071e-09
 98.28832    132.5 1.093e+04 3.008e-09
 98.32986    134.2 1.086e+04 2.931e-09
 98.35712    135.8 1.071e+04 2.654e-09
 98.37857    137.0 1.071e+04 2.412e-09
 98.41565    138.7 1.054e+04 2.208e-09
 98.44737    140.5 1.036e+04 1.744e-09
 98.46882    141.8 1.043e+04 1.999e-09
 98.50143    143.5 1.027e+04 1.509e-09
 98.53762    145.3 1.013e+04 1.098e-09
 98.55906    146.6 1.025e+04 1.485e-09
 98.58721    148.3 1.007e+04 1.106e-09
 98.62786    150.1 9.951e+03 9.932e-10
 98.64931    151.0 1.017e+04 1.282e-09
 98.67300    152.7 9.975e+03 1.166e-09
 98.71589    154.5 9.959e+03 1.189e-09
 98.73955    156.4 9.914e+03 1.318e-09
 98.76100    156.8 9.935e+03 1.535e-09
 98.80167    158.7 9.851e+03 1.671e-09
 98.82980    160.5 9.832e+03 2.044e-09
 98.85124    161.0 9.902e+03 2.220e-09
 98.88746    162.6 9.978e+03 2.780e-09
 98.92004    163.7 1.007e+04 3.415e-09
 98.94149    163.7 1.013e+04 3.652e-09
 98.97324    164.0 1.010e+04 3.623e-09
 99.01029    164.1 9.951e+03 3.356e-09
 99.03174    163.8 1.004e+04 3.400e-09
 99.04694    164.1 9.812e+03 2.803e-09
 99.06839    163.9 1.030e+04 4.239e-09
 99.10054    164.1 1.003e+04 3.465e-09
 99.12198    163.4 1.064e+04 5.938e-09
 99.14481    164.2 1.031e+04 5.023e-09
 99.18770    165.4 9.975e+03 4.234e-09
 99.21223    166.9 9.703e+03 3.631e-09
 99.23367    166.5 9.799e+03 4.077e-09
 99.27349    168.2 9.557e+03 3.430e-09
 99.30247    169.8 9.399e+03 3.033e-09
 99.32392    169.5 9.389e+03 3.198e-09
 99.35927    171.1 9.223e+03 3.160e-09
 99.39272    172.7 9.205e+03 3.168e-09
 99.41416    172.4 9.188e+03 3.472e-09
 99.44505    173.8 9.158e+03 3.456e-09
 99.48296    175.1 9.122e+03 3.383e-09
 99.50441    174.4 9.033e+03 3.231e-09
 99.53084    175.6 8.897e+03 2.951e-09
 99.57321    176.9 8.830e+03 2.825e-09
 99.59466    175.9 8.585e+03 2.502e-09
 99.61662    177.2 8.614e+03 2.550e-09
 99.65951    178.5 8.757e+03 2.796e-09
 99.68490    179.2 8.881e+03 3.108e-09
 99.69553    177.6 8.754e+03 2.919e-09
 99.71293    178.4 8.808e+03 3.145e-09
 99.72983    179.2 8.941e+03 3.624e-09
 99.74055    178.5 8.983e+03 3.788e-09
 99.75583    179.0 9.256e+03 4.682e-09
 99.77495    179.2 9.596e+03 5.886e-09
 99.78567    177.9 9.915e+03 7.312e-09
 99.79872    178.0 1.037e+04 9.674e-09
 99.82007    177.9 1.086e+04 1.265e-08
 99.84152    174.8 1.256e+04 2.527e-08
 99.86306    173.9 1.337e+04 3.340e-08
 99.87592    173.0 1.396e+04 4.091e-08
 99.88664    170.3 1.432e+04 4.974e-08
 99.90595    169.5 1.419e+04 4.740e-08
 99.92104    168.8 1.383e+04 4.155e-08
 99.93177    166.7 1.321e+04 2.889e-08
 99.94479    165.7 1.276e+04 2.136e-08
 99.95551    165.6 1.283e+04 2.080e-08
 99.96617    164.5 1.240e+04 1.677e-08
 99.97689    161.2 1.205e+04 1.687e-08
 99.99173    161.3 1.204e+04 1.744e-08
