# Columns:
#   distance along LOS (in CHIMPs)
#   peculiar velocity  (in km/s)
#   temperature (K)
#   HI number density
# pos=(230.832,24.4444,135.999), angles=(1.55604,2.81213)
  0.00683    -37.7 1.374e+04 5.234e-09
  0.01453    -37.2 1.379e+04 7.233e-09
  0.02121    -36.8 1.382e+04 6.336e-09
  0.03068    -36.6 1.376e+04 6.514e-09
  0.04464    -36.1 1.384e+04 8.784e-09
  0.06528    -35.7 1.392e+04 1.084e-08
  0.08151    -35.4 1.393e+04 1.208e-08
  0.09183    -35.3 1.382e+04 1.233e-08
  0.10657    -34.9 1.384e+04 1.273e-08
  0.12721    -34.2 1.383e+04 1.272e-08
  0.14266    -33.4 1.381e+04 1.260e-08
  0.15299    -32.9 1.360e+04 1.194e-08
  0.16850    -32.2 1.367e+04 1.190e-08
  0.18914    -31.9 1.405e+04 1.246e-08
  0.20382    -32.3 1.459e+04 1.827e-08
  0.21414    -32.8 1.473e+04 2.161e-08
  0.23043    -33.0 1.550e+04 4.606e-08
  0.25107    -32.9 1.628e+04 7.934e-08
  0.26492    -33.2 1.652e+04 8.916e-08
  0.27524    -34.1 1.689e+04 1.041e-07
  0.29236    -35.7 1.673e+04 1.016e-07
  0.31300    -36.2 1.597e+04 7.223e-08
  0.32612    -36.3 1.527e+04 4.780e-08
  0.33644    -36.5 1.464e+04 3.150e-08
  0.35429    -36.6 1.424e+04 2.200e-08
  0.37493    -36.5 1.395e+04 1.627e-08
  0.38728    -35.9 1.367e+04 1.266e-08
  0.39760    -35.8 1.336e+04 8.370e-09
  0.41622    -35.1 1.330e+04 7.294e-09
  0.43687    -34.4 1.328e+04 6.687e-09
  0.44843    -33.8 1.326e+04 6.505e-09
  0.45875    -33.5 1.302e+04 4.892e-09
  0.47815    -32.7 1.305e+04 4.978e-09
  0.49880    -32.0 1.316e+04 5.272e-09
  0.50958    -31.3 1.334e+04 5.674e-09
  0.51990    -30.7 1.319e+04 4.445e-09
  0.54008    -30.1 1.330e+04 4.809e-09
  0.56041    -29.7 1.342e+04 5.228e-09
  0.57073    -29.0 1.324e+04 4.353e-09
  0.58137    -28.6 1.331e+04 4.821e-09
  0.60201    -28.3 1.342e+04 5.285e-09
  0.62156    -28.0 1.355e+04 5.777e-09
  0.63189    -27.2 1.330e+04 5.579e-09
  0.64330    -27.0 1.353e+04 5.872e-09
  0.66395    -26.8 1.358e+04 6.006e-09
  0.69501    -26.2 1.357e+04 5.971e-09
  0.73374    -25.4 1.364e+04 5.225e-09
  0.75439    -23.7 1.340e+04 4.927e-09
  0.77768    -22.9 1.343e+04 3.846e-09
  0.81897    -21.5 1.346e+04 2.978e-09
  0.85605    -19.8 1.355e+04 2.526e-09
  0.87660    -18.8 1.349e+04 2.678e-09
  0.90145    -17.0 1.361e+04 2.612e-09
  0.94283    -15.2 1.354e+04 2.422e-09
  0.97836    -13.1 1.359e+04 2.329e-09
  0.99900    -12.4 1.352e+04 2.871e-09
  1.02541    -10.4 1.344e+04 2.483e-09
  1.06669     -8.4 1.332e+04 2.278e-09
  1.10066     -6.3 1.327e+04 2.271e-09
  1.12131     -5.8 1.310e+04 2.488e-09
  1.14927     -3.8 1.322e+04 2.598e-09
  1.17204     -2.3 1.325e+04 2.731e-09
  1.18226     -2.2 1.313e+04 2.768e-09
  1.20068     -1.9 1.307e+04 2.896e-09
  1.22132     -0.7 1.309e+04 3.566e-09
  1.23309     -0.6 1.306e+04 3.696e-09
  1.24351     -0.2 1.288e+04 3.835e-09
  1.27313      1.5 1.283e+04 4.617e-09
  1.31442      2.9 1.281e+04 4.931e-09
  1.34527      4.0 1.285e+04 4.777e-09
  1.36592      4.7 1.286e+04 4.882e-09
  1.38657      5.1 1.272e+04 4.408e-09
  1.40623      5.2 1.261e+04 4.065e-09
  1.41655      5.6 1.261e+04 4.126e-09
  1.42776      5.9 1.258e+04 3.864e-09
  1.44841      6.2 1.255e+04 3.651e-09
  1.46738      6.5 1.254e+04 3.478e-09
  1.47771      6.7 1.254e+04 3.567e-09
  1.48969      6.8 1.255e+04 3.503e-09
  1.52076      7.1 1.259e+04 3.880e-09
  1.56214      8.0 1.244e+04 3.607e-09
  1.58988      9.2 1.225e+04 3.095e-09
  1.61053      9.5 1.222e+04 3.495e-09
  1.64472     11.1 1.209e+04 2.537e-09
  1.68600     12.7 1.204e+04 1.891e-09
  1.71219     14.5 1.200e+04 1.638e-09
  1.73283     15.1 1.195e+04 1.837e-09
  1.76858     17.3 1.199e+04 1.740e-09
  1.80986     19.4 1.221e+04 1.782e-09
  1.83450     21.2 1.245e+04 2.360e-09
  1.84472     21.5 1.254e+04 2.336e-09
  1.86128     21.5 1.249e+04 2.401e-09
  1.88192     22.4 1.268e+04 3.316e-09
  1.89545     22.6 1.272e+04 4.378e-09
  1.90578     22.6 1.275e+04 4.273e-09
  1.92321     23.0 1.294e+04 5.624e-09
  1.94385     23.2 1.324e+04 7.438e-09
  1.95661     23.3 1.365e+04 1.017e-08
  1.96693     23.2 1.351e+04 8.674e-09
  1.98514     22.7 1.359e+04 1.117e-08
  2.00578     22.6 1.381e+04 1.457e-08
  2.01776     22.2 1.392e+04 1.603e-08
  2.02808     22.2 1.364e+04 1.216e-08
  2.04707     21.6 1.371e+04 1.173e-08
  2.06772     20.5 1.348e+04 9.633e-09
  2.07891     19.5 1.336e+04 8.849e-09
  2.08923     19.7 1.318e+04 6.425e-09
  2.10900     19.2 1.309e+04 6.499e-09
  2.12965     18.9 1.302e+04 6.706e-09
  2.15029     19.0 1.285e+04 5.595e-09
  2.17093     18.4 1.303e+04 6.113e-09
  2.19090     16.8 1.352e+04 8.047e-09
  2.20122     17.3 1.326e+04 7.418e-09
  2.21222     15.4 1.356e+04 1.279e-08
  2.23286     14.4 1.382e+04 2.185e-08
  2.25205     13.9 1.399e+04 2.760e-08
  2.26237     14.5 1.369e+04 2.346e-08
  2.27415     13.8 1.357e+04 2.282e-08
  2.29480     13.0 1.314e+04 1.491e-08
  2.31320     11.7 1.269e+04 8.747e-09
  2.32352     12.2 1.260e+04 8.504e-09
  2.33608     11.1 1.225e+04 6.263e-09
  2.35673     10.8 1.199e+04 5.151e-09
  2.37436     10.7 1.177e+04 4.214e-09
  2.38468     11.1 1.181e+04 4.359e-09
  2.39801     11.0 1.159e+04 3.564e-09
  2.42528     10.5 1.138e+04 2.559e-09
  2.44593     11.4 1.126e+04 2.778e-09
  2.45995     11.6 1.119e+04 2.474e-09
  2.48059     11.7 1.120e+04 2.408e-09
  2.49666     11.9 1.127e+04 2.376e-09
  2.50698     12.2 1.125e+04 2.702e-09
  2.52188     11.6 1.147e+04 3.153e-09
  2.54252     11.0 1.162e+04 4.340e-09
  2.55781     10.6 1.173e+04 6.032e-09
  2.56814     11.0 1.174e+04 6.311e-09
  2.58381     10.7 1.187e+04 7.623e-09
  2.60445     10.5 1.194e+04 8.306e-09
  2.61897     10.2 1.193e+04 8.298e-09
  2.62929     10.4 1.181e+04 7.465e-09
  2.64574     10.1 1.174e+04 6.456e-09
  2.65922      9.5 1.166e+04 5.314e-09
  2.66954      9.3 1.185e+04 6.768e-09
  2.68012      8.7 1.165e+04 5.550e-09
  2.69044      8.8 1.162e+04 5.522e-09
  2.70767      8.5 1.142e+04 4.816e-09
  2.72831      8.4 1.131e+04 4.125e-09
  2.74127      8.5 1.128e+04 3.245e-09
  2.75159      8.6 1.120e+04 3.491e-09
  2.76960      8.6 1.118e+04 2.758e-09
  2.79220      9.0 1.106e+04 2.250e-09
  2.81294      9.1 1.106e+04 2.466e-09
  2.84205     10.5 1.086e+04 2.179e-09
  2.88334     12.4 1.086e+04 2.140e-09
  2.91420     13.7 1.118e+04 2.314e-09
  2.92473     13.6 1.116e+04 2.504e-09
  2.93505     13.2 1.112e+04 3.008e-09
  2.95539     13.3 1.145e+04 3.918e-09
  2.97556     13.0 1.204e+04 5.963e-09
  2.98588     11.5 1.266e+04 8.549e-09
  2.99668     10.8 1.358e+04 1.643e-08
  3.01732     10.2 1.450e+04 2.920e-08
  3.03672      9.6 1.532e+04 4.493e-08
  3.04704      7.7 1.601e+04 6.382e-08
  3.05861      6.8 1.646e+04 7.727e-08
  3.07926      5.7 1.672e+04 8.399e-08
  3.09787      4.4 1.680e+04 8.534e-08
  3.10819      1.8 1.702e+04 8.896e-08
  3.12054     -0.3 1.730e+04 9.548e-08
  3.14119     -2.4 1.759e+04 1.080e-07
  3.15902     -4.4 1.778e+04 1.298e-07
  3.16934     -7.2 1.800e+04 1.689e-07
  3.18247     -8.4 1.777e+04 1.494e-07
  3.20312     -9.3 1.735e+04 1.158e-07
  3.22017    -10.4 1.673e+04 7.489e-08
  3.23050    -13.5 1.552e+04 3.511e-08
  3.24440    -15.6 1.427e+04 2.173e-08
  3.26505    -17.3 1.343e+04 1.825e-08
  3.28133    -18.1 1.312e+04 1.809e-08
  3.29165    -19.3 1.229e+04 1.278e-08
  3.30634    -18.9 1.241e+04 1.344e-08
  3.32698    -18.5 1.251e+04 1.342e-08
  3.34248    -18.3 1.252e+04 1.253e-08
  3.35280    -19.5 1.183e+04 7.554e-09
  3.36827    -19.3 1.187e+04 7.440e-09
  3.38891    -19.1 1.180e+04 6.898e-09
  3.40373    -18.2 1.189e+04 6.686e-09
  3.42447    -18.5 1.086e+04 3.306e-09
  3.46136    -17.3 1.090e+04 2.784e-09
  3.50265    -15.9 1.090e+04 2.490e-09
  3.52613    -14.3 1.095e+04 2.393e-09
  3.54678    -14.4 1.046e+04 1.621e-09
  3.58522    -12.6 1.062e+04 1.821e-09
  3.62651    -10.8 1.077e+04 1.960e-09
  3.64844     -9.0 1.091e+04 2.051e-09
  3.66908     -8.5 1.081e+04 2.012e-09
  3.70908     -6.9 1.115e+04 2.261e-09
  3.75010     -5.7 1.153e+04 3.234e-09
  3.77075     -6.0 1.165e+04 4.120e-09
  3.79166     -5.1 1.232e+04 8.168e-09
  3.83294     -4.7 1.301e+04 1.369e-08
  3.86381     -4.7 1.335e+04 1.694e-08
  3.88253     -4.8 1.350e+04 1.837e-08
  3.89295     -5.6 1.305e+04 1.399e-08
  3.91552     -6.0 1.291e+04 1.180e-08
  3.95681     -6.6 1.252e+04 8.608e-09
  3.99471     -7.0 1.214e+04 6.651e-09
  4.01536     -6.4 1.173e+04 5.086e-09
  4.03938     -5.9 1.152e+04 4.377e-09
  4.08067     -5.4 1.142e+04 3.854e-09
  4.11702     -4.9 1.134e+04 3.685e-09
  4.13766     -4.0 1.102e+04 2.871e-09
  4.16324     -3.1 1.095e+04 2.953e-09
  4.20453     -2.0 1.093e+04 3.119e-09
  4.23932     -0.8 1.091e+04 3.078e-09
  4.25997      0.2 1.061e+04 2.901e-09
  4.28711      1.6 1.047e+04 2.645e-09
  4.32839      3.3 1.041e+04 2.534e-09
  4.35926      4.4 1.052e+04 2.755e-09
  4.37176      3.4 1.126e+04 2.839e-09
  4.38208      4.2 1.058e+04 2.809e-09
  4.40045     -4.3 1.934e+04 6.091e-09
  4.42109    -17.3 1.957e+04 7.237e-08
  4.43286    -19.6 1.813e+04 3.336e-07
  4.43797    -19.6 1.826e+04 2.858e-07
  4.44680    -20.0 1.811e+04 6.524e-07
  4.45712    -19.9 1.858e+04 8.462e-07
  4.46339    -22.8 1.942e+04 7.576e-07
  4.46855    -21.0 1.888e+04 9.924e-07
  4.47777    -28.2 2.065e+04 3.738e-07
  4.48809    -40.0 1.855e+04 4.528e-08
  4.49396    -48.2 1.314e+04 1.738e-08
  4.49913    -47.3 1.421e+04 1.984e-08
  4.50873    -50.2 1.207e+04 1.427e-08
  4.52426    -51.2 1.176e+04 1.294e-08
  4.54489    -53.1 1.150e+04 1.115e-08
  4.56554    -55.3 1.135e+04 1.100e-08
  4.58624    -57.0 1.124e+04 1.083e-08
  4.60605    -58.1 1.123e+04 1.141e-08
  4.61637    -58.1 1.142e+04 1.279e-08
  4.62753    -59.3 1.146e+04 1.291e-08
  4.64817    -60.6 1.146e+04 1.223e-08
  4.66720    -62.2 1.143e+04 1.155e-08
  4.67752    -62.7 1.153e+04 1.193e-08
  4.68946    -64.6 1.147e+04 1.116e-08
  4.71011    -66.4 1.136e+04 1.032e-08
  4.72835    -68.1 1.121e+04 9.337e-09
  4.73867    -69.0 1.126e+04 9.940e-09
  4.75139    -70.6 1.102e+04 8.356e-09
  4.77204    -72.1 1.071e+04 6.568e-09
  4.78951    -73.6 1.039e+04 5.061e-09
  4.79983    -74.7 1.026e+04 4.737e-09
  4.81332    -76.3 1.001e+04 3.817e-09
  4.83397    -77.7 9.921e+03 3.396e-09
  4.85066    -78.8 9.899e+03 3.175e-09
  4.86098    -79.7 9.781e+03 2.915e-09
  4.87526    -80.3 9.709e+03 2.680e-09
  4.90632    -80.6 9.612e+03 2.486e-09
  4.94770    -80.4 9.432e+03 2.263e-09
  4.97316    -80.0 9.390e+03 2.237e-09
  4.99380    -80.6 9.315e+03 2.097e-09
  5.03028    -79.6 9.462e+03 2.250e-09
  5.07157    -78.3 9.626e+03 2.481e-09
  5.09547    -76.8 9.743e+03 2.563e-09
  5.11611    -77.0 9.801e+03 2.801e-09
  5.15414    -75.2 9.840e+03 2.834e-09
  5.19543    -73.4 9.965e+03 2.669e-09
  5.21777    -71.5 1.001e+04 2.366e-09
  5.23841    -71.6 1.008e+04 2.544e-09
  5.27800    -69.8 1.015e+04 2.344e-09
  5.30411    -67.7 1.015e+04 2.192e-09
  5.32475    -69.0 1.035e+04 2.767e-09
  5.36058    -67.7 1.049e+04 3.172e-09
  5.40186    -65.2 1.058e+04 3.360e-09
  5.44174    -63.1 1.080e+04 3.702e-09
  5.46238    -63.9 1.100e+04 4.265e-09
  5.48444    -62.0 1.106e+04 4.295e-09
  5.52573    -60.1 1.113e+04 4.204e-09
  5.56404    -58.2 1.112e+04 3.828e-09
  5.58469    -59.0 1.122e+04 4.137e-09
  5.60830    -57.0 1.113e+04 3.448e-09
  5.64959    -54.9 1.110e+04 2.899e-09
  5.68635    -52.7 1.112e+04 2.531e-09
  5.70699    -53.5 1.115e+04 3.322e-09
  5.73216    -51.4 1.117e+04 3.244e-09
  5.77345    -49.5 1.134e+04 3.629e-09
  5.80866    -47.7 1.150e+04 4.632e-09
  5.82930    -48.4 1.195e+04 8.132e-09
  5.84561    -46.3 1.187e+04 7.542e-09
  5.86615    -45.9 1.207e+04 8.240e-09
  5.87994    -44.9 1.238e+04 9.565e-09
  5.89026    -46.3 1.303e+04 1.454e-08
  5.90744    -46.1 1.340e+04 1.824e-08
  5.92808    -45.8 1.377e+04 2.303e-08
  5.94109    -45.7 1.406e+04 2.710e-08
  5.95141    -47.2 1.454e+04 3.965e-08
  5.96937    -47.4 1.467e+04 4.214e-08
  5.99001    -47.8 1.466e+04 4.222e-08
  6.00224    -48.1 1.440e+04 3.751e-08
  6.01256    -49.9 1.432e+04 3.671e-08
  6.03130    -50.2 1.383e+04 2.894e-08
  6.05194    -50.4 1.331e+04 2.193e-08
  6.06339    -50.7 1.281e+04 1.667e-08
  6.07372    -51.9 1.204e+04 1.153e-08
  6.10365    -51.9 1.158e+04 8.920e-09
  6.14504    -50.6 1.115e+04 6.408e-09
  6.17557    -49.2 1.077e+04 4.431e-09
  6.19622    -49.6 1.041e+04 2.956e-09
  6.22761    -48.1 1.033e+04 2.460e-09
  6.26890    -46.4 1.031e+04 2.187e-09
  6.29788    -44.5 1.038e+04 1.893e-09
  6.31852    -44.4 1.044e+04 2.148e-09
  6.35147    -42.5 1.051e+04 2.052e-09
  6.39276    -40.4 1.061e+04 2.010e-09
  6.42018    -38.4 1.070e+04 1.949e-09
  6.44083    -38.6 1.080e+04 2.337e-09
  6.47534    -36.5 1.074e+04 2.250e-09
  6.51662    -34.3 1.072e+04 2.037e-09
  6.54249    -32.1 1.071e+04 1.700e-09
  6.56313    -32.3 1.063e+04 1.894e-09
  6.59920    -30.1 1.061e+04 1.746e-09
  6.64048    -27.9 1.060e+04 1.577e-09
  6.66480    -25.7 1.060e+04 1.394e-09
  6.68544    -26.0 1.054e+04 1.581e-09
  6.72306    -23.7 1.053e+04 1.381e-09
  6.76435    -21.3 1.053e+04 1.179e-09
  6.78710    -18.8 1.056e+04 1.064e-09
  6.80775    -19.4 1.052e+04 1.128e-09
  6.84692    -17.0 1.055e+04 1.106e-09
  6.88821    -15.0 1.073e+04 1.200e-09
  6.90941    -13.3 1.085e+04 1.694e-09
  6.93005    -14.3 1.087e+04 2.446e-09
  6.97078    -12.6 1.111e+04 3.320e-09
  7.01107    -11.1 1.131e+04 3.904e-09
  7.03171    -12.2 1.136e+04 4.604e-09
  7.05336    -11.1 1.139e+04 4.102e-09
  7.09465    -10.2 1.139e+04 3.762e-09
  7.13338     -9.1 1.142e+04 3.683e-09
  7.15402     -9.4 1.132e+04 4.067e-09
  7.17722     -7.9 1.144e+04 4.432e-09
  7.21851     -6.3 1.148e+04 4.536e-09
  7.25568     -4.7 1.139e+04 3.779e-09
  7.27633     -4.4 1.138e+04 4.386e-09
  7.30108     -2.4 1.129e+04 3.315e-09
  7.34237     -0.5 1.123e+04 2.256e-09
  7.37799      1.3 1.118e+04 1.822e-09
  7.39863      2.2 1.112e+04 1.984e-09
  7.42494      4.1 1.113e+04 1.803e-09
  7.46623      6.0 1.132e+04 1.935e-09
  7.50029      7.4 1.151e+04 2.377e-09
  7.52094      8.4 1.151e+04 2.350e-09
  7.53839      9.4 1.155e+04 3.127e-09
  7.55893      9.9 1.166e+04 3.462e-09
  7.57157     11.1 1.185e+04 4.041e-09
  7.58189     11.5 1.187e+04 4.394e-09
  7.60022     12.4 1.203e+04 4.561e-09
  7.62086     13.2 1.215e+04 4.628e-09
  7.63273     13.7 1.237e+04 4.582e-09
  7.64305     14.0 1.247e+04 5.407e-09
  7.66215     14.0 1.271e+04 5.985e-09
  7.68280     13.7 1.285e+04 8.012e-09
  7.69388     13.7 1.307e+04 1.197e-08
  7.70420     14.1 1.325e+04 1.469e-08
  7.72408     14.3 1.362e+04 2.061e-08
  7.74471     14.9 1.385e+04 2.441e-08
  7.76535     14.7 1.422e+04 2.629e-08
  7.78601     14.7 1.427e+04 1.951e-08
  7.80586     14.2 1.412e+04 1.450e-08
  7.81618     14.2 1.446e+04 2.184e-08
  7.82730     14.0 1.443e+04 1.621e-08
  7.84794     13.7 1.433e+04 1.253e-08
  7.86702     13.7 1.416e+04 1.065e-08
  7.87734     13.2 1.424e+04 1.139e-08
  7.88923     13.7 1.407e+04 9.608e-09
  7.90988     14.5 1.414e+04 7.915e-09
  7.92817     15.0 1.435e+04 5.999e-09
  7.93849     14.6 1.429e+04 5.600e-09
  7.94861     14.8 1.441e+04 4.809e-09
  7.95893     14.4 1.424e+04 4.825e-09
  7.97181     14.7 1.416e+04 4.588e-09
  7.98932     15.4 1.427e+04 4.751e-09
  7.99964     15.1 1.422e+04 4.683e-09
  8.01309     15.3 1.428e+04 4.928e-09
  8.03374     16.0 1.416e+04 6.049e-09
  8.05047     16.3 1.439e+04 6.673e-09
  8.06080     16.2 1.415e+04 6.387e-09
  8.07503     16.5 1.432e+04 7.392e-09
  8.09567     16.2 1.456e+04 9.690e-09
  8.11163     16.2 1.444e+04 1.480e-08
  8.12195     16.7 1.439e+04 1.083e-08
  8.13696     17.0 1.432e+04 1.451e-08
  8.15760     17.6 1.422e+04 1.836e-08
  8.17278     17.7 1.438e+04 2.002e-08
  8.18310     18.5 1.438e+04 1.564e-08
  8.19889     18.7 1.454e+04 2.248e-08
  8.21953     18.8 1.493e+04 3.422e-08
  8.23393     19.2 1.522e+04 5.219e-08
  8.24425     19.9 1.538e+04 4.747e-08
  8.26082     20.9 1.561e+04 7.148e-08
  8.28146     21.4 1.565e+04 6.831e-08
  8.29509     22.1 1.520e+04 4.551e-08
  8.30541     22.6 1.551e+04 5.444e-08
  8.32275     22.9 1.508e+04 4.012e-08
  8.34339     23.2 1.429e+04 2.445e-08
  8.35624     23.8 1.365e+04 1.472e-08
  8.36656     24.5 1.417e+04 2.789e-08
  8.38468     25.0 1.395e+04 1.633e-08
  8.40532     25.4 1.339e+04 1.125e-08
  8.41739     26.3 1.276e+04 8.190e-09
  8.42771     26.9 1.317e+04 1.543e-08
  8.44661     27.8 1.341e+04 8.587e-09
  8.46725     28.3 1.270e+04 7.504e-09
  8.47854     29.9 1.270e+04 5.500e-09
  8.48887     30.3 1.318e+04 8.575e-09
  8.50854     30.4 1.320e+04 8.514e-09
  8.53961     32.3 1.297e+04 8.813e-09
  8.58040     34.7 1.286e+04 8.882e-09
  8.60105     34.6 1.310e+04 1.077e-08
  8.62228     36.7 1.303e+04 1.073e-08
  8.66357     38.6 1.315e+04 1.217e-08
  8.70271     40.5 1.342e+04 1.495e-08
  8.72335     40.1 1.292e+04 1.107e-08
  8.74614     42.0 1.309e+04 1.261e-08
  8.78743     44.1 1.311e+04 1.245e-08
  8.82501     46.3 1.296e+04 1.067e-08
  8.84566     46.3 1.248e+04 8.160e-09
  8.87000     48.5 1.243e+04 7.306e-09
  8.91129     50.4 1.214e+04 4.793e-09
  8.94732     51.7 1.168e+04 2.789e-09
  8.96796     51.8 1.146e+04 2.706e-09
  8.99386     53.4 1.128e+04 2.015e-09
  9.03515     55.2 1.100e+04 1.925e-09
  9.06962     57.4 1.089e+04 2.049e-09
  9.09027     58.2 1.069e+04 1.665e-09
  9.11773     60.6 1.066e+04 1.877e-09
  9.15901     62.8 1.076e+04 2.399e-09
  9.19193     64.9 1.093e+04 3.316e-09
  9.21257     65.9 1.078e+04 2.575e-09
  9.24159     67.9 1.094e+04 3.620e-09
  9.28288     69.7 1.109e+04 4.866e-09
  9.31424     71.3 1.123e+04 5.936e-09
  9.33488     72.3 1.115e+04 5.620e-09
  9.36545     73.8 1.133e+04 7.160e-09
  9.40674     75.1 1.133e+04 8.803e-09
  9.43654     76.2 1.114e+04 8.286e-09
  9.45719     77.1 1.134e+04 9.989e-09
  9.48931     77.7 1.120e+04 9.484e-09
  9.53060     78.2 1.086e+04 7.988e-09
  9.55885     78.7 1.052e+04 6.012e-09
  9.57949     78.8 1.076e+04 7.368e-09
  9.61317     79.1 1.028e+04 4.746e-09
  9.65446     79.4 9.939e+03 3.295e-09
  9.68115     80.0 9.648e+03 2.925e-09
  9.70180     79.8 9.657e+03 2.995e-09
  9.73704     80.7 9.609e+03 3.028e-09
  9.77832     81.5 9.619e+03 3.228e-09
  9.80346     82.1 9.664e+03 3.388e-09
  9.82410     82.1 9.646e+03 3.276e-09
  9.86090     82.5 9.597e+03 3.103e-09
  9.90219     82.7 9.460e+03 2.688e-09
  9.92577     82.7 9.367e+03 2.453e-09
  9.94641     83.2 9.356e+03 2.477e-09
  9.98476     83.2 9.379e+03 2.484e-09
 10.02605     83.1 9.402e+03 2.524e-09
 10.04807     82.9 9.374e+03 2.491e-09
 10.06871     83.9 9.366e+03 2.512e-09
 10.10862     83.9 9.310e+03 2.530e-09
 10.14973     83.8 9.298e+03 2.687e-09
 10.19102     84.5 9.411e+03 3.932e-09
 10.23248     84.4 9.707e+03 5.376e-09
 10.27204     84.2 9.833e+03 6.463e-09
 10.29268     85.0 1.002e+04 7.855e-09
 10.30464     84.4 1.008e+04 7.689e-09
 10.32519     84.2 1.007e+04 7.454e-09
 10.34332     84.0 1.007e+04 7.242e-09
 10.35364     84.3 1.017e+04 7.869e-09
 10.36647     83.9 1.011e+04 7.210e-09
 10.38712     83.4 1.000e+04 6.565e-09
 10.40447     83.0 9.892e+03 6.204e-09
 10.41479     83.3 1.001e+04 6.824e-09
 10.42840     83.0 9.968e+03 6.809e-09
 10.44905     82.8 9.959e+03 6.856e-09
 10.46562     82.6 9.973e+03 6.897e-09
 10.47595     82.8 1.022e+04 8.203e-09
 10.49034     82.5 1.030e+04 8.409e-09
 10.51098     82.0 1.040e+04 8.576e-09
 10.52678     81.4 1.049e+04 8.776e-09
 10.53710     81.4 1.089e+04 1.121e-08
 10.55227     80.6 1.099e+04 1.150e-08
 10.57291     79.8 1.107e+04 1.176e-08
 10.58793     78.9 1.119e+04 1.194e-08
 10.59800     78.5 1.153e+04 1.421e-08
 10.60363     78.7 1.159e+04 1.407e-08
 10.61420     77.8 1.157e+04 1.378e-08
 10.63886     77.7 1.157e+04 1.271e-08
 10.65950     76.4 1.169e+04 1.331e-08
 10.68655     75.7 1.148e+04 1.082e-08
 10.72793     75.1 1.106e+04 8.392e-09
 10.76126     74.7 1.085e+04 7.772e-09
 10.78191     73.1 1.083e+04 7.044e-09
 10.81051     72.5 1.097e+04 8.933e-09
 10.83264     71.8 1.096e+04 1.074e-08
 10.84286     71.4 1.109e+04 1.092e-08
 10.86192     71.2 1.097e+04 1.109e-08
 10.88256     71.5 1.064e+04 9.771e-09
 10.89369     71.6 1.030e+04 6.868e-09
 10.90402     70.7 1.050e+04 7.698e-09
 10.92385     70.1 1.026e+04 5.065e-09
 10.94450     68.7 9.938e+03 3.710e-09
 10.96514     66.7 9.870e+03 4.907e-09
 10.98578     66.4 9.871e+03 5.166e-09
 11.00568     66.2 9.939e+03 5.726e-09
 11.01600     65.2 1.041e+04 8.408e-09
 11.02707     65.1 1.050e+04 9.016e-09
 11.04771     65.0 1.048e+04 8.960e-09
 11.06683     65.2 1.037e+04 8.285e-09
 11.07715     63.8 1.077e+04 1.088e-08
 11.08900     63.3 1.080e+04 1.019e-08
 11.10965     62.1 1.110e+04 1.099e-08
 11.12798     59.9 1.190e+04 1.550e-08
 11.13831     57.0 1.275e+04 2.525e-08
 11.15093     55.7 1.354e+04 3.729e-08
 11.17158     54.6 1.414e+04 4.487e-08
 11.18914     53.2 1.449e+04 4.455e-08
 11.19946     49.4 1.440e+04 2.829e-08
 11.21286     45.1 1.442e+04 1.892e-08
 11.23351     40.7 1.312e+04 1.217e-08
 11.25029     36.6 1.177e+04 1.001e-08
 11.26061     34.0 1.141e+04 9.868e-09
 11.27479     32.5 1.135e+04 9.526e-09
 11.29544     30.9 1.131e+04 9.020e-09
 11.31144     29.3 1.116e+04 7.979e-09
 11.32176     26.7 1.163e+04 8.867e-09
 11.33673     23.4 1.180e+04 9.171e-09
 11.35737     20.2 1.166e+04 1.006e-08
 11.37260     17.5 1.161e+04 1.112e-08
 11.38292     15.5 1.238e+04 1.705e-08
 11.39866     13.2 1.246e+04 1.636e-08
 11.41930     11.3 1.217e+04 1.305e-08
 11.43375      9.5 1.159e+04 9.309e-09
 11.44407      7.6 1.184e+04 9.152e-09
 11.46059      5.2 1.108e+04 5.787e-09
 11.48123      3.7 1.051e+04 4.469e-09
 11.49490      2.9 1.021e+04 3.851e-09
 11.50522      2.0 1.020e+04 3.491e-09
 11.52252      1.7 1.010e+04 3.153e-09
 11.55358      1.7 1.014e+04 2.673e-09
 11.59497      1.8 9.832e+03 2.015e-09
 11.61740      1.7 9.573e+03 1.509e-09
 11.63805      1.1 9.579e+03 1.527e-09
 11.67754      1.3 9.391e+03 1.366e-09
 11.71883      1.9 9.287e+03 1.236e-09
 11.73971      2.9 9.180e+03 1.058e-09
 11.76035      3.2 9.361e+03 7.799e-10
 11.80140      4.2 9.524e+03 5.505e-10
 11.84137      4.3 9.737e+03 4.527e-10
 11.86201      4.4 9.881e+03 3.966e-10
 11.88398      5.0 9.630e+03 5.573e-10
 11.92527      6.8 9.572e+03 7.736e-10
 11.96368      7.9 9.966e+03 7.448e-10
 11.98432      8.1 1.017e+04 6.708e-10
 12.00784      8.7 1.015e+04 7.410e-10
 12.04913      9.4 1.035e+04 7.784e-10
 12.08598     10.2 1.054e+04 8.552e-10
 12.10663     10.8 1.088e+04 6.883e-10
 12.13170     11.4 1.099e+04 7.163e-10
 12.17299     12.4 1.107e+04 7.570e-10
 12.20829     13.8 1.123e+04 7.246e-10
 12.22893     14.4 1.129e+04 6.143e-10
 12.25556     15.6 1.135e+04 6.212e-10
 12.29685     17.1 1.135e+04 6.190e-10
 12.33059     18.8 1.134e+04 6.253e-10
 12.35124     19.5 1.139e+04 6.309e-10
 12.37943     21.3 1.148e+04 5.996e-10
 12.42071     23.0 1.158e+04 5.895e-10
 12.45290     24.7 1.167e+04 6.251e-10
 12.47354     25.1 1.170e+04 6.062e-10
 12.50329     26.9 1.173e+04 6.650e-10
 12.54458     28.9 1.175e+04 7.734e-10
 12.57521     31.1 1.178e+04 8.746e-10
 12.59585     31.3 1.195e+04 9.417e-10
 12.62715     33.3 1.208e+04 1.191e-09
 12.66844     35.0 1.220e+04 1.716e-09
 12.69751     36.5 1.236e+04 2.904e-09
 12.71815     36.7 1.271e+04 5.812e-09
 12.75101     37.5 1.309e+04 8.453e-09
 12.79230     38.1 1.333e+04 1.101e-08
 12.81982     38.6 1.349e+04 1.257e-08
 12.83004     38.1 1.371e+04 1.475e-08
 12.84371     38.6 1.370e+04 1.397e-08
 12.87478     39.0 1.383e+04 1.400e-08
 12.91616     40.0 1.387e+04 1.255e-08
 12.94203     40.6 1.398e+04 1.266e-08
 12.95225     40.8 1.424e+04 1.429e-08
 12.96758     41.1 1.437e+04 1.447e-08
 12.98822     41.3 1.436e+04 1.405e-08
 13.00308     41.2 1.442e+04 1.326e-08
 13.01340     41.5 1.463e+04 1.534e-08
 13.02951     41.0 1.459e+04 1.426e-08
 13.05015     40.2 1.446e+04 1.259e-08
 13.06423     39.5 1.420e+04 9.900e-09
 13.07455     39.7 1.433e+04 1.186e-08
 13.09144     38.8 1.399e+04 7.137e-09
 13.11208     37.4 1.384e+04 4.231e-09
 13.12539     35.8 1.363e+04 3.126e-09
 13.13571     35.5 1.343e+04 3.158e-09
 13.15337     34.7 1.345e+04 3.196e-09
 13.17401     34.2 1.347e+04 3.427e-09
 13.18664     33.0 1.389e+04 4.024e-09
 13.19696     34.2 1.351e+04 4.589e-09
 13.21530     34.1 1.363e+04 4.595e-09
 13.23594     33.5 1.408e+04 4.489e-09
 13.24769     32.3 1.452e+04 5.155e-09
 13.24975     31.6 1.484e+04 7.460e-09
 13.25864     33.7 1.439e+04 4.974e-09
 13.27723     31.9 1.467e+04 6.621e-09
 13.29788     30.5 1.460e+04 9.799e-09
 13.30884     29.4 1.449e+04 1.280e-08
 13.31917     29.4 1.461e+04 1.738e-08
 13.33916     28.7 1.446e+04 1.621e-08
 13.35968     27.7 1.449e+04 1.426e-08
 13.37000     27.8 1.462e+04 1.557e-08
 13.38045     26.4 1.458e+04 1.523e-08
 13.40109     25.2 1.449e+04 1.716e-08
 13.42083     24.7 1.427e+04 1.741e-08
 13.43115     25.1 1.417e+04 1.691e-08
 13.44238     25.0 1.396e+04 1.339e-08
 13.46302     24.0 1.426e+04 1.112e-08
 13.48198     22.2 1.447e+04 1.236e-08
 13.49230     22.9 1.405e+04 1.099e-08
 13.50431     22.1 1.417e+04 1.535e-08
 13.52496     22.5 1.425e+04 2.192e-08
 13.54313     22.9 1.413e+04 2.225e-08
 13.55346     23.6 1.404e+04 2.118e-08
 13.56624     24.1 1.394e+04 1.932e-08
 13.58689     24.5 1.378e+04 1.603e-08
 13.60429     24.8 1.359e+04 1.179e-08
 13.61461     25.6 1.354e+04 1.323e-08
 13.62817     25.8 1.349e+04 1.027e-08
 13.64882     25.9 1.353e+04 8.189e-09
 13.66544     25.8 1.344e+04 7.245e-09
 13.67576     27.2 1.345e+04 8.529e-09
 13.69010     26.9 1.359e+04 8.597e-09
 13.71075     26.8 1.335e+04 9.438e-09
 13.74181     28.2 1.320e+04 1.098e-08
 13.77762     29.5 1.284e+04 9.014e-09
 13.79817     30.9 1.296e+04 9.259e-09
 13.82439     32.3 1.258e+04 5.495e-09
 13.84900     33.3 1.246e+04 2.616e-09
 13.85922     34.0 1.246e+04 2.923e-09
 13.87590     33.7 1.266e+04 2.120e-09
 13.89983     34.8 1.236e+04 1.375e-09
 13.92047     35.6 1.239e+04 1.444e-09
 13.94825     37.8 1.203e+04 1.378e-09
 13.98963     40.2 1.180e+04 1.329e-09
 14.02223     42.7 1.179e+04 1.353e-09
 14.04287     43.8 1.187e+04 1.762e-09
 14.07221     46.3 1.186e+04 1.800e-09
 14.11350     48.4 1.188e+04 1.855e-09
 14.14436     50.3 1.184e+04 2.017e-09
 14.16491     51.8 1.198e+04 2.761e-09
 14.18555     52.4 1.201e+04 3.060e-09
 14.20549     52.8 1.196e+04 3.637e-09
 14.21582     53.4 1.236e+04 6.459e-09
 14.22684     53.7 1.225e+04 7.524e-09
 14.24748     54.0 1.215e+04 8.465e-09
 14.26665     54.3 1.206e+04 9.181e-09
 14.27697     54.9 1.240e+04 1.310e-08
 14.28877     55.2 1.224e+04 1.280e-08
 14.30942     55.4 1.215e+04 1.267e-08
 14.32780     55.6 1.209e+04 1.252e-08
 14.33812     56.1 1.223e+04 1.388e-08
 14.35070     56.3 1.208e+04 1.299e-08
 14.37135     56.6 1.186e+04 1.172e-08
 14.38895     57.0 1.155e+04 9.935e-09
 14.39927     57.2 1.156e+04 1.016e-08
 14.41263     57.7 1.123e+04 8.589e-09
 14.43328     58.2 1.093e+04 7.036e-09
 14.45011     58.8 1.064e+04 5.688e-09
 14.46043     59.5 1.064e+04 6.365e-09
 14.47456     60.1 1.047e+04 5.427e-09
 14.49521     60.8 1.032e+04 4.758e-09
 14.51126     61.4 1.021e+04 4.212e-09
 14.52158     62.2 1.016e+04 4.775e-09
 14.53650     62.8 1.004e+04 4.473e-09
 14.55714     63.3 9.993e+03 4.373e-09
 14.57067     63.7 9.988e+03 4.415e-09
 14.57562     64.1 1.017e+04 4.421e-09
 14.58273     64.8 1.006e+04 4.986e-09
 14.59843     65.1 1.009e+04 5.225e-09
 14.61907     65.3 1.025e+04 5.602e-09
 14.63356     65.6 1.042e+04 5.983e-09
 14.64389     66.0 1.031e+04 6.103e-09
 14.66036     66.1 1.045e+04 6.451e-09
 14.68100     66.0 1.061e+04 6.626e-09
 14.69472     65.8 1.078e+04 6.816e-09
 14.70504     65.9 1.073e+04 6.757e-09
 14.72229     65.4 1.090e+04 7.059e-09
 14.74293     64.7 1.100e+04 7.471e-09
 14.75587     64.0 1.104e+04 7.958e-09
 14.76619     63.8 1.104e+04 8.163e-09
 14.78422     62.9 1.111e+04 8.754e-09
 14.80486     61.4 1.137e+04 9.807e-09
 14.81702     59.0 1.192e+04 1.252e-08
 14.82735     57.6 1.235e+04 1.523e-08
 14.84615     55.1 1.318e+04 2.571e-08
 14.86679     53.8 1.389e+04 4.003e-08
 14.87818     52.7 1.433e+04 4.667e-08
 14.88850     51.9 1.463e+04 5.075e-08
 14.90808     49.9 1.492e+04 5.250e-08
 14.92873     47.5 1.498e+04 5.110e-08
 14.93933     45.1 1.493e+04 5.023e-08
 14.94965     43.2 1.590e+04 7.864e-08
 14.97001     42.0 1.589e+04 8.070e-08
 14.99016     41.1 1.597e+04 8.471e-08
 15.00048     39.7 1.663e+04 1.032e-07
 15.01130     38.2 1.663e+04 9.588e-08
 15.03194     36.3 1.649e+04 8.595e-08
 15.05131     34.6 1.612e+04 7.580e-08
 15.06163     32.8 1.592e+04 7.214e-08
 15.07323     31.2 1.579e+04 6.898e-08
 15.09387     28.1 1.638e+04 7.653e-08
 15.11247     24.4 1.690e+04 9.711e-08
 15.12279     21.9 1.596e+04 6.601e-08
 15.13516     19.5 1.564e+04 6.604e-08
 15.15581     17.9 1.504e+04 5.694e-08
 15.17362     16.5 1.425e+04 4.295e-08
 15.18394     13.1 1.448e+04 4.580e-08
 15.19709     11.3 1.389e+04 3.655e-08
 15.21774     10.0 1.320e+04 3.155e-08
 15.23477      9.8 1.280e+04 3.022e-08
 15.24509      9.6 1.344e+04 3.975e-08
 15.25902     10.1 1.305e+04 3.376e-08
 15.27967     10.5 1.266e+04 2.684e-08
 15.29592     10.6 1.229e+04 2.273e-08
 15.30625      9.4 1.221e+04 2.251e-08
 15.32096      9.6 1.173e+04 1.948e-08
 15.34160     10.3 1.131e+04 1.617e-08
 15.35708     11.1 1.079e+04 1.311e-08
 15.36740     11.0 1.089e+04 1.309e-08
 15.38289     11.5 1.053e+04 9.212e-09
 15.40353     12.0 9.875e+03 7.383e-09
 15.41823     12.3 9.803e+03 5.160e-09
 15.42855     11.6 9.928e+03 5.472e-09
 15.44482     12.0 9.704e+03 5.530e-09
 15.46546     12.6 9.847e+03 5.187e-09
 15.47938     12.6 1.006e+04 5.575e-09
 15.48971     12.3 1.025e+04 7.514e-09
 15.50675     13.1 1.022e+04 8.002e-09
 15.52739     14.1 1.008e+04 8.513e-09
 15.54054     15.8 9.959e+03 8.081e-09
 15.55086     16.0 9.982e+03 7.769e-09
 15.56868     17.3 9.992e+03 6.305e-09
 15.58932     17.8 1.008e+04 5.183e-09
 15.60169     18.2 1.002e+04 4.635e-09
 15.61201     17.9 9.849e+03 4.375e-09
 15.63061     18.6 9.761e+03 4.251e-09
 15.65125     19.2 9.911e+03 4.447e-09
 15.66284     19.6 1.025e+04 5.265e-09
 15.67316     19.5 1.019e+04 5.535e-09
 15.69254     19.9 1.058e+04 7.086e-09
 15.71319     19.9 1.110e+04 9.739e-09
 15.72399     20.1 1.154e+04 1.388e-08
 15.73432     20.2 1.151e+04 1.406e-08
 15.75447     20.8 1.181e+04 1.648e-08
 15.77483     21.3 1.180e+04 1.591e-08
 15.78515     21.5 1.159e+04 1.493e-08
 15.79576     22.4 1.138e+04 1.208e-08
 15.81640     22.7 1.128e+04 9.655e-09
 15.83608     23.4 1.111e+04 6.826e-09
 15.84640     23.4 1.094e+04 6.928e-09
 15.85769     23.5 1.090e+04 6.008e-09
 15.88279     24.7 1.077e+04 5.220e-09
 15.90159     24.6 1.068e+04 4.519e-09
 15.90745     24.6 1.068e+04 4.587e-09
 15.91962     25.8 1.055e+04 4.297e-09
 15.94027     26.6 1.067e+04 4.413e-09
 15.95828     27.5 1.081e+04 4.588e-09
 15.96861     27.3 1.090e+04 5.523e-09
 15.98155     27.9 1.107e+04 6.119e-09
 16.00220     29.0 1.114e+04 6.653e-09
 16.01944     29.8 1.139e+04 7.283e-09
 16.02976     29.8 1.149e+04 9.046e-09
 16.04348     30.7 1.170e+04 9.701e-09
 16.06413     31.5 1.190e+04 1.039e-08
 16.08059     32.5 1.210e+04 1.099e-08
 16.09091     32.4 1.191e+04 9.965e-09
 16.10541     33.2 1.199e+04 9.833e-09
 16.12606     34.3 1.205e+04 9.505e-09
 16.14174     35.2 1.215e+04 9.206e-09
 16.15207     34.9 1.193e+04 6.787e-09
 16.16735     35.7 1.198e+04 6.659e-09
 16.18799     36.8 1.203e+04 6.540e-09
 16.20290     37.9 1.216e+04 6.544e-09
 16.21322     37.7 1.194e+04 5.144e-09
 16.22928     38.5 1.209e+04 5.265e-09
 16.24992     39.5 1.219e+04 5.358e-09
 16.26405     40.5 1.230e+04 5.616e-09
 16.27437     40.4 1.219e+04 4.812e-09
 16.29121     41.3 1.231e+04 5.073e-09
 16.31185     42.2 1.248e+04 5.293e-09
 16.32520     43.3 1.260e+04 5.460e-09
 16.34594     43.2 1.236e+04 5.032e-09
 16.38430     45.1 1.261e+04 6.037e-09
 16.42559     46.1 1.309e+04 7.867e-09
 16.44761     45.5 1.375e+04 1.159e-08
 16.45783     45.1 1.382e+04 1.332e-08
 16.47700     44.6 1.434e+04 1.938e-08
 16.49764     44.0 1.464e+04 2.172e-08
 16.50866     43.6 1.456e+04 2.005e-08
 16.51898     42.8 1.462e+04 2.206e-08
 16.53893     42.5 1.436e+04 1.562e-08
 16.55949     42.2 1.419e+04 1.144e-08
 16.59055     40.7 1.373e+04 5.461e-09
 16.63202     41.3 1.336e+04 2.874e-09
 16.67167     42.7 1.326e+04 2.156e-09
 16.69231     42.1 1.280e+04 2.338e-09
 16.71460     44.3 1.274e+04 2.345e-09
 16.75589     46.6 1.272e+04 2.460e-09
 16.79398     48.7 1.273e+04 2.617e-09
 16.81462     48.9 1.248e+04 3.651e-09
 16.83846     51.3 1.254e+04 3.963e-09
 16.87975     53.5 1.261e+04 3.948e-09
 16.91628     55.7 1.266e+04 3.794e-09
 16.93693     55.9 1.264e+04 4.053e-09
 16.96232     58.1 1.272e+04 3.839e-09
 17.00361     60.2 1.287e+04 3.240e-09
 17.03859     62.1 1.302e+04 2.552e-09
 17.05923     62.2 1.301e+04 4.104e-09
 17.08618     63.8 1.306e+04 3.461e-09
 17.12747     65.4 1.301e+04 3.204e-09
 17.16089     66.9 1.297e+04 3.335e-09
 17.18154     67.2 1.311e+04 6.925e-09
 17.21005     68.7 1.292e+04 6.142e-09
 17.25133     70.2 1.277e+04 5.293e-09
 17.28320     71.7 1.262e+04 4.561e-09
 17.30384     71.3 1.280e+04 5.189e-09
 17.33391     72.9 1.248e+04 4.355e-09
 17.37520     74.8 1.221e+04 4.319e-09
 17.40551     76.9 1.217e+04 4.408e-09
 17.42615     76.2 1.226e+04 6.003e-09
 17.45777     78.6 1.229e+04 6.217e-09
 17.49906     80.8 1.243e+04 6.974e-09
 17.52771     81.5 1.267e+04 8.063e-09
 17.53794     79.9 1.295e+04 1.265e-08
 17.55047     80.6 1.315e+04 1.511e-08
 17.57112     81.0 1.337e+04 1.919e-08
 17.58877     81.7 1.356e+04 2.536e-08
 17.59909     81.7 1.330e+04 3.905e-08
 17.61240     83.0 1.346e+04 4.614e-08
 17.63305     84.2 1.375e+04 4.690e-08
 17.64992     85.3 1.370e+04 4.438e-08
 17.66024     84.7 1.359e+04 2.403e-08
 17.67433     84.7 1.366e+04 2.021e-08
 17.69498     84.4 1.351e+04 1.806e-08
 17.71107     84.1 1.323e+04 1.795e-08
 17.72140     82.5 1.222e+04 1.393e-08
 17.73627     82.4 1.226e+04 1.439e-08
 17.75691     82.1 1.242e+04 1.488e-08
 17.77223     81.7 1.265e+04 1.528e-08
 17.78255     80.5 1.225e+04 9.880e-09
 17.79820     79.3 1.243e+04 1.036e-08
 17.81884     77.5 1.269e+04 1.224e-08
 17.83338     75.6 1.303e+04 1.646e-08
 17.84370     75.2 1.236e+04 1.404e-08
 17.86013     73.5 1.308e+04 2.196e-08
 17.88077     71.0 1.447e+04 3.659e-08
 17.89453     67.8 1.595e+04 5.941e-08
 17.90486     69.8 1.520e+04 5.195e-08
 17.92206     66.9 1.583e+04 5.690e-08
 17.94270     63.9 1.561e+04 5.059e-08
 17.95569     61.5 1.452e+04 3.449e-08
 17.96601     63.9 1.470e+04 3.007e-08
 17.98399     61.5 1.299e+04 1.731e-08
 18.00463     59.6 1.147e+04 1.035e-08
 18.01684     58.8 1.139e+04 8.520e-09
 18.02716     58.9 1.145e+04 7.928e-09
 18.04592     58.4 1.128e+04 7.603e-09
 18.06656     58.0 1.124e+04 7.640e-09
 18.07799     57.7 1.121e+04 7.841e-09
 18.08831     57.9 1.149e+04 9.076e-09
 18.10785     57.3 1.151e+04 9.951e-09
 18.12850     56.7 1.154e+04 1.099e-08
 18.13915     56.1 1.153e+04 1.143e-08
 18.14947     55.6 1.179e+04 1.374e-08
 18.16978     54.9 1.154e+04 1.300e-08
 18.18998     54.2 1.124e+04 1.092e-08
 18.20030     53.6 1.124e+04 1.027e-08
 18.21107     52.2 1.095e+04 8.126e-09
 18.23171     50.1 1.099e+04 6.007e-09
 18.25113     44.9 1.192e+04 7.249e-09
 18.26145     39.8 1.304e+04 1.251e-08
 18.27300     35.8 1.425e+04 3.163e-08
 18.29364     34.3 1.478e+04 5.431e-08
 18.31228     34.1 1.481e+04 6.277e-08
 18.32260     32.2 1.537e+04 7.954e-08
 18.33493     32.3 1.487e+04 5.994e-08
 18.35558     31.2 1.451e+04 3.827e-08
 18.37343     29.1 1.467e+04 2.696e-08
 18.38376     22.3 1.722e+04 5.852e-08
 18.39686     21.2 1.725e+04 7.117e-08
 18.41751     21.3 1.735e+04 9.716e-08
 18.43294     21.7 1.777e+04 1.432e-07
 18.43965     22.1 1.782e+04 1.771e-07
 18.44481     20.5 1.787e+04 3.516e-07
 18.45354     21.6 1.778e+04 4.019e-07
 18.46386     22.5 1.780e+04 4.332e-07
 18.47023     23.2 1.789e+04 4.347e-07
 18.47539     22.4 1.801e+04 4.247e-07
 18.48450     22.3 1.833e+04 3.494e-07
 18.49482     21.7 1.864e+04 2.656e-07
 18.50080     20.3 1.897e+04 1.930e-07
 18.50596     16.4 1.815e+04 1.012e-07
 18.51547     14.1 1.710e+04 8.492e-08
 18.52579     12.5 1.624e+04 7.715e-08
 18.53138     11.9 1.567e+04 7.195e-08
 18.53654     11.4 1.542e+04 7.364e-08
 18.54278     11.4 1.541e+04 7.423e-08
 18.54794     11.4 1.633e+04 1.125e-07
 18.55675     12.2 1.574e+04 8.974e-08
 18.56712     11.9 1.584e+04 9.125e-08
 18.58266     11.3 1.484e+04 4.881e-08
 18.60330      8.9 1.372e+04 2.438e-08
 18.61805      6.2 1.220e+04 1.314e-08
 18.62837      5.1 1.198e+04 1.208e-08
 18.64459      3.7 1.086e+04 8.387e-09
 18.66523      3.4 1.043e+04 6.717e-09
 18.67920      3.3 1.031e+04 5.680e-09
 18.68952      2.8 1.019e+04 4.822e-09
 18.70652      3.3 1.016e+04 4.284e-09
 18.72716      3.9 1.019e+04 4.159e-09
 18.74035      4.5 1.028e+04 4.304e-09
 18.75067      4.4 1.011e+04 3.816e-09
 18.76845      4.8 1.030e+04 4.168e-09
 18.78909      5.1 1.045e+04 5.091e-09
 18.80151      5.5 1.057e+04 6.563e-09
 18.81183      5.6 1.051e+04 5.401e-09
 18.83038      6.1 1.067e+04 6.704e-09
 18.85102      6.7 1.074e+04 8.302e-09
 18.86266      7.3 1.087e+04 9.520e-09
 18.87298      7.2 1.091e+04 7.910e-09
 18.89231      7.8 1.099e+04 8.669e-09
 18.91295      8.4 1.099e+04 8.564e-09
 18.92381      8.9 1.093e+04 7.760e-09
 18.93413      8.9 1.114e+04 7.833e-09
 18.95424      9.0 1.127e+04 7.273e-09
 18.97464      8.5 1.153e+04 7.461e-09
 18.98496      8.9 1.173e+04 8.987e-09
 18.99553      8.2 1.214e+04 1.011e-08
 19.01617      7.8 1.235e+04 1.265e-08
 19.03579      7.9 1.221e+04 1.363e-08
 19.04612      8.7 1.277e+04 1.842e-08
 19.05746      9.0 1.273e+04 1.910e-08
 19.07810      9.4 1.262e+04 1.745e-08
 19.09695      9.4 1.272e+04 1.321e-08
 19.10727      9.2 1.406e+04 3.672e-08
 19.11939      8.7 1.434e+04 3.451e-08
 19.14004      7.8 1.443e+04 2.635e-08
 19.15810      6.8 1.408e+04 1.926e-08
 19.16842      7.6 1.564e+04 6.652e-08
 19.18132      6.5 1.525e+04 4.804e-08
 19.20197      5.0 1.473e+04 4.072e-08
 19.21925      3.6 1.441e+04 3.829e-08
 19.22953      2.9 1.577e+04 7.754e-08
 19.23800      2.0 1.585e+04 8.525e-08
 19.24832      1.7 1.584e+04 9.151e-08
 19.25489      1.9 1.568e+04 8.621e-08
 19.26005      1.7 1.657e+04 1.563e-07
 19.26896      1.3 1.663e+04 1.489e-07
 19.27928      0.9 1.672e+04 1.216e-07
 19.28547     -0.3 1.682e+04 9.986e-08
 19.29063     -0.4 1.739e+04 1.433e-07
 19.30514     -4.7 1.809e+04 1.574e-07
 19.31609     -8.3 1.870e+04 1.929e-07
 19.32121     -8.4 1.881e+04 2.166e-07
 19.33089    -10.0 1.843e+04 2.516e-07
 19.34121    -11.1 1.779e+04 2.900e-07
 19.34662    -10.2 1.726e+04 2.562e-07
 19.35178     -9.7 1.723e+04 2.569e-07
 19.36186     -8.3 1.708e+04 1.690e-07
 19.37204     -8.8 1.717e+04 9.413e-08
 19.37720     -8.9 1.719e+04 8.673e-08
 19.38250    -11.0 1.669e+04 3.345e-08
 19.39282    -14.3 1.487e+04 2.108e-08
 19.40266    -16.3 1.353e+04 1.458e-08
 19.41303    -15.4 1.365e+04 1.377e-08
 19.42905    -17.0 1.247e+04 1.056e-08
 19.44969    -17.1 1.273e+04 1.120e-08
 19.46387    -17.0 1.278e+04 1.396e-08
 19.47419    -16.1 1.284e+04 1.479e-08
 19.49098    -15.9 1.309e+04 1.677e-08
 19.51162    -15.8 1.305e+04 1.824e-08
 19.52502    -15.5 1.301e+04 1.828e-08
 19.53534    -15.0 1.285e+04 1.608e-08
 19.55291    -14.6 1.267e+04 1.482e-08
 19.57355    -14.1 1.261e+04 1.286e-08
 19.58617    -13.6 1.238e+04 1.086e-08
 19.59649    -13.3 1.232e+04 1.052e-08
 19.61484    -12.8 1.230e+04 9.245e-09
 19.63548    -12.2 1.223e+04 8.411e-09
 19.64732    -11.8 1.227e+04 7.472e-09
 19.65765    -11.6 1.235e+04 8.761e-09
 19.67677    -11.0 1.229e+04 8.709e-09
 19.69741    -10.3 1.221e+04 8.293e-09
 19.70848     -9.6 1.225e+04 7.979e-09
 19.71880     -9.6 1.247e+04 9.377e-09
 19.73870     -9.1 1.244e+04 9.643e-09
 19.75931     -8.7 1.254e+04 9.152e-09
 19.77995     -8.5 1.267e+04 1.120e-08
 19.80063     -8.0 1.266e+04 1.004e-08
 19.82046     -7.4 1.246e+04 8.703e-09
 19.83078     -7.4 1.260e+04 9.189e-09
 19.84192     -6.8 1.268e+04 6.255e-09
 19.86006     -6.9 1.251e+04 4.740e-09
 19.87038     -7.1 1.275e+04 5.285e-09
 19.88161     -6.8 1.254e+04 3.677e-09
 19.89194     -7.0 1.266e+04 4.151e-09
 19.90385     -6.7 1.240e+04 3.499e-09
 19.92449     -5.6 1.227e+04 2.739e-09
 19.94277     -5.1 1.237e+04 2.357e-09
 19.95309     -5.3 1.244e+04 2.629e-09
 19.96578     -4.4 1.235e+04 2.322e-09
 19.98643     -3.9 1.230e+04 2.238e-09
 20.00392     -2.4 1.231e+04 1.960e-09
 20.01424     -2.6 1.236e+04 2.167e-09
 20.02771     -2.2 1.248e+04 2.102e-09
 20.04836     -1.2 1.242e+04 2.138e-09
 20.06507     -0.9 1.246e+04 2.224e-09
 20.07539     -1.4 1.243e+04 2.855e-09
 20.08964     -0.8 1.234e+04 3.202e-09
 20.11029     -0.3 1.230e+04 3.617e-09
 20.12623      0.6 1.217e+04 3.934e-09
 20.13655      0.3 1.215e+04 5.248e-09
 20.15158      1.5 1.211e+04 5.049e-09
 20.17222      2.3 1.214e+04 4.692e-09
 20.18738      3.0 1.218e+04 4.481e-09
 20.19770      2.4 1.218e+04 5.606e-09
 20.21351      3.0 1.220e+04 5.719e-09
 20.23415      3.5 1.220e+04 5.914e-09
 20.24853      4.0 1.219e+04 6.186e-09
 20.25885      3.7 1.224e+04 7.518e-09
 20.27544      4.1 1.218e+04 7.675e-09
 20.29608      4.5 1.218e+04 8.006e-09
 20.30968      4.7 1.231e+04 8.644e-09
 20.32001      4.4 1.232e+04 8.931e-09
 20.33737      4.1 1.246e+04 1.019e-08
 20.35801      3.8 1.261e+04 1.250e-08
 20.37084      3.6 1.277e+04 1.451e-08
 20.38116      3.8 1.271e+04 1.462e-08
 20.39930      3.7 1.272e+04 1.439e-08
 20.41994      3.7 1.260e+04 1.274e-08
 20.43199      3.6 1.243e+04 9.534e-09
 20.44231      4.0 1.241e+04 1.051e-08
 20.46123      4.0 1.222e+04 7.465e-09
 20.48187      4.3 1.208e+04 4.573e-09
 20.49314      4.2 1.231e+04 2.610e-09
 20.50346      5.1 1.211e+04 3.865e-09
 20.52316      4.9 1.253e+04 2.287e-09
 20.54381      4.4 1.260e+04 1.579e-09
 20.55430      4.4 1.229e+04 1.568e-09
 20.56462      5.3 1.254e+04 1.840e-09
 20.58509      5.0 1.252e+04 1.993e-09
 20.60513      4.9 1.239e+04 2.740e-09
 20.61545      5.7 1.255e+04 3.064e-09
 20.62638      5.7 1.258e+04 4.586e-09
 20.64702      5.9 1.273e+04 7.674e-09
 20.66628      6.3 1.297e+04 1.203e-08
 20.67660      7.0 1.307e+04 1.215e-08
 20.68831      7.3 1.336e+04 1.598e-08
 20.70895      7.5 1.341e+04 1.524e-08
 20.72743      7.0 1.327e+04 1.350e-08
 20.73775      7.6 1.355e+04 1.618e-08
 20.76066      7.2 1.286e+04 1.108e-08
 20.78878      7.6 1.229e+04 6.957e-09
 20.80942      8.6 1.269e+04 9.912e-09
 20.84333      9.8 1.218e+04 5.227e-09
 20.88462     10.8 1.200e+04 2.758e-09
 20.91109     12.4 1.180e+04 2.463e-09
 20.93173     13.1 1.207e+04 3.815e-09
 20.96720     15.0 1.209e+04 4.027e-09
 21.00848     16.8 1.225e+04 4.569e-09
 21.03339     18.2 1.238e+04 5.473e-09
 21.05404     18.3 1.274e+04 7.802e-09
 21.09106     19.2 1.295e+04 8.722e-09
 21.13235     19.7 1.293e+04 8.667e-09
 21.15570     20.2 1.299e+04 7.700e-09
 21.17499     20.5 1.298e+04 6.438e-09
 21.19292     21.2 1.304e+04 6.084e-09
 21.21492     21.8 1.293e+04 4.821e-09
 21.25621     22.4 1.283e+04 4.516e-09
 21.27800     23.1 1.274e+04 4.572e-09
 21.29865     24.1 1.253e+04 4.141e-09
 21.33878     25.1 1.251e+04 3.936e-09
 21.37967     26.0 1.251e+04 3.468e-09
 21.40031     27.5 1.239e+04 3.245e-09
 21.42136     28.4 1.242e+04 2.552e-09
 21.46264     29.1 1.248e+04 1.834e-09
 21.50197     29.6 1.257e+04 1.434e-09
 21.52262     31.1 1.250e+04 1.359e-09
 21.54522     31.8 1.247e+04 1.285e-09
 21.58651     32.7 1.251e+04 1.311e-09
 21.62428     33.7 1.262e+04 1.426e-09
 21.64492     35.2 1.255e+04 1.388e-09
 21.66908     36.2 1.265e+04 1.645e-09
 21.71037     37.2 1.278e+04 1.986e-09
 21.74658     38.1 1.290e+04 2.345e-09
 21.76723     39.7 1.279e+04 2.711e-09
 21.79294     40.6 1.293e+04 2.986e-09
 21.83423     41.3 1.300e+04 3.282e-09
 21.86889     42.1 1.303e+04 3.481e-09
 21.88953     43.6 1.296e+04 3.047e-09
 21.91681     44.2 1.298e+04 3.001e-09
 21.95809     44.8 1.300e+04 2.854e-09
 21.99119     45.5 1.301e+04 2.586e-09
 22.01184     47.0 1.299e+04 2.537e-09
 22.04067     47.6 1.298e+04 2.605e-09
 22.08195     48.2 1.301e+04 2.630e-09
 22.11350     48.9 1.305e+04 2.525e-09
 22.13414     50.3 1.311e+04 3.434e-09
 22.16453     50.9 1.312e+04 3.110e-09
 22.20582     51.5 1.310e+04 2.436e-09
 22.23581     52.2 1.315e+04 2.021e-09
 22.25645     53.1 1.331e+04 4.268e-09
 22.28839     53.1 1.337e+04 4.490e-09
 22.32968     52.7 1.343e+04 5.803e-09
 22.35811     52.0 1.345e+04 8.666e-09
 22.37876     52.6 1.393e+04 1.394e-08
 22.41225     50.8 1.385e+04 1.359e-08
 22.45354     49.8 1.335e+04 1.084e-08
 22.48042     49.4 1.282e+04 6.211e-09
 22.50106     49.7 1.301e+04 6.916e-09
 22.53612     49.4 1.278e+04 4.354e-09
 22.57740     49.3 1.256e+04 3.224e-09
 22.60272     49.8 1.229e+04 2.743e-09
 22.62337     50.5 1.244e+04 2.481e-09
 22.65998     51.4 1.222e+04 1.876e-09
 22.70126     52.6 1.191e+04 1.809e-09
 22.72503     54.0 1.186e+04 1.900e-09
 22.74567     54.2 1.191e+04 1.934e-09
 22.78384     55.2 1.173e+04 3.141e-09
 22.82513     56.3 1.175e+04 5.241e-09
 22.84733     56.6 1.179e+04 6.171e-09
 22.86798     57.0 1.186e+04 6.828e-09
 22.90770     57.0 1.175e+04 6.229e-09
 22.94899     57.2 1.150e+04 4.241e-09
 22.99028     57.3 1.119e+04 2.894e-09
 23.03156     57.7 1.093e+04 1.930e-09
 23.07130     58.7 1.076e+04 1.286e-09
 23.09195     59.3 1.071e+04 1.330e-09
 23.11414     60.5 1.071e+04 7.785e-10
 23.15543     61.4 1.083e+04 5.020e-10
 23.19361     62.5 1.051e+04 4.519e-10
 23.21425     62.9 1.053e+04 4.158e-10
 23.23800     64.2 1.049e+04 4.295e-10
 23.27929     65.5 1.039e+04 4.755e-10
 23.31591     66.8 1.030e+04 5.584e-10
 23.33656     67.2 1.031e+04 6.275e-10
 23.36186     68.5 1.022e+04 7.487e-10
 23.40315     69.8 1.012e+04 8.456e-10
 23.43822     71.3 1.000e+04 8.855e-10
 23.45886     71.8 1.001e+04 1.207e-09
 23.48572     73.4 9.923e+03 1.169e-09
 23.52701     75.2 9.813e+03 1.102e-09
 23.56053     77.0 9.721e+03 1.038e-09
 23.58117     77.4 9.746e+03 1.415e-09
 23.60959     79.4 9.657e+03 1.320e-09
 23.65087     81.4 9.579e+03 1.205e-09
 23.68283     83.4 9.517e+03 1.065e-09
 23.70348     83.8 9.517e+03 9.726e-10
 23.73345     85.9 9.468e+03 8.086e-10
 23.77474     87.8 9.396e+03 6.941e-10
 23.80514     89.9 9.233e+03 6.648e-10
 23.82578     90.3 9.219e+03 5.596e-10
 23.83762     92.6 9.203e+03 5.611e-10
 23.85826     92.8 9.240e+03 5.982e-10
 23.89860     95.1 9.185e+03 6.153e-10
 23.92744     97.5 9.107e+03 6.637e-10
 23.94809     98.1 9.114e+03 5.843e-10
 23.98117    100.4 9.051e+03 6.521e-10
 24.02246    102.9 9.009e+03 7.325e-10
 24.04975    105.3 8.975e+03 7.985e-10
 24.07039    106.1 8.969e+03 8.099e-10
 24.10503    108.5 8.956e+03 8.859e-10
 24.14632    111.0 8.940e+03 9.484e-10
 24.17205    113.5 8.910e+03 9.907e-10
 24.19270    114.1 8.991e+03 1.288e-09
 24.22890    116.7 8.987e+03 1.282e-09
 24.27018    119.5 8.955e+03 1.253e-09
 24.29436    122.4 8.875e+03 1.183e-09
 24.31500    122.8 9.172e+03 1.753e-09
 24.35276    126.0 9.142e+03 1.751e-09
 24.39405    129.0 9.182e+03 1.800e-09
 24.41667    131.8 9.292e+03 1.920e-09
 24.42689    130.7 9.784e+03 3.115e-09
 24.44546    132.0 9.899e+03 3.604e-09
 24.46610    133.4 9.996e+03 4.327e-09
 24.47762    134.9 1.011e+04 5.396e-09
 24.48795    134.7 1.070e+04 9.884e-09
 24.50739    136.2 1.095e+04 1.128e-08
 24.52803    137.5 1.123e+04 1.245e-08
 24.53878    138.5 1.153e+04 1.358e-08
 24.54910    137.0 1.195e+04 1.672e-08
 24.56932    136.8 1.206e+04 1.703e-08
 24.58961    136.5 1.211e+04 1.784e-08
 24.59993    135.0 1.190e+04 1.961e-08
 24.61061    135.2 1.192e+04 2.058e-08
 24.63125    135.2 1.205e+04 2.131e-08
 24.65076    134.9 1.260e+04 2.251e-08
 24.66108    133.4 1.253e+04 1.844e-08
 24.66733    131.8 1.295e+04 1.854e-08
 24.67760    131.1 1.311e+04 1.851e-08
 24.68640    130.3 1.335e+04 1.889e-08
 24.69156    129.5 1.344e+04 1.915e-08
 24.69825    124.5 1.597e+04 2.686e-08
 24.70857    111.6 2.084e+04 9.818e-08
 24.71698     97.8 2.030e+04 7.241e-07
 24.72214     94.1 1.979e+04 8.154e-07
 24.72921     81.9 1.980e+04 1.680e-06
 24.73953     67.0 2.068e+04 1.578e-06
 24.74755     51.1 2.259e+04 8.068e-07
 24.75271     46.9 2.290e+04 4.922e-07
 24.76018     34.9 2.001e+04 2.234e-07
 24.77050     29.3 1.689e+04 1.459e-07
 24.77813     27.8 1.609e+04 1.157e-07
 24.78329     28.0 1.584e+04 7.980e-08
 24.79114     24.4 1.735e+04 6.232e-08
 24.80147     20.1 1.805e+04 4.571e-08
 24.80871     10.3 1.908e+04 5.023e-08
 24.81387      9.1 1.781e+04 4.037e-08
 24.82211      8.0 1.729e+04 3.987e-08
 24.83417     -0.5 1.681e+04 6.592e-08
 24.84454      0.2 1.599e+04 5.668e-08
 24.85833     -2.1 1.530e+04 6.817e-08
 24.87898     -3.8 1.443e+04 3.852e-08
 24.89537     -6.6 1.347e+04 1.731e-08
 24.90569     -4.4 1.386e+04 2.362e-08
 24.92026    -11.1 1.191e+04 1.010e-08
 24.94091    -17.1 1.026e+04 6.629e-09
 24.95653    -19.0 9.811e+03 8.765e-09
 24.96685    -17.5 1.005e+04 9.101e-09
 24.98220    -17.6 1.039e+04 1.220e-08
 25.00284    -17.0 1.069e+04 1.382e-08
 25.01768    -16.8 1.055e+04 1.173e-08
 25.02800    -15.9 1.058e+04 1.183e-08
 25.04413    -16.3 1.005e+04 6.842e-09
 25.06477    -17.9 9.293e+03 3.785e-09
 25.07883    -19.2 8.648e+03 2.383e-09
 25.08915    -18.8 8.655e+03 2.356e-09
 25.10606    -19.3 8.473e+03 2.140e-09
 25.12976    -19.5 8.355e+03 2.098e-09
 25.15050    -17.9 8.293e+03 2.007e-09
 25.17851    -17.2 8.153e+03 1.761e-09
 25.21979    -16.2 8.157e+03 1.732e-09
 25.25216    -15.4 8.397e+03 1.993e-09
 25.27281    -14.5 8.330e+03 1.784e-09
 25.29195    -14.6 8.355e+03 2.140e-09
 25.31249    -16.1 8.882e+03 2.961e-09
 25.32344    -19.3 1.034e+04 6.135e-09
 25.33376    -20.0 1.071e+04 7.068e-09
 25.35378    -23.9 1.196e+04 1.780e-08
 25.37427    -24.8 1.323e+04 3.782e-08
 25.38460    -24.8 1.313e+04 3.885e-08
 25.39507    -24.3 1.404e+04 4.885e-08
 25.41571    -26.1 1.446e+04 4.699e-08
 25.43543    -30.1 1.345e+04 2.753e-08
 25.44575    -30.5 1.258e+04 1.654e-08
 25.45700    -34.6 1.163e+04 1.265e-08
 25.47764    -36.0 1.131e+04 1.132e-08
 25.49658    -36.7 1.111e+04 9.536e-09
 25.50690    -36.1 1.100e+04 9.469e-09
 25.51893    -36.4 1.086e+04 8.013e-09
 25.53957    -36.7 1.065e+04 6.194e-09
 25.55773    -36.9 1.049e+04 4.522e-09
 25.56805    -35.7 1.060e+04 5.984e-09
 25.58086    -35.7 1.046e+04 4.263e-09
 25.60151    -35.9 1.031e+04 3.025e-09
 25.61898    -35.5 1.008e+04 2.190e-09
 25.63972    -33.3 1.038e+04 2.880e-09
 25.67395    -33.1 1.014e+04 2.119e-09
 25.71524    -32.5 1.004e+04 1.899e-09
 25.74139    -31.8 1.025e+04 2.107e-09
 25.76203    -30.0 1.021e+04 2.074e-09
 25.78740    -29.6 1.058e+04 2.951e-09
 25.80234    -29.8 1.064e+04 3.217e-09
 25.81267    -29.4 1.059e+04 2.946e-09
 25.82859    -28.9 1.089e+04 3.657e-09
 25.84923    -28.9 1.117e+04 4.602e-09
 25.86350    -28.9 1.151e+04 5.560e-09
 25.87382    -28.0 1.112e+04 4.716e-09
 25.89052    -28.0 1.137e+04 5.298e-09
 25.91116    -28.2 1.169e+04 5.691e-09
 25.92465    -28.6 1.207e+04 6.133e-09
 25.93497    -27.9 1.147e+04 5.914e-09
 25.95245    -28.4 1.200e+04 6.754e-09
 25.97309    -29.5 1.286e+04 8.748e-09
 25.98580    -31.5 1.369e+04 1.407e-08
 25.99612    -31.4 1.361e+04 1.643e-08
 26.01438    -32.8 1.436e+04 3.243e-08
 26.03502    -33.3 1.515e+04 5.198e-08
 26.04696    -34.3 1.545e+04 5.850e-08
 26.05728    -34.0 1.548e+04 5.362e-08
 26.07631    -35.4 1.495e+04 4.274e-08
 26.09695    -36.4 1.406e+04 2.619e-08
 26.10811    -37.1 1.359e+04 1.912e-08
 26.11843    -36.6 1.360e+04 2.080e-08
 26.13824    -36.4 1.350e+04 1.904e-08
 26.15889    -35.6 1.349e+04 1.872e-08
 26.17953    -34.2 1.352e+04 1.872e-08
 26.20017    -34.1 1.479e+04 2.232e-08
 26.22009    -36.1 1.717e+04 4.550e-08
 26.23041    -37.1 1.665e+04 4.180e-08
 26.24146    -38.9 1.797e+04 1.860e-07
 26.25578    -39.5 1.817e+04 8.267e-07
 26.26089    -39.6 1.848e+04 4.260e-07
 26.26717    -40.7 1.856e+04 7.408e-07
 26.27749    -42.6 1.867e+04 9.559e-07
 26.28631    -45.6 1.858e+04 9.341e-07
 26.29147    -44.5 1.900e+04 2.731e-07
 26.30334    -47.2 1.839e+04 1.717e-07
 26.32403    -48.8 1.688e+04 9.453e-08
 26.34240    -48.8 1.551e+04 5.372e-08
 26.35272    -47.9 1.488e+04 2.275e-08
 26.36532    -47.8 1.410e+04 1.822e-08
 26.38597    -46.9 1.385e+04 1.623e-08
 26.40355    -45.3 1.384e+04 1.583e-08
 26.41387    -44.6 1.308e+04 9.630e-09
 26.42725    -43.3 1.320e+04 9.652e-09
 26.44790    -42.8 1.398e+04 1.143e-08
 26.46470    -42.9 1.469e+04 2.050e-08
 26.47503    -41.9 1.415e+04 9.465e-09
 26.48212    -42.2 1.469e+04 1.975e-08
 26.49244    -42.4 1.502e+04 3.350e-08
 26.50983    -42.1 1.577e+04 6.464e-08
 26.52586    -41.8 1.645e+04 9.406e-08
 26.53618    -41.5 1.572e+04 5.701e-08
 26.55111    -41.7 1.624e+04 7.755e-08
 26.57176    -42.0 1.646e+04 8.725e-08
 26.58701    -42.3 1.631e+04 7.735e-08
 26.59733    -41.6 1.641e+04 8.064e-08
 26.61305    -41.7 1.641e+04 7.997e-08
 26.63369    -41.9 1.604e+04 6.032e-08
 26.64816    -42.4 1.546e+04 3.610e-08
 26.65848    -41.7 1.618e+04 6.021e-08
 26.67498    -42.3 1.543e+04 3.209e-08
 26.69562    -43.0 1.474e+04 1.670e-08
 26.70932    -43.5 1.421e+04 1.074e-08
 26.71964    -42.9 1.445e+04 1.066e-08
 26.73691    -43.2 1.398e+04 8.095e-09
 26.75755    -43.0 1.382e+04 7.683e-09
 26.78861    -42.3 1.383e+04 8.088e-09
 26.82149    -41.6 1.384e+04 1.020e-08
 26.84214    -40.4 1.378e+04 8.121e-09
 26.87129    -39.9 1.374e+04 8.714e-09
 26.89287    -39.6 1.350e+04 9.686e-09
 26.90310    -39.3 1.359e+04 8.668e-09
 26.92270    -39.2 1.348e+04 8.964e-09
 26.94334    -38.9 1.350e+04 9.645e-09
 26.95393    -38.7 1.347e+04 9.063e-09
 26.96435    -38.0 1.333e+04 6.059e-09
 26.99515    -37.9 1.332e+04 6.623e-09
 27.03644    -38.2 1.338e+04 8.523e-09
 27.06611    -38.4 1.339e+04 1.003e-08
 27.08675    -38.3 1.361e+04 1.186e-08
 27.11901    -38.5 1.353e+04 1.135e-08
 27.16030    -38.3 1.326e+04 8.655e-09
 27.18841    -37.3 1.305e+04 5.776e-09
 27.20906    -37.1 1.304e+04 4.012e-09
 27.24287    -35.9 1.307e+04 2.863e-09
 27.28416    -34.4 1.309e+04 2.617e-09
 27.31072    -32.9 1.311e+04 2.859e-09
 27.33136    -32.4 1.321e+04 2.845e-09
 27.36674    -31.2 1.330e+04 3.846e-09
 27.40802    -30.0 1.351e+04 5.064e-09
 27.43302    -29.2 1.350e+04 5.566e-09
 27.45367    -29.0 1.378e+04 4.948e-09
 27.48018    -28.6 1.379e+04 4.921e-09
 27.49398    -28.3 1.377e+04 4.645e-09
 27.50430    -28.1 1.394e+04 4.409e-09
 27.52137    -27.6 1.389e+04 4.112e-09
 27.54201    -27.2 1.373e+04 3.963e-09
 27.55513    -26.7 1.366e+04 3.917e-09
 27.56546    -26.5 1.380e+04 4.449e-09
 27.58330    -26.3 1.382e+04 4.849e-09
 27.60394    -26.2 1.382e+04 5.401e-09
 27.61629    -26.0 1.386e+04 6.095e-09
 27.62661    -25.6 1.398e+04 7.138e-09
 27.65565    -25.6 1.395e+04 6.881e-09
 27.67764    -25.8 1.385e+04 6.598e-09
 27.69828    -26.2 1.420e+04 9.527e-09
 27.73832    -26.2 1.393e+04 5.899e-09
 27.76919    -26.3 1.383e+04 4.333e-09
 27.78942    -25.9 1.381e+04 3.925e-09
 27.79975    -26.1 1.373e+04 4.215e-09
 27.80447    -25.8 1.369e+04 4.046e-09
 27.81479    -25.8 1.367e+04 4.024e-09
 27.83102    -25.4 1.362e+04 3.844e-09
 27.85058    -24.9 1.356e+04 3.555e-09
 27.86090    -25.1 1.355e+04 4.100e-09
 27.87231    -24.5 1.351e+04 3.507e-09
 27.90151    -24.0 1.348e+04 2.882e-09
 27.92215    -23.8 1.351e+04 2.539e-09
 27.94466    -23.5 1.343e+04 2.321e-09
 27.98605    -22.0 1.318e+04 1.767e-09
 28.02391    -20.4 1.308e+04 1.476e-09
 28.04455    -20.9 1.306e+04 2.539e-09
 28.06862    -19.2 1.295e+04 2.609e-09
 28.10991    -17.6 1.283e+04 2.704e-09
 28.14621    -16.0 1.268e+04 2.678e-09
 28.16686    -16.6 1.263e+04 3.617e-09
 28.19248    -15.2 1.248e+04 3.646e-09
 28.23377    -13.3 1.242e+04 3.781e-09
 28.26852    -11.8 1.242e+04 3.952e-09
 28.28916    -12.4 1.237e+04 4.056e-09
 28.31634    -10.8 1.236e+04 3.849e-09
 28.35763     -9.2 1.235e+04 3.559e-09
 28.39083     -7.5 1.229e+04 3.323e-09
 28.41147     -7.8 1.226e+04 3.310e-09
 28.44021     -5.9 1.225e+04 3.110e-09
 28.48149     -3.9 1.224e+04 2.861e-09
 28.51313     -2.0 1.227e+04 2.713e-09
 28.53378     -2.7 1.226e+04 2.854e-09
 28.56407     -0.8 1.229e+04 3.051e-09
 28.60536      1.1 1.230e+04 3.093e-09
 28.63544      3.0 1.239e+04 2.909e-09
 28.65608      1.9 1.245e+04 2.048e-09
 28.68793      3.3 1.247e+04 2.047e-09
 28.72922      4.9 1.242e+04 2.438e-09
 28.75774      6.9 1.247e+04 3.353e-09
 28.77839      6.6 1.245e+04 3.233e-09
 28.81179      8.6 1.267e+04 4.129e-09
 28.85308     10.5 1.266e+04 4.607e-09
 28.88005     12.9 1.278e+04 3.659e-09
 28.90069     12.4 1.278e+04 4.200e-09
 28.93565     14.3 1.290e+04 3.804e-09
 28.97694     16.1 1.303e+04 3.296e-09
 29.00236     17.9 1.313e+04 3.109e-09
 29.02300     17.6 1.303e+04 4.668e-09
 29.05952     19.4 1.307e+04 5.117e-09
 29.10080     21.5 1.313e+04 6.011e-09
 29.12466     23.2 1.333e+04 6.156e-09
 29.13022     22.7 1.322e+04 5.662e-09
 29.14765     22.6 1.308e+04 6.055e-09
 29.18338     24.0 1.333e+04 5.326e-09
 29.22467     24.8 1.355e+04 5.068e-09
 29.24697     25.6 1.360e+04 5.258e-09
 29.26761     24.6 1.345e+04 5.300e-09
 29.30724     25.8 1.372e+04 5.373e-09
 29.34853     27.1 1.398e+04 5.404e-09
 29.38982     27.0 1.430e+04 3.809e-09
 29.43110     27.9 1.452e+04 6.169e-09
 29.47093     29.1 1.467e+04 9.177e-09
 29.49158     28.2 1.445e+04 1.075e-08
 29.51368     28.9 1.463e+04 1.141e-08
 29.55497     29.8 1.466e+04 1.153e-08
 29.59324     31.0 1.465e+04 1.213e-08
 29.61388     29.0 1.409e+04 1.556e-08
 29.63754     30.3 1.400e+04 1.391e-08
 29.67883     32.2 1.396e+04 9.442e-09
 29.71555     34.4 1.418e+04 4.782e-09
 29.73619     33.2 1.392e+04 2.246e-09
 29.76140     34.8 1.408e+04 1.509e-09
 29.80269     37.0 1.407e+04 1.485e-09
 29.83785     39.4 1.409e+04 1.626e-09
 29.85850     38.9 1.348e+04 2.548e-09
 29.88526     41.2 1.334e+04 3.445e-09
 29.92655     43.6 1.332e+04 4.453e-09
 29.96016     45.6 1.370e+04 4.632e-09
 29.98080     44.9 1.363e+04 2.707e-09
 30.00913     46.4 1.383e+04 2.337e-09
 30.05041     47.8 1.401e+04 2.054e-09
 30.08246     48.7 1.407e+04 2.092e-09
 30.10311     48.5 1.410e+04 2.078e-09
 30.12257     48.8 1.405e+04 2.571e-09
 30.14311     49.1 1.395e+04 3.400e-09
 30.15374     49.3 1.398e+04 4.814e-09
 30.16406     49.0 1.413e+04 4.831e-09
 30.18440     49.0 1.416e+04 6.594e-09
 30.20457     49.0 1.426e+04 8.631e-09
 30.22532     48.2 1.431e+04 1.113e-08
 30.24643     47.9 1.451e+04 1.323e-08
 30.26573     47.5 1.476e+04 1.584e-08
 30.27605     47.2 1.479e+04 1.627e-08
 30.28762     46.6 1.502e+04 1.742e-08
 30.30826     46.0 1.500e+04 1.697e-08
 30.32688     45.8 1.493e+04 1.487e-08
 30.33720     45.5 1.481e+04 1.252e-08
 30.34955     45.5 1.477e+04 1.082e-08
 30.37019     45.5 1.480e+04 9.223e-09
 30.38803     45.6 1.488e+04 7.954e-09
 30.39835     45.4 1.486e+04 6.660e-09
 30.41148     45.6 1.495e+04 6.346e-09
 30.43213     45.9 1.498e+04 6.368e-09
 30.44916     46.3 1.500e+04 6.658e-09
 30.45948     46.5 1.489e+04 6.184e-09
 30.47341     47.0 1.493e+04 7.245e-09
 30.49406     47.4 1.498e+04 8.410e-09
 30.51034     47.7 1.508e+04 9.352e-09
 30.52066     47.7 1.499e+04 9.792e-09
 30.53534     47.8 1.505e+04 1.102e-08
 30.55599     47.8 1.505e+04 1.136e-08
 30.57149     47.6 1.502e+04 1.071e-08
 30.59223     47.9 1.503e+04 1.382e-08
 30.62844     47.4 1.476e+04 1.193e-08
 30.66972     47.1 1.438e+04 8.657e-09
 30.69399     47.1 1.421e+04 6.224e-09
 30.71464     47.4 1.444e+04 9.627e-09
 30.75230     47.9 1.423e+04 7.309e-09
 30.79359     48.8 1.424e+04 5.901e-09
 30.81630     50.0 1.425e+04 4.943e-09
 30.82652     49.4 1.463e+04 6.299e-09
 30.84500     50.1 1.452e+04 5.684e-09
 30.86564     50.9 1.434e+04 5.050e-09
 30.87726     51.7 1.423e+04 4.400e-09
 30.88758     51.8 1.428e+04 4.599e-09
 30.90693     52.8 1.422e+04 3.846e-09
 30.92757     53.5 1.426e+04 3.431e-09
 30.93851     54.8 1.410e+04 2.761e-09
 30.95925     55.2 1.403e+04 3.745e-09
 31.00002     57.3 1.390e+04 2.684e-09
 31.04027     59.4 1.399e+04 1.690e-09
 31.06091     60.4 1.395e+04 2.183e-09
 31.08260     62.2 1.412e+04 1.436e-09
 31.12388     64.1 1.401e+04 1.214e-09
 31.16257     66.3 1.395e+04 1.240e-09
 31.18322     67.2 1.397e+04 2.216e-09
 31.20646     69.4 1.403e+04 2.655e-09
 31.23395     70.4 1.395e+04 2.751e-09
 31.24417     70.3 1.418e+04 2.884e-09
 31.25787     70.8 1.421e+04 3.265e-09
 31.27852     71.3 1.404e+04 3.969e-09
 31.29500     72.0 1.389e+04 5.010e-09
 31.30533     72.4 1.391e+04 6.323e-09
 31.31980     73.1 1.394e+04 7.032e-09
 31.34045     73.5 1.398e+04 7.370e-09
 31.35616     73.5 1.396e+04 7.279e-09
 31.36648     73.4 1.405e+04 7.780e-09
 31.38174     73.3 1.400e+04 7.542e-09
 31.40238     72.9 1.403e+04 7.566e-09
 31.41731     71.9 1.411e+04 8.139e-09
 31.42763     71.3 1.423e+04 1.220e-08
 31.44367     70.1 1.426e+04 1.543e-08
 31.46431     68.8 1.460e+04 1.712e-08
 31.47846     67.0 1.505e+04 1.622e-08
 31.48878     62.4 1.683e+04 2.895e-08
 31.50560     59.3 1.645e+04 3.376e-08
 31.52624     57.0 1.584e+04 3.958e-08
 31.53962     55.4 1.563e+04 4.855e-08
 31.54994     53.6 1.602e+04 5.823e-08
 31.56753     52.4 1.611e+04 4.716e-08
 31.58817     51.1 1.615e+04 3.387e-08
 31.60077     49.0 1.615e+04 2.444e-08
 31.61109     43.9 1.597e+04 1.889e-08
 31.62946     42.2 1.592e+04 2.829e-08
 31.65010     41.3 1.603e+04 4.812e-08
 31.66192     40.9 1.632e+04 7.239e-08
 31.67224     39.6 1.647e+04 8.490e-08
 31.69139     39.1 1.638e+04 8.126e-08
 31.71203     39.1 1.585e+04 6.274e-08
 31.72307     39.2 1.517e+04 3.858e-08
 31.73340     37.9 1.380e+04 1.024e-08
 31.75332     37.5 1.339e+04 6.841e-09
 31.77151     37.4 1.301e+04 4.832e-09
 31.78177     37.5 1.290e+04 4.785e-09
 31.79465     36.7 1.248e+04 3.321e-09
 31.82577     38.2 1.220e+04 2.904e-09
 31.86706     40.1 1.213e+04 2.907e-09
 31.89631     41.1 1.205e+04 2.961e-09
 31.90653     40.9 1.189e+04 2.639e-09
 31.91847     41.8 1.183e+04 2.855e-09
 31.93911     42.7 1.180e+04 3.122e-09
 31.95736     43.5 1.179e+04 3.396e-09
 31.96769     43.5 1.176e+04 3.357e-09
 31.98040     44.3 1.176e+04 3.586e-09
 32.00105     45.0 1.175e+04 3.789e-09
 32.01852     45.6 1.174e+04 3.979e-09
 32.02884     45.4 1.172e+04 3.944e-09
 32.04233     45.9 1.173e+04 4.135e-09
 32.06298     46.3 1.176e+04 4.360e-09
 32.07967     46.6 1.180e+04 4.679e-09
 32.08999     46.2 1.180e+04 4.980e-09
 32.10426     46.5 1.182e+04 5.360e-09
 32.12491     46.7 1.182e+04 5.677e-09
 32.14082     47.0 1.179e+04 5.812e-09
 32.15114     46.7 1.176e+04 5.698e-09
 32.16619     47.0 1.170e+04 5.600e-09
 32.18684     47.3 1.163e+04 5.485e-09
 32.20198     47.8 1.162e+04 5.491e-09
 32.21230     47.5 1.162e+04 5.485e-09
 32.22813     47.9 1.167e+04 5.640e-09
 32.24877     48.2 1.177e+04 5.968e-09
 32.26313     48.5 1.188e+04 6.445e-09
 32.27345     47.9 1.203e+04 7.614e-09
 32.29006     48.1 1.207e+04 8.074e-09
 32.31070     48.4 1.205e+04 8.053e-09
 32.32428     48.8 1.196e+04 7.809e-09
 32.33460     48.2 1.201e+04 8.683e-09
 32.35199     48.7 1.183e+04 7.709e-09
 32.37263     49.2 1.165e+04 6.593e-09
 32.38543     49.7 1.150e+04 5.557e-09
 32.39576     48.9 1.149e+04 5.710e-09
 32.41392     49.2 1.130e+04 5.125e-09
 32.43456     49.8 1.125e+04 5.115e-09
 32.44659     50.3 1.127e+04 5.347e-09
 32.45691     49.6 1.132e+04 5.789e-09
 32.47585     50.1 1.140e+04 6.488e-09
 32.49649     50.7 1.151e+04 7.373e-09
 32.50774     51.3 1.169e+04 8.179e-09
 32.51806     50.4 1.172e+04 7.939e-09
 32.53778     50.8 1.186e+04 8.112e-09
 32.55842     50.9 1.191e+04 8.068e-09
 32.56889     51.0 1.193e+04 7.914e-09
 32.57922     49.9 1.179e+04 7.201e-09
 32.59971     50.0 1.181e+04 7.181e-09
 32.61972     50.1 1.180e+04 7.145e-09
 32.63014     49.1 1.156e+04 6.216e-09
 32.65152     49.5 1.157e+04 6.022e-09
 32.69280     50.0 1.153e+04 5.294e-09
 32.73190     50.5 1.147e+04 4.433e-09
 32.75255     49.3 1.130e+04 3.812e-09
 32.77538     49.8 1.136e+04 3.748e-09
 32.80328     50.0 1.147e+04 3.913e-09
 32.81350     49.4 1.154e+04 4.063e-09
 32.82679     49.2 1.158e+04 4.200e-09
 32.84744     49.0 1.171e+04 4.632e-09
 32.86434     48.9 1.178e+04 5.132e-09
 32.87476     48.0 1.174e+04 5.005e-09
 32.88882     47.8 1.191e+04 5.890e-09
 32.90937     47.6 1.200e+04 6.650e-09
 32.92549     47.5 1.204e+04 7.347e-09
 32.93581     46.6 1.197e+04 6.724e-09
 32.95065     46.4 1.199e+04 7.336e-09
 32.97130     46.3 1.196e+04 7.849e-09
 32.98664     46.2 1.193e+04 8.332e-09
 32.99696     45.2 1.204e+04 7.797e-09
 33.01259     45.0 1.212e+04 8.628e-09
 33.03323     44.6 1.221e+04 1.022e-08
 33.04779     43.8 1.241e+04 1.225e-08
 33.05812     42.5 1.274e+04 1.242e-08
 33.07452     41.3 1.312e+04 1.613e-08
 33.09386     39.8 1.367e+04 2.240e-08
 33.10418     41.6 1.333e+04 1.957e-08
 33.10895     40.0 1.401e+04 2.831e-08
 33.11927     38.8 1.434e+04 3.204e-08
 33.13645     37.4 1.481e+04 4.127e-08
 33.15709     35.9 1.486e+04 4.231e-08
 33.17010     34.7 1.469e+04 3.954e-08
 33.18042     34.2 1.447e+04 3.525e-08
 33.19838     33.5 1.383e+04 2.300e-08
 33.21902     32.6 1.314e+04 1.371e-08
 33.23125     31.6 1.255e+04 8.624e-09
 33.24158     31.3 1.236e+04 7.679e-09
 33.26031     31.0 1.205e+04 6.122e-09
 33.28095     30.9 1.189e+04 5.297e-09
 33.29241     31.1 1.182e+04 5.098e-09
 33.30273     31.6 1.172e+04 4.951e-09
 33.32224     31.9 1.177e+04 4.963e-09
 33.34288     32.0 1.183e+04 5.027e-09
 33.35356     32.0 1.190e+04 5.150e-09
 33.36388     32.5 1.187e+04 5.162e-09
 33.38417     32.4 1.203e+04 5.592e-09
 33.40439     31.8 1.228e+04 6.393e-09
 33.41471     32.4 1.230e+04 6.966e-09
 33.42546     30.9 1.288e+04 9.639e-09
 33.44610     28.1 1.373e+04 1.658e-08
 33.46554     25.0 1.432e+04 2.712e-08
 33.47586     25.0 1.483e+04 3.424e-08
 33.48739     21.5 1.478e+04 3.580e-08
 33.50803     18.9 1.416e+04 2.835e-08
 33.52670     16.7 1.319e+04 1.538e-08
 33.53702     16.9 1.341e+04 1.721e-08
 33.54932     14.0 1.246e+04 7.091e-09
 33.56996     11.6 1.171e+04 4.090e-09
 33.58785     11.3 1.143e+04 3.408e-09
 33.59817     11.0 1.144e+04 3.366e-09
 33.61125     11.4 1.134e+04 3.056e-09
 33.64232     12.2 1.133e+04 2.669e-09
 33.68370     13.7 1.120e+04 2.277e-09
 33.71035     15.4 1.122e+04 2.182e-09
 33.73099     15.6 1.129e+04 2.219e-09
 33.76627     17.1 1.140e+04 2.340e-09
 33.79714     18.0 1.162e+04 2.750e-09
 33.81769     18.4 1.185e+04 3.371e-09
 33.83246     18.6 1.205e+04 4.517e-09
 33.84278     18.8 1.208e+04 4.569e-09
 33.85898     19.0 1.222e+04 5.767e-09
 33.87962     19.4 1.247e+04 6.484e-09
 33.89361     19.5 1.262e+04 6.435e-09
 33.90394     19.6 1.260e+04 6.080e-09
 33.92091     19.8 1.260e+04 5.855e-09
 33.94155     20.1 1.253e+04 5.295e-09
 33.95477     20.4 1.246e+04 4.597e-09
 33.96509     20.8 1.246e+04 4.552e-09
 33.98284     21.0 1.239e+04 3.925e-09
 34.00348     21.3 1.229e+04 3.514e-09
 34.01592     21.8 1.215e+04 3.462e-09
 34.02624     22.0 1.226e+04 3.554e-09
 34.04477     22.6 1.225e+04 3.607e-09
 34.06541     23.2 1.225e+04 3.880e-09
 34.07707     23.7 1.228e+04 4.519e-09
 34.08739     23.9 1.240e+04 4.887e-09
 34.10670     24.7 1.242e+04 5.687e-09
 34.12734     25.4 1.252e+04 6.548e-09
 34.13822     25.8 1.266e+04 7.469e-09
 34.14855     25.7 1.284e+04 7.769e-09
 34.16863     25.8 1.296e+04 8.973e-09
 34.18906     25.7 1.307e+04 1.033e-08
 34.19938     25.5 1.332e+04 1.138e-08
 34.20992     25.3 1.355e+04 1.395e-08
 34.23056     24.9 1.386e+04 1.823e-08
 34.25021     24.1 1.434e+04 2.530e-08
 34.26053     23.7 1.503e+04 3.626e-08
 34.27185     22.5 1.586e+04 6.125e-08
 34.29249     20.9 1.627e+04 7.586e-08
 34.31136     19.2 1.608e+04 6.699e-08
 34.32168     18.6 1.730e+04 1.300e-07
 34.33378     17.2 1.658e+04 9.497e-08
 34.35442     16.0 1.541e+04 4.643e-08
 34.37251     14.1 1.427e+04 2.043e-08
 34.38284     13.7 1.524e+04 3.841e-08
 34.39571     11.0 1.418e+04 2.105e-08
 34.41620      9.3 1.356e+04 1.967e-08
 34.42653      9.8 1.330e+04 1.676e-08
 34.43367      9.4 1.307e+04 1.663e-08
 34.44399      8.5 1.371e+04 2.469e-08
 34.45764      8.2 1.348e+04 2.192e-08
 34.47829      7.7 1.332e+04 1.976e-08
 34.49482      7.0 1.333e+04 1.946e-08
 34.50514      5.2 1.358e+04 1.977e-08
 34.51957      2.3 1.453e+04 2.769e-08
 34.53051      1.9 1.467e+04 3.034e-08
 34.53562      0.3 1.527e+04 3.539e-08
 34.54528     -2.2 1.639e+04 5.306e-08
 34.55560     -5.9 1.738e+04 1.050e-07
 34.56104     -6.2 1.746e+04 2.057e-07
 34.56620     -6.3 1.758e+04 2.360e-07
 34.57625     -6.0 1.774e+04 2.534e-07
 34.58645     -6.5 1.779e+04 2.413e-07
 34.59161     -7.0 1.765e+04 2.230e-07
 34.60210     -6.2 1.681e+04 1.359e-07
 34.61713     -7.7 1.598e+04 3.399e-08
 34.62745     -8.9 1.570e+04 2.336e-08
 34.64344    -16.4 1.340e+04 7.178e-09
 34.66408    -19.2 1.136e+04 6.747e-09
 34.67828    -19.1 1.146e+04 7.313e-09
 34.68860    -18.4 1.149e+04 7.217e-09
 34.70537    -18.8 1.182e+04 9.155e-09
 34.72601    -18.9 1.183e+04 1.065e-08
 34.73943    -19.9 1.219e+04 1.394e-08
 34.74975    -19.1 1.226e+04 1.352e-08
 34.76730    -19.6 1.237e+04 1.617e-08
 34.78794    -20.3 1.248e+04 1.858e-08
 34.80058    -20.9 1.247e+04 1.909e-08
 34.81091    -20.3 1.271e+04 2.107e-08
 34.82923    -21.3 1.280e+04 2.134e-08
 34.84987    -22.2 1.257e+04 1.907e-08
 34.86174    -22.8 1.213e+04 1.457e-08
 34.87206    -22.5 1.237e+04 1.739e-08
 34.89116    -23.2 1.198e+04 1.312e-08
 34.91267    -24.7 1.124e+04 7.117e-09
 34.93341    -24.7 1.147e+04 8.025e-09
 34.96361    -25.1 1.095e+04 6.464e-09
 34.99448    -24.7 1.092e+04 6.482e-09
 35.01502    -24.2 1.072e+04 6.181e-09
 35.03487    -23.3 1.058e+04 5.570e-09
 35.04520    -23.6 1.059e+04 5.062e-09
 35.05631    -23.2 1.063e+04 4.804e-09
 35.07695    -22.8 1.064e+04 4.964e-09
 35.09603    -22.3 1.055e+04 5.688e-09
 35.10635    -23.1 1.082e+04 5.798e-09
 35.11824    -22.7 1.122e+04 7.199e-09
 35.13888    -23.5 1.201e+04 1.024e-08
 35.15718    -25.2 1.301e+04 1.814e-08
 35.16750    -26.4 1.330e+04 2.375e-08
 35.18017    -27.3 1.376e+04 3.502e-08
 35.20082    -27.7 1.408e+04 4.381e-08
 35.21833    -29.1 1.444e+04 3.622e-08
 35.22866    -29.6 1.353e+04 2.294e-08
 35.24210    -35.4 1.570e+04 2.393e-08
 35.25402    -45.4 1.804e+04 4.903e-08
 35.25913    -45.6 1.777e+04 4.231e-08
 35.26781    -48.4 1.892e+04 5.326e-08
 35.27944    -55.6 1.841e+04 1.618e-07
 35.28981    -53.9 1.814e+04 1.234e-07
 35.30403    -58.1 1.866e+04 2.004e-07
 35.32468    -64.6 1.690e+04 9.518e-08
 35.34064    -70.4 1.449e+04 1.763e-08
 35.35096    -68.3 1.523e+04 3.423e-08
 35.36596    -73.2 1.296e+04 8.822e-09
 35.38661    -75.6 1.143e+04 4.323e-09
 35.40179    -76.2 1.096e+04 3.294e-09
 35.41211    -75.5 1.118e+04 3.740e-09
 35.42790    -75.9 1.090e+04 2.986e-09
 35.45896    -75.9 1.069e+04 2.547e-09
 35.50034    -75.6 1.053e+04 2.200e-09
 35.52429    -75.1 1.055e+04 2.276e-09
 35.54494    -74.6 1.052e+04 2.180e-09
 35.58292    -73.8 1.062e+04 2.212e-09
 35.62421    -72.9 1.059e+04 2.251e-09
 35.64660    -71.8 1.049e+04 2.261e-09
 35.66724    -71.1 1.051e+04 1.730e-09
 35.70678    -70.1 1.042e+04 1.837e-09
 35.74807    -69.2 1.039e+04 1.994e-09
 35.78936    -67.6 1.056e+04 2.009e-09
 35.83064    -67.2 1.068e+04 2.390e-09
 35.87057    -66.9 1.079e+04 2.576e-09
 35.89121    -66.4 1.101e+04 2.803e-09
 35.91322    -66.2 1.115e+04 2.870e-09
 35.95450    -66.4 1.131e+04 2.490e-09
 35.99287    -66.9 1.129e+04 2.010e-09
 36.01352    -66.6 1.169e+04 2.620e-09
 36.03708    -67.3 1.174e+04 2.410e-09
 36.07837    -67.8 1.205e+04 2.692e-09
 36.10923    -67.8 1.223e+04 3.365e-09
 36.12530    -68.0 1.224e+04 3.712e-09
 36.13563    -67.9 1.238e+04 3.842e-09
 36.15042    -67.8 1.234e+04 4.092e-09
 36.17107    -67.7 1.237e+04 4.225e-09
 36.18646    -67.6 1.242e+04 4.329e-09
 36.19678    -67.3 1.248e+04 4.465e-09
 36.21236    -67.1 1.258e+04 4.662e-09
 36.23300    -67.0 1.269e+04 4.817e-09
 36.24761    -67.0 1.274e+04 4.895e-09
 36.25793    -66.6 1.283e+04 5.142e-09
 36.27429    -66.7 1.293e+04 5.386e-09
 36.29493    -67.0 1.309e+04 5.529e-09
 36.30876    -68.1 1.366e+04 6.022e-09
 36.31909    -68.6 1.382e+04 9.937e-09
 36.33622    -70.3 1.429e+04 1.287e-08
 36.35686    -72.4 1.463e+04 1.764e-08
 36.36992    -74.6 1.485e+04 2.371e-08
 36.38024    -74.7 1.514e+04 2.989e-08
 36.39815    -76.8 1.515e+04 3.218e-08
 36.41879    -78.3 1.506e+04 3.282e-08
 36.43107    -79.2 1.459e+04 2.568e-08
 36.44139    -79.4 1.458e+04 2.423e-08
 36.46008    -79.9 1.405e+04 1.319e-08
 36.48072    -80.6 1.368e+04 6.217e-09
 36.49222    -81.3 1.347e+04 3.474e-09
 36.50254    -81.3 1.360e+04 3.609e-09
 36.52201    -81.5 1.335e+04 2.549e-09
 36.54265    -81.1 1.314e+04 2.175e-09
 36.55338    -80.4 1.319e+04 2.007e-09
 36.56370    -80.3 1.329e+04 1.984e-09
 36.58394    -79.7 1.330e+04 1.926e-09
 36.60421    -79.3 1.346e+04 1.944e-09
 36.61453    -79.6 1.361e+04 2.128e-09
 36.62523    -79.3 1.352e+04 2.513e-09
 36.64587    -79.1 1.339e+04 3.260e-09
 36.66536    -78.9 1.329e+04 4.431e-09
 36.67568    -79.0 1.321e+04 5.262e-09
 36.68716    -78.6 1.316e+04 7.000e-09
 36.70780    -78.0 1.312e+04 9.000e-09
 36.72651    -77.3 1.306e+04 1.058e-08
 36.73683    -77.1 1.301e+04 1.124e-08
 36.74909    -76.2 1.296e+04 1.167e-08
 36.76973    -75.3 1.295e+04 1.023e-08
 36.78766    -74.8 1.273e+04 8.180e-09
 36.79799    -74.6 1.271e+04 7.824e-09
 36.82144    -73.6 1.247e+04 6.446e-09
 36.84901    -71.9 1.215e+04 4.834e-09
 36.86966    -71.2 1.204e+04 3.915e-09
 36.90411    -68.9 1.174e+04 2.708e-09
 36.94540    -66.7 1.162e+04 2.040e-09
 36.97132    -64.7 1.155e+04 1.850e-09
 36.99196    -63.7 1.146e+04 1.488e-09
 37.02798    -61.5 1.144e+04 1.468e-09
 37.06109    -59.3 1.142e+04 1.610e-09
 37.08174    -60.4 1.139e+04 2.259e-09
 37.09362    -58.2 1.140e+04 3.034e-09
 37.11427    -56.8 1.129e+04 2.681e-09
 37.15184    -54.6 1.132e+04 3.351e-09
 37.19313    -52.5 1.134e+04 3.723e-09
 37.21593    -50.5 1.133e+04 3.814e-09
 37.23657    -48.9 1.130e+04 3.727e-09
 37.27570    -47.0 1.130e+04 3.832e-09
 37.31699    -45.4 1.136e+04 3.929e-09
 37.33824    -44.1 1.142e+04 4.595e-09
 37.35888    -42.2 1.145e+04 4.799e-09
 37.39956    -41.1 1.156e+04 6.090e-09
 37.43990    -39.9 1.175e+04 8.382e-09
 37.46054    -38.3 1.187e+04 8.832e-09
 37.48214    -37.3 1.196e+04 1.051e-08
 37.52342    -36.4 1.163e+04 9.368e-09
 37.56220    -35.3 1.107e+04 5.960e-09
 37.58285    -34.0 1.135e+04 7.623e-09
 37.60600    -32.8 1.075e+04 4.431e-09
 37.64729    -31.5 1.029e+04 2.589e-09
 37.68451    -30.1 9.978e+03 1.862e-09
 37.70515    -29.0 1.010e+04 2.070e-09
 37.72986    -27.3 9.949e+03 1.858e-09
 37.77115    -25.3 9.902e+03 1.851e-09
 37.80682    -23.4 9.894e+03 1.893e-09
 37.82746    -22.3 9.985e+03 2.614e-09
 37.85372    -20.3 9.944e+03 2.543e-09
 37.89501    -18.3 9.786e+03 2.374e-09
 37.92912    -16.1 9.536e+03 2.259e-09
 37.94977    -14.9 9.585e+03 2.373e-09
 37.97758    -12.3 9.476e+03 2.197e-09
 38.01887     -9.8 9.412e+03 1.898e-09
 38.05143     -7.5 9.318e+03 1.675e-09
 38.07207     -6.0 9.358e+03 1.747e-09
 38.10145     -3.8 9.380e+03 1.850e-09
 38.14273     -1.5 9.373e+03 2.276e-09
 38.17373      0.7 9.398e+03 2.808e-09
 38.19438      2.2 9.521e+03 2.982e-09
 38.21489      3.9 9.630e+03 3.816e-09
 38.23469      4.1 9.696e+03 3.984e-09
 38.24501      4.4 9.670e+03 3.757e-09
 38.25608      5.9 9.791e+03 4.992e-09
 38.27672      6.3 9.860e+03 5.319e-09
 38.29594      7.2 1.018e+04 7.265e-09
 38.31668      8.2 1.025e+04 6.500e-09
 38.34917      9.5 1.064e+04 1.033e-08
 38.39046     10.7 1.068e+04 1.154e-08
 38.41834     12.2 1.037e+04 1.001e-08
 38.43899     12.8 1.091e+04 1.323e-08
 38.47303     14.4 1.050e+04 1.091e-08
 38.50390     15.8 1.002e+04 8.396e-09
 38.52445     16.1 9.959e+03 7.763e-09
 38.54045     17.4 9.565e+03 6.021e-09
 38.55078     18.2 9.803e+03 7.186e-09
 38.56573     18.6 9.762e+03 6.763e-09
 38.59680     20.5 9.510e+03 5.802e-09
 38.63818     22.6 9.272e+03 5.254e-09
 38.66296     25.4 9.316e+03 5.325e-09
 38.67318     25.5 9.538e+03 6.451e-09
 38.68960     26.6 9.605e+03 6.716e-09
 38.71024     28.0 9.565e+03 6.642e-09
 38.72391     29.8 9.481e+03 6.399e-09
 38.73424     30.5 9.720e+03 7.159e-09
 38.75153     32.4 1.004e+04 7.733e-09
 38.77217     34.2 1.095e+04 9.540e-09
 38.78502     33.9 1.304e+04 1.424e-08
 38.79013     34.3 1.300e+04 1.816e-08
 38.79788     34.1 1.411e+04 2.222e-08
 38.80820     32.4 1.658e+04 3.635e-08
 38.81555     31.7 1.938e+04 9.677e-08
 38.82071     31.7 1.937e+04 1.858e-07
 38.82884     32.0 2.114e+04 4.418e-07
 38.83656     30.3 2.144e+04 1.374e-06
 38.84170     25.9 1.925e+04 5.086e-06
 38.84607     16.1 1.783e+04 1.482e-05
 38.84865     11.7 1.800e+04 8.443e-06
 38.85202      5.3 1.824e+04 6.703e-06
 38.85978      0.7 1.894e+04 3.230e-06
 38.87013     -2.3 2.013e+04 1.108e-06
 38.87670     -3.5 1.962e+04 4.498e-07
 38.88186     -2.4 1.918e+04 4.291e-07
 38.89077     -1.6 1.895e+04 2.752e-07
 38.90110     -0.6 1.884e+04 1.730e-07
 38.90727     -1.2 1.971e+04 9.040e-08
 38.91244     -0.6 1.971e+04 9.311e-08
 38.92174     -2.6 1.985e+04 6.527e-08
 38.93727    -10.4 1.861e+04 4.095e-08
 38.95275    -15.4 1.746e+04 8.583e-08
 38.96303    -17.1 1.717e+04 1.255e-07
 38.96843    -18.8 1.720e+04 2.079e-07
 38.97359    -18.2 1.733e+04 2.275e-07
 38.98367    -17.3 1.764e+04 2.955e-07
 38.99384    -16.7 1.764e+04 3.404e-07
 38.99900    -16.4 1.757e+04 2.847e-07
 39.00431    -15.6 1.767e+04 2.662e-07
 39.01464    -15.5 1.835e+04 2.156e-07
 39.02442    -16.8 1.907e+04 1.794e-07
 39.02958    -17.0 1.880e+04 1.457e-07
 39.03528    -20.0 1.820e+04 1.118e-07
 39.04560    -22.0 1.713e+04 1.024e-07
 39.05464    -23.8 1.603e+04 8.908e-08
 39.05888    -23.3 1.687e+04 1.115e-07
 39.06016    -23.5 1.711e+04 1.030e-07
 39.06625    -24.5 1.681e+04 1.113e-07
 39.07657    -25.5 1.636e+04 1.238e-07
 39.08557    -25.9 1.611e+04 1.247e-07
 39.09073    -25.9 1.621e+04 1.259e-07
 39.09721    -25.8 1.599e+04 1.281e-07
 39.10753    -25.4 1.559e+04 1.116e-07
 39.11615    -25.3 1.512e+04 8.536e-08
 39.12131    -25.4 1.515e+04 8.199e-08
 39.12818    -25.0 1.504e+04 6.507e-08
 39.14161    -26.1 1.416e+04 4.180e-08
 39.15198    -26.3 1.402e+04 4.244e-08
 39.16440    -26.4 1.292e+04 2.369e-08
 39.18504    -26.4 1.207e+04 1.237e-08
 39.20281    -26.3 1.154e+04 7.232e-09
 39.21314    -25.5 1.152e+04 9.483e-09
 39.22633    -25.0 1.130e+04 6.252e-09
 39.24698    -24.3 1.099e+04 4.612e-09
 39.26397    -23.4 1.070e+04 3.993e-09
 39.27429    -22.8 1.077e+04 4.237e-09
 39.28826    -21.7 1.065e+04 3.875e-09
 39.30891    -20.5 1.068e+04 3.725e-09
 39.32512    -19.5 1.066e+04 3.440e-09
 39.33544    -19.1 1.058e+04 3.285e-09
 39.35019    -17.9 1.057e+04 3.199e-09
 39.37605    -16.5 1.074e+04 3.559e-09
 39.39679    -15.8 1.057e+04 3.174e-09
 39.42264    -13.9 1.058e+04 3.106e-09
 39.46393    -12.5 1.077e+04 3.630e-09
 39.49845    -11.1 1.109e+04 4.774e-09
 39.51910    -10.9 1.113e+04 5.475e-09
 39.54650     -9.8 1.150e+04 8.562e-09
 39.58779     -8.3 1.178e+04 1.028e-08
 39.62076     -7.2 1.170e+04 9.260e-09
 39.64140     -6.6 1.171e+04 9.631e-09
 39.67037     -5.7 1.158e+04 7.139e-09
 39.70579     -4.7 1.123e+04 5.637e-09
 39.72643     -5.2 1.101e+04 4.380e-09
 39.74306     -3.4 1.072e+04 2.803e-09
 39.76371     -2.9 1.076e+04 2.803e-09
 39.79423     -1.5 1.077e+04 1.593e-09
 39.83552     -0.7 1.053e+04 1.321e-09
 39.86537      0.6 1.043e+04 1.522e-09
 39.88601      1.0 1.075e+04 1.913e-09
 39.91809      2.6 1.075e+04 2.548e-09
 39.94896      4.3 1.079e+04 3.357e-09
 39.96950      4.6 1.086e+04 3.497e-09
 39.98748      6.2 1.100e+04 4.480e-09
 40.00822      6.5 1.144e+04 5.600e-09
 40.03153      7.6 1.146e+04 5.690e-09
 40.04863      8.3 1.160e+04 6.209e-09
 40.05896      7.8 1.191e+04 6.601e-09
 40.07272      7.2 1.245e+04 8.807e-09
 40.09337      6.7 1.280e+04 1.337e-08
 40.10979      7.1 1.297e+04 1.859e-08
 40.12011      7.2 1.324e+04 2.380e-08
 40.13465      8.1 1.322e+04 2.039e-08
 40.15530      6.3 1.470e+04 1.659e-08
 40.17073      4.0 1.555e+04 1.362e-08
 40.17600      1.9 1.657e+04 1.447e-08
 40.18116     -2.3 1.710e+04 1.833e-08
 40.19133     -7.9 1.808e+04 3.692e-08
 40.20142    -11.4 1.754e+04 6.941e-08
 40.20658    -10.9 1.701e+04 8.615e-08
 40.21197    -11.1 1.630e+04 1.689e-07
 40.22229     -9.7 1.655e+04 2.127e-07
 40.23199     -9.6 1.718e+04 1.682e-07
 40.24237    -10.6 1.669e+04 1.127e-07
 40.25852    -12.0 1.691e+04 3.120e-08
 40.27916    -18.8 1.512e+04 6.678e-09
 40.29325    -23.6 1.131e+04 3.798e-09
 40.30357    -23.5 1.130e+04 4.148e-09
 40.33087    -24.3 1.103e+04 3.195e-09
 40.35459    -24.2 1.079e+04 2.887e-09
 40.37524    -23.6 1.103e+04 3.670e-09
 40.41354    -23.4 1.090e+04 3.910e-09
 40.45483    -23.3 1.092e+04 5.086e-09
 40.47690    -23.7 1.104e+04 6.351e-09
 40.49754    -24.4 1.178e+04 9.308e-09
 40.53740    -25.2 1.157e+04 1.088e-08
 40.57856    -25.3 1.046e+04 8.327e-09
 40.61985    -26.0 8.767e+03 3.127e-09
 40.66126    -26.4 7.807e+03 1.597e-09
 40.70087    -25.8 7.187e+03 1.079e-09
 40.72151    -25.8 7.184e+03 9.129e-10
 40.74384    -24.6 6.903e+03 7.829e-10
 40.78512    -23.1 6.696e+03 7.159e-10
 40.82317    -21.5 6.563e+03 6.423e-10
 40.84382    -21.1 6.691e+03 5.727e-10
 40.86770    -19.5 6.628e+03 5.086e-10
 40.90899    -18.3 6.598e+03 4.751e-10
 40.94548    -17.4 6.769e+03 5.361e-10
 40.96612    -16.9 6.878e+03 5.261e-10
 40.99156    -15.5 7.083e+03 7.544e-10
 41.03285    -13.1 7.324e+03 1.001e-09
 41.06778    -11.2 7.582e+03 9.830e-10
 41.08843    -10.5 7.787e+03 8.650e-10
 41.11542     -8.9 7.982e+03 8.062e-10
 41.15671     -7.5 8.226e+03 8.793e-10
 41.19009     -5.4 8.521e+03 9.147e-10
 41.21073     -4.5 8.685e+03 8.482e-10
 41.23929     -2.5 8.894e+03 7.829e-10
 41.28057     -0.6 9.423e+03 6.998e-10
 41.31240     -0.5 1.016e+04 9.082e-10
 41.33304     -0.0 1.047e+04 1.125e-09
 41.36315     -1.0 1.129e+04 5.138e-09
 41.40444     -0.1 1.237e+04 1.650e-08
 41.43470      0.5 1.258e+04 1.180e-08
 41.45535      1.3 1.255e+04 1.037e-08
 41.48701     -0.1 1.288e+04 3.930e-09
 41.52830     -1.6 1.233e+04 2.565e-09
 41.55701     -1.0 1.208e+04 2.259e-09
 41.57765      0.3 1.220e+04 2.128e-09
 41.61087      1.0 1.230e+04 2.171e-09
 41.65216      1.1 1.241e+04 2.740e-09
 41.67931      1.0 1.250e+04 4.003e-09
 41.69996      2.0 1.256e+04 6.797e-09
 41.73473      2.2 1.252e+04 5.523e-09
 41.77602      2.8 1.258e+04 2.801e-09
 41.80152      3.2 1.265e+04 1.672e-09
 41.82217      3.0 1.268e+04 1.286e-09
 41.84818      2.8 1.275e+04 1.315e-09
 41.86258      2.8 1.273e+04 1.465e-09
 41.87290      3.5 1.248e+04 1.529e-09
 41.88937      4.0 1.264e+04 1.788e-09
 41.91001      4.2 1.273e+04 2.211e-09
 41.92373      4.4 1.273e+04 3.079e-09
 41.93405      5.5 1.243e+04 3.205e-09
 41.95130      5.8 1.272e+04 4.137e-09
 41.97194      5.9 1.320e+04 6.112e-09
 41.98488      5.7 1.361e+04 9.265e-09
 41.99520      7.2 1.351e+04 7.017e-09
 42.01323      7.4 1.334e+04 1.048e-08
 42.03387      8.1 1.343e+04 1.440e-08
 42.04604      8.6 1.339e+04 1.642e-08
 42.06678     10.5 1.331e+04 1.337e-08
 42.10632     12.0 1.303e+04 1.220e-08
 42.14761     14.3 1.290e+04 6.914e-09
 42.16854     15.7 1.292e+04 3.486e-09
 42.18918     18.6 1.278e+04 6.255e-09
 42.21927     19.2 1.278e+04 5.007e-09
 42.22949     19.6 1.304e+04 5.578e-09
 42.24031     20.5 1.306e+04 5.194e-09
 42.26095     21.4 1.303e+04 5.130e-09
 42.28033     22.2 1.303e+04 5.375e-09
 42.29065     23.8 1.310e+04 8.314e-09
 42.30224     24.4 1.325e+04 9.296e-09
 42.32288     24.8 1.351e+04 1.014e-08
 42.34148     24.8 1.413e+04 1.164e-08
 42.35180     26.3 1.409e+04 1.794e-08
 42.36061     25.4 1.485e+04 2.562e-08
 42.37093     25.4 1.484e+04 3.544e-08
 42.38481     25.2 1.557e+04 5.054e-08
 42.40263     24.7 1.553e+04 4.974e-08
 42.41295     25.5 1.636e+04 8.656e-08
 42.42610     26.5 1.575e+04 6.429e-08
 42.44675     27.6 1.479e+04 2.883e-08
 42.46378     27.0 1.440e+04 1.039e-08
 42.47411     28.0 1.512e+04 1.706e-08
 42.48803     26.4 1.482e+04 6.430e-09
 42.50868     25.4 1.357e+04 4.069e-09
 42.52494     26.0 1.291e+04 3.859e-09
 42.53526     26.3 1.373e+04 4.555e-09
 42.54996     27.2 1.317e+04 4.449e-09
 42.57061     28.4 1.319e+04 4.722e-09
 42.58609     29.6 1.375e+04 5.216e-09
 42.59641     30.1 1.347e+04 5.376e-09
 42.61189     30.7 1.391e+04 6.108e-09
 42.63254     29.6 1.569e+04 1.137e-08
 42.64724     29.8 1.629e+04 4.488e-08
 42.65756     30.8 1.599e+04 1.434e-08
 42.66862     29.3 1.626e+04 3.628e-08
 42.67772     29.8 1.595e+04 4.619e-08
 42.68288     30.0 1.573e+04 3.459e-08
 42.68921     29.5 1.599e+04 4.397e-08
 42.69953     29.8 1.597e+04 5.398e-08
 42.70830     29.6 1.618e+04 6.168e-08
 42.71346     28.1 1.611e+04 3.885e-08
 42.72018     28.2 1.577e+04 4.231e-08
 42.73050     27.5 1.583e+04 4.991e-08
 42.73887     27.4 1.574e+04 5.043e-08
 42.74404     27.1 1.544e+04 4.746e-08
 42.75114     26.5 1.537e+04 4.489e-08
 42.76146     26.1 1.515e+04 4.277e-08
 42.76950     25.7 1.544e+04 4.891e-08
 42.77987     26.9 1.473e+04 3.026e-08
 42.79769     25.7 1.468e+04 1.733e-08
 42.81833     24.1 1.444e+04 1.172e-08
 42.83070     23.4 1.382e+04 1.031e-08
 42.84102     22.9 1.313e+04 6.879e-09
 42.85962     23.0 1.303e+04 6.903e-09
 42.88026     23.1 1.290e+04 7.606e-09
 42.89185     23.3 1.289e+04 9.325e-09
 42.90218     24.0 1.256e+04 8.136e-09
 42.92155     24.2 1.290e+04 1.144e-08
 42.94219     25.0 1.311e+04 1.409e-08
 42.95301     25.7 1.332e+04 1.634e-08
 42.96333     26.2 1.308e+04 1.596e-08
 42.98348     26.7 1.315e+04 1.659e-08
 43.00384     27.4 1.299e+04 1.559e-08
 43.01416     28.0 1.293e+04 1.606e-08
 43.02477     28.9 1.268e+04 1.377e-08
 43.04541     30.0 1.235e+04 9.795e-09
 43.06499     30.9 1.220e+04 6.481e-09
 43.07531     31.6 1.214e+04 7.328e-09
 43.08670     32.3 1.203e+04 4.897e-09
 43.10734     32.8 1.198e+04 3.424e-09
 43.12614     33.3 1.189e+04 2.688e-09
 43.13647     34.1 1.182e+04 3.316e-09
 43.14863     34.8 1.177e+04 2.783e-09
 43.16927     35.6 1.172e+04 2.501e-09
 43.18730     36.5 1.161e+04 2.391e-09
 43.19762     37.2 1.162e+04 2.754e-09
 43.21056     38.0 1.154e+04 2.674e-09
 43.23121     38.9 1.151e+04 2.710e-09
 43.24845     39.6 1.150e+04 2.814e-09
 43.25877     40.4 1.146e+04 3.015e-09
 43.27249     41.1 1.147e+04 3.140e-09
 43.29314     41.7 1.155e+04 3.446e-09
 43.30960     42.3 1.156e+04 3.873e-09
 43.31992     43.1 1.148e+04 3.805e-09
 43.33442     43.4 1.157e+04 4.416e-09
 43.35507     43.9 1.161e+04 5.151e-09
 43.37085     43.9 1.204e+04 6.142e-09
 43.38117     44.7 1.181e+04 6.074e-09
 43.39635     44.9 1.189e+04 6.717e-09
 43.42742     45.6 1.217e+04 7.716e-09
 43.46880     45.9 1.205e+04 6.611e-09
 43.49326     46.3 1.180e+04 4.108e-09
 43.51390     47.6 1.197e+04 5.654e-09
 43.55138     48.0 1.172e+04 2.680e-09
 43.59266     48.3 1.169e+04 1.553e-09
 43.61556     49.6 1.156e+04 1.540e-09
 43.63621     50.5 1.162e+04 1.195e-09
 43.67524     52.3 1.162e+04 1.223e-09
 43.71653     54.3 1.171e+04 1.291e-09
 43.73787     56.2 1.182e+04 1.402e-09
 43.75851     57.0 1.187e+04 1.211e-09
 43.79910     58.8 1.201e+04 1.430e-09
 43.83953     60.4 1.209e+04 1.721e-09
 43.86017     61.1 1.200e+04 1.462e-09
 43.88168     62.5 1.195e+04 1.768e-09
 43.92296     63.6 1.189e+04 2.066e-09
 43.96184     64.6 1.183e+04 2.387e-09
 43.98248     65.2 1.176e+04 2.293e-09
 44.00554     66.1 1.168e+04 2.828e-09
 44.04683     66.9 1.156e+04 3.093e-09
 44.07769     68.1 1.159e+04 3.279e-09
 44.09427     68.4 1.158e+04 3.245e-09
 44.10459     68.9 1.154e+04 3.347e-09
 44.11888     69.2 1.155e+04 3.292e-09
 44.13953     69.5 1.156e+04 3.319e-09
 44.15542     69.9 1.160e+04 3.427e-09
 44.16574     70.4 1.159e+04 3.569e-09
 44.18081     70.8 1.162e+04 3.706e-09
 44.20146     71.2 1.162e+04 3.887e-09
 44.21657     71.6 1.160e+04 4.058e-09
 44.22690     71.9 1.160e+04 4.412e-09
 44.24275     72.2 1.156e+04 4.580e-09
 44.26339     72.5 1.150e+04 4.804e-09
 44.27773     72.8 1.146e+04 4.965e-09
 44.28805     72.9 1.147e+04 5.693e-09
 44.30468     73.1 1.146e+04 5.908e-09
 44.32532     73.4 1.145e+04 6.213e-09
 44.33888     73.7 1.145e+04 6.614e-09
 44.34920     73.4 1.146e+04 7.333e-09
 44.36661     73.7 1.143e+04 7.561e-09
 44.38725     73.9 1.143e+04 7.740e-09
 44.40003     74.1 1.146e+04 8.080e-09
 44.41035     73.3 1.136e+04 7.789e-09
 44.42854     73.4 1.137e+04 8.046e-09
 44.44918     73.6 1.140e+04 8.474e-09
 44.46119     73.7 1.147e+04 9.204e-09
 44.47151     72.9 1.120e+04 7.795e-09
 44.49047     73.2 1.123e+04 8.155e-09
 44.51111     73.6 1.128e+04 8.289e-09
 44.52234     73.8 1.127e+04 8.127e-09
 44.53266     73.2 1.089e+04 6.375e-09
 44.55240     73.4 1.081e+04 5.960e-09
 44.57304     73.5 1.071e+04 5.486e-09
 44.58349     73.8 1.059e+04 5.044e-09
 44.59381     73.7 1.039e+04 4.508e-09
 44.61433     74.2 1.032e+04 4.307e-09
 44.63432     74.8 1.028e+04 4.188e-09
 44.64464     75.0 1.019e+04 4.090e-09
 44.65562     75.8 1.020e+04 4.046e-09
 44.67626     76.6 1.020e+04 4.073e-09
 44.69548     77.5 1.027e+04 4.176e-09
 44.70580     77.7 1.023e+04 4.263e-09
 44.71755     78.6 1.032e+04 4.448e-09
 44.73819     79.5 1.043e+04 4.665e-09
 44.75663     80.4 1.056e+04 4.914e-09
 44.76695     80.6 1.056e+04 5.316e-09
 44.77948     81.3 1.072e+04 5.769e-09
 44.80012     82.0 1.093e+04 6.532e-09
 44.81778     82.5 1.130e+04 8.053e-09
 44.82810     82.0 1.150e+04 9.672e-09
 44.84141     82.1 1.205e+04 1.311e-08
 44.86206     82.0 1.268e+04 1.835e-08
 44.87893     81.9 1.337e+04 2.546e-08
 44.88926     80.9 1.332e+04 2.509e-08
 44.90334     80.1 1.393e+04 3.019e-08
 44.92399     78.4 1.473e+04 3.828e-08
 44.94009     76.2 1.556e+04 5.335e-08
 44.95041     74.5 1.475e+04 3.831e-08
 44.96527     72.5 1.484e+04 4.269e-08
 44.98592     70.2 1.472e+04 4.141e-08
 45.00124     68.0 1.436e+04 3.647e-08
 45.01031     67.8 1.347e+04 2.603e-08
 45.01563     68.6 1.342e+04 2.559e-08
 45.02720     67.2 1.307e+04 2.151e-08
 45.04785     66.1 1.267e+04 1.743e-08
 45.06239     65.3 1.231e+04 1.386e-08
 45.07271     65.8 1.209e+04 1.278e-08
 45.08914     65.4 1.177e+04 1.057e-08
 45.10978     65.2 1.146e+04 8.787e-09
 45.12355     65.2 1.124e+04 7.466e-09
 45.13387     66.1 1.107e+04 7.175e-09
 45.15107     66.2 1.090e+04 6.289e-09
 45.17171     66.5 1.081e+04 5.952e-09
 45.18470     66.9 1.080e+04 5.996e-09
 45.19502     67.7 1.064e+04 5.714e-09
 45.21300     68.3 1.065e+04 5.828e-09
 45.23364     69.0 1.066e+04 6.141e-09
 45.24585     69.9 1.067e+04 6.567e-09
 45.25617     70.5 1.058e+04 6.301e-09
 45.27493     71.5 1.064e+04 6.782e-09
 45.29557     72.6 1.069e+04 7.421e-09
 45.30700     73.9 1.073e+04 7.997e-09
 45.31733     74.3 1.064e+04 7.668e-09
 45.33686     75.6 1.064e+04 7.988e-09
 45.35750     76.9 1.063e+04 7.935e-09
 45.36816     78.1 1.062e+04 7.646e-09
 45.37848     78.4 1.057e+04 7.494e-09
 45.39879     79.5 1.062e+04 7.185e-09
 45.41899     80.5 1.066e+04 6.943e-09
 45.42931     80.7 1.065e+04 7.087e-09
 45.44008     81.5 1.068e+04 7.082e-09
 45.46072     82.0 1.074e+04 7.217e-09
 45.48014     82.5 1.081e+04 7.601e-09
 45.49046     82.6 1.080e+04 7.825e-09
 45.50201     83.0 1.085e+04 8.221e-09
 45.52265     83.1 1.087e+04 8.592e-09
 45.54129     83.1 1.087e+04 8.878e-09
 45.55162     83.1 1.086e+04 8.952e-09
 45.56394     82.8 1.086e+04 9.108e-09
 45.58458     82.3 1.092e+04 9.352e-09
 45.60245     81.7 1.108e+04 1.024e-08
 45.61277     81.8 1.087e+04 9.568e-09
 45.62587     81.3 1.107e+04 1.079e-08
 45.64652     80.8 1.138e+04 1.317e-08
 45.66360     80.7 1.170e+04 1.598e-08
 45.67392     80.6 1.151e+04 1.436e-08
 45.68780     80.4 1.187e+04 1.750e-08
 45.70845     80.3 1.188e+04 1.760e-08
 45.72475     80.4 1.166e+04 1.624e-08
 45.73507     80.2 1.201e+04 1.935e-08
 45.74973     80.5 1.162e+04 1.653e-08
 45.77038     81.1 1.095e+04 1.170e-08
 45.78591     81.5 1.019e+04 7.347e-09
 45.79623     81.7 1.073e+04 1.073e-08
 45.81166     82.0 9.926e+03 6.409e-09
 45.83231     82.1 9.314e+03 3.797e-09
 45.84706     82.0 8.929e+03 2.484e-09
 45.85738     82.5 9.042e+03 3.172e-09
 45.87360     82.3 8.782e+03 2.201e-09
 45.89424     82.3 8.495e+03 2.061e-09
 45.90821     82.6 8.461e+03 2.056e-09
 45.91853     82.7 8.417e+03 2.198e-09
 45.93553     83.2 8.433e+03 2.271e-09
 45.95617     83.5 8.535e+03 2.617e-09
 45.96936     83.8 8.751e+03 3.387e-09
 45.97969     83.5 8.846e+03 3.913e-09
 45.99746     84.0 9.175e+03 5.416e-09
 46.01810     84.5 9.581e+03 7.380e-09
 46.03052     84.9 1.005e+04 9.525e-09
 46.04084     84.9 9.892e+03 8.978e-09
 46.05939     84.9 1.015e+04 9.717e-09
 46.08003     84.7 1.037e+04 1.007e-08
 46.09167     84.1 1.059e+04 1.047e-08
 46.10199     83.7 9.863e+03 7.635e-09
 46.12132     82.9 9.936e+03 7.784e-09
 46.14196     81.9 1.017e+04 8.537e-09
 46.15282     80.9 1.061e+04 1.068e-08
 46.16314     81.0 9.991e+03 8.434e-09
 46.18325     80.3 1.055e+04 1.117e-08
 46.20365     79.8 1.104e+04 1.448e-08
 46.21398     80.1 1.071e+04 1.258e-08
 46.22454     79.6 1.098e+04 1.451e-08
 46.24518     78.9 1.109e+04 1.499e-08
 46.26481     78.1 1.103e+04 1.450e-08
 46.27513     78.5 1.105e+04 1.457e-08
 46.28647     77.2 1.100e+04 1.359e-08
 46.30711     73.5 1.136e+04 1.437e-08
 46.32596     66.6 1.304e+04 2.058e-08
 46.33618     68.5 1.289e+04 2.004e-08
 46.33798     69.8 1.221e+04 1.681e-08
 46.34840     62.6 1.399e+04 2.932e-08
 46.36165     58.6 1.474e+04 3.929e-08
 46.36676     59.2 1.455e+04 3.850e-08
 46.37411     56.9 1.462e+04 4.034e-08
 46.38443     54.0 1.486e+04 4.150e-08
 46.39218     50.5 1.560e+04 4.460e-08
 46.39734     49.9 1.601e+04 4.718e-08
 46.40507     40.0 1.984e+04 7.268e-08
 46.41539     30.6 2.176e+04 1.473e-07
 46.42275     24.1 2.077e+04 3.527e-07
 46.42791     22.3 2.069e+04 7.460e-07
 46.43604     18.3 1.819e+04 3.639e-06
 46.44636     15.3 1.647e+04 1.473e-05
 46.45333     10.9 1.648e+04 1.429e-05
 46.45849      9.6 1.658e+04 1.168e-05
 46.46700      7.2 1.772e+04 3.907e-06
 46.47733      3.9 1.914e+04 9.295e-07
 46.48391      1.4 1.905e+04 3.437e-07
 46.48907      0.9 1.879e+04 2.356e-07
 46.49797      0.1 1.820e+04 1.608e-07
 46.50937     -0.3 1.767e+04 9.718e-08
 46.51974     -1.3 1.689e+04 6.477e-08
 46.53419     -0.8 1.645e+04 4.319e-08
 46.55484     -0.5 1.565e+04 2.835e-08
 46.57057     -0.2 1.476e+04 2.135e-08
 46.58089     -0.7 1.466e+04 2.103e-08
 46.59612     -0.0 1.413e+04 1.935e-08
 46.61677      1.4 1.367e+04 1.862e-08
 46.63172      3.1 1.321e+04 1.683e-08
 46.64205      2.6 1.323e+04 1.766e-08
 46.65806      4.2 1.301e+04 1.579e-08
 46.67870      5.5 1.275e+04 1.391e-08
 46.69288      6.7 1.250e+04 1.228e-08
 46.70320      6.4 1.262e+04 1.421e-08
 46.71999      7.7 1.249e+04 1.295e-08
 46.74063      8.9 1.226e+04 1.223e-08
 46.75403     10.4 1.224e+04 1.273e-08
 46.76435     10.2 1.250e+04 1.553e-08
 46.78192     11.7 1.232e+04 1.451e-08
 46.80256     13.3 1.224e+04 1.370e-08
 46.81518     14.7 1.206e+04 1.282e-08
 46.82550     14.6 1.210e+04 1.450e-08
 46.84385     15.8 1.209e+04 1.391e-08
 46.86449     17.2 1.206e+04 1.328e-08
 46.87634     18.5 1.210e+04 1.325e-08
 46.88666     17.9 1.235e+04 1.732e-08
 46.90578     19.4 1.249e+04 1.799e-08
 46.92642     20.4 1.252e+04 1.937e-08
 46.93749     22.2 1.228e+04 1.871e-08
 46.94781     22.1 1.218e+04 1.897e-08
 46.96771     23.5 1.232e+04 1.936e-08
 46.98832     24.7 1.244e+04 1.984e-08
 47.00896     25.0 1.208e+04 1.647e-08
 47.02964     25.9 1.217e+04 1.765e-08
 47.04947     26.8 1.219e+04 1.957e-08
 47.05979     26.3 1.159e+04 1.346e-08
 47.07093     27.2 1.148e+04 1.373e-08
 47.09157     28.1 1.132e+04 1.322e-08
 47.11063     28.9 1.106e+04 1.191e-08
 47.12095     27.9 1.060e+04 9.102e-09
 47.13286     28.7 1.029e+04 8.011e-09
 47.15350     29.2 1.010e+04 7.183e-09
 47.17178     29.6 9.956e+03 6.702e-09
 47.18210     29.0 9.703e+03 6.139e-09
 47.19479     29.5 9.635e+03 6.101e-09
 47.21543     30.0 9.643e+03 6.181e-09
 47.23293     30.5 9.678e+03 6.336e-09
 47.24325     29.8 9.895e+03 7.110e-09
 47.25672     30.4 9.879e+03 7.307e-09
 47.27737     31.2 9.806e+03 7.242e-09
 47.29408     32.1 9.678e+03 7.006e-09
 47.30441     31.9 9.619e+03 7.290e-09
 47.31865     32.7 9.486e+03 6.664e-09
 47.33930     33.2 9.405e+03 6.328e-09
 47.35524     33.9 9.309e+03 6.218e-09
 47.36556     33.3 9.539e+03 7.095e-09
 47.38058     33.7 9.673e+03 7.499e-09
 47.40123     33.9 9.867e+03 8.325e-09
 47.41639     33.9 1.032e+04 1.056e-08
 47.42671     33.9 1.041e+04 1.155e-08
 47.44251     34.7 1.068e+04 1.332e-08
 47.46732     35.8 1.111e+04 1.582e-08
 47.48806     35.6 1.102e+04 1.551e-08
 47.51496     37.7 1.054e+04 1.304e-08
 47.55625     39.5 9.541e+03 8.298e-09
 47.58972     42.1 9.160e+03 6.362e-09
 47.61037     42.9 8.878e+03 5.334e-09
 47.62841     43.7 8.782e+03 4.963e-09
 47.64895     45.0 8.836e+03 5.092e-09
 47.66032     46.7 9.071e+03 5.685e-09
 47.66205     46.0 8.738e+03 4.682e-09
 47.67132     46.6 8.616e+03 4.474e-09
 47.69024     48.9 9.002e+03 5.429e-09
 47.71088     51.7 9.464e+03 6.853e-09
 47.72215     55.5 9.980e+03 8.642e-09
 47.73248     53.2 1.652e+04 8.647e-09
 47.75217     53.6 2.835e+04 1.428e-08
 47.76760     50.8 3.412e+04 3.376e-08
 47.77788     50.9 3.377e+04 7.469e-08
 47.78321     47.5 2.979e+04 3.777e-07
 47.78837     35.1 1.957e+04 3.229e-06
 47.79852     22.1 1.883e+04 6.228e-06
 47.80624      7.6 2.170e+04 4.378e-06
 47.81116    -10.4 3.261e+04 6.383e-07
 47.81374    -23.4 3.636e+04 1.743e-07
 47.81914    -44.4 3.526e+04 3.588e-08
 47.82949    -58.2 3.456e+04 1.381e-08
 47.83920    -69.8 2.485e+04 8.692e-09
 47.84436    -72.6 1.374e+04 9.487e-09
 47.85013    -75.6 1.158e+04 8.371e-09
 47.86045    -75.8 1.144e+04 8.582e-09
 47.87598    -75.5 1.089e+04 9.194e-09
 47.89529    -74.1 1.121e+04 1.163e-08
 47.90561    -72.4 1.113e+04 1.166e-08
 47.91732    -71.6 1.121e+04 1.335e-08
 47.93796    -70.3 1.119e+04 1.391e-08
 47.95644    -69.0 1.112e+04 1.399e-08
 47.96677    -68.4 1.107e+04 1.425e-08
 47.97925    -67.3 1.077e+04 1.272e-08
 47.99989    -66.5 1.047e+04 1.082e-08
 48.01760    -66.1 1.016e+04 9.511e-09
 48.02792    -66.0 1.020e+04 1.010e-08
 48.04118    -65.5 1.013e+04 9.889e-09
 48.06183    -65.2 1.014e+04 1.035e-08
 48.07875    -65.1 1.034e+04 1.151e-08
 48.08907    -66.5 1.219e+04 1.778e-08
 48.10311    -68.9 1.430e+04 2.656e-08
 48.12376    -72.1 1.644e+04 4.445e-08
 48.13990    -74.4 1.747e+04 8.150e-08
 48.15018    -75.5 1.833e+04 2.870e-07
 48.15978    -76.4 1.847e+04 2.913e-07
 48.17011    -77.9 1.894e+04 2.656e-07
 48.17554    -80.3 1.939e+04 2.507e-07
 48.18070    -82.5 2.010e+04 3.327e-07
 48.19075    -86.4 2.048e+04 3.251e-07
 48.20096    -90.6 2.092e+04 3.527e-07
 48.20612    -94.2 2.083e+04 4.708e-07
 48.21139    -97.7 2.030e+04 6.289e-07
 48.22172   -100.3 1.992e+04 7.936e-07
 48.23153   -102.8 1.979e+04 8.413e-07
 48.23670   -105.1 1.943e+04 8.127e-07
 48.24236   -105.9 1.891e+04 6.537e-07
 48.25268   -106.0 1.856e+04 4.054e-07
 48.26211   -106.1 1.817e+04 2.329e-07
 48.26727   -107.0 1.768e+04 1.465e-07
 48.27333   -107.8 1.686e+04 8.950e-08
 48.28365   -109.0 1.586e+04 5.762e-08
 48.29269   -110.4 1.473e+04 3.945e-08
 48.29785   -111.6 1.363e+04 2.935e-08
 48.30429   -112.0 1.311e+04 2.556e-08
 48.31461   -112.1 1.297e+04 2.452e-08
 48.32331   -112.2 1.276e+04 2.235e-08
 48.33368   -114.1 1.167e+04 1.665e-08
 48.35084   -115.4 1.084e+04 1.334e-08
 48.37148   -116.1 1.052e+04 1.175e-08
 48.38451   -117.0 1.050e+04 1.092e-08
 48.39484   -117.4 1.097e+04 1.317e-08
 48.41277   -118.8 1.102e+04 1.272e-08
 48.43341   -120.4 1.099e+04 1.229e-08
 48.44567   -122.2 1.094e+04 1.197e-08
 48.45599   -122.4 1.125e+04 1.366e-08
 48.47470   -124.1 1.103e+04 1.213e-08
 48.49534   -125.8 1.090e+04 1.098e-08
 48.50682   -127.7 1.089e+04 1.040e-08
 48.51714   -128.2 1.077e+04 9.408e-09
 48.53663   -130.3 1.078e+04 9.290e-09
 48.55727   -132.6 1.109e+04 9.899e-09
 48.56797   -134.9 1.151e+04 1.165e-08
 48.57829   -134.8 1.137e+04 1.088e-08
 48.59856   -136.7 1.154e+04 1.175e-08
 48.61880   -138.7 1.156e+04 1.188e-08
 48.62913   -138.4 1.137e+04 1.061e-08
 48.63985   -140.1 1.115e+04 9.442e-09
 48.66049   -141.9 1.081e+04 7.964e-09
 48.67996   -143.6 1.049e+04 6.855e-09
 48.69028   -143.3 1.036e+04 6.308e-09
 48.70178   -144.6 1.019e+04 5.911e-09
 48.72242   -145.7 1.009e+04 5.727e-09
 48.74111   -146.6 1.005e+04 5.630e-09
 48.75143   -146.4 1.015e+04 5.772e-09
 48.76371   -147.8 1.019e+04 6.040e-09
 48.78435   -149.8 1.063e+04 7.314e-09
 48.80226   -152.2 1.147e+04 1.035e-08
 48.81258   -152.5 1.178e+04 1.222e-08
 48.82564   -154.8 1.248e+04 1.742e-08
 48.84628   -156.9 1.297e+04 2.251e-08
 48.86342   -159.1 1.311e+04 2.460e-08
 48.87374   -159.1 1.274e+04 2.134e-08
 48.88757   -161.1 1.247e+04 1.957e-08
 48.90822   -163.1 1.194e+04 1.528e-08
 48.92457   -165.2 1.138e+04 1.162e-08
 48.93489   -164.9 1.091e+04 9.098e-09
 48.94950   -166.6 1.059e+04 7.655e-09
 48.97015   -167.9 1.046e+04 6.926e-09
 48.98267   -169.0 1.045e+04 6.662e-09
 48.98792   -170.5 1.054e+04 7.190e-09
 48.99604   -169.7 1.039e+04 6.520e-09
 49.01143   -170.8 1.049e+04 6.549e-09
 49.03208   -172.0 1.073e+04 7.244e-09
 49.04687   -172.9 1.091e+04 8.625e-09
 49.05720   -172.1 1.068e+04 7.447e-09
 49.07337   -172.9 1.075e+04 8.494e-09
 49.09401   -173.4 1.072e+04 9.133e-09
 49.10803   -173.6 1.070e+04 9.262e-09
 49.11835   -173.0 1.055e+04 8.184e-09
 49.13530   -173.0 1.033e+04 8.123e-09
 49.15594   -172.9 1.009e+04 7.164e-09
 49.16918   -172.6 9.841e+03 5.853e-09
 49.17950   -172.2 9.831e+03 5.651e-09
 49.19723   -171.8 9.627e+03 4.553e-09
 49.21787   -171.1 9.469e+03 3.696e-09
 49.24893   -170.6 9.351e+03 3.148e-09
 49.28136   -169.8 9.093e+03 2.561e-09
 49.30200   -168.9 9.142e+03 2.582e-09
 49.33161   -167.6 8.835e+03 2.028e-09
 49.37289   -165.9 8.613e+03 1.629e-09
 49.40367   -164.0 8.508e+03 1.355e-09
 49.42431   -163.2 8.605e+03 1.444e-09
 49.45547   -161.3 8.614e+03 1.307e-09
 49.49676   -159.5 8.653e+03 1.247e-09
 49.52597   -157.8 8.676e+03 1.236e-09
 49.54661   -157.3 8.852e+03 1.404e-09
 49.57933   -156.0 9.013e+03 1.536e-09
 49.62062   -154.8 9.151e+03 1.763e-09
 49.64828   -153.8 9.266e+03 2.020e-09
 49.66892   -153.3 9.370e+03 2.114e-09
 49.70319   -152.2 9.480e+03 2.251e-09
 49.74448   -151.1 9.573e+03 2.287e-09
 49.77058   -150.0 9.614e+03 2.285e-09
 49.79123   -149.5 9.866e+03 2.536e-09
 49.82705   -148.6 1.008e+04 2.732e-09
 49.86834   -148.0 1.043e+04 3.177e-09
 49.89289   -147.6 1.085e+04 4.192e-09
 49.91353   -147.4 1.131e+04 6.925e-09
 49.95092   -147.3 1.178e+04 9.305e-09
 49.99220   -147.4 1.208e+04 1.063e-08
 50.01519   -147.9 1.214e+04 1.084e-08
 50.03584   -147.8 1.244e+04 1.279e-08
 50.07478   -147.8 1.229e+04 9.743e-09
 50.11607   -147.2 1.203e+04 6.124e-09
 50.13750   -146.0 1.185e+04 3.645e-09
 50.15814   -145.5 1.200e+04 3.880e-09
 50.19864   -144.1 1.205e+04 2.611e-09
 50.23916   -142.7 1.218e+04 2.130e-09
 50.25981   -142.2 1.228e+04 2.250e-09
 50.28122   -141.0 1.242e+04 2.063e-09
 50.30521   -139.8 1.247e+04 2.033e-09
 50.32586   -140.0 1.221e+04 1.973e-09
 50.36147   -138.9 1.243e+04 2.089e-09
 50.38211   -138.8 1.241e+04 1.908e-09
 50.40508   -137.7 1.256e+04 1.962e-09
 50.44637   -136.5 1.270e+04 2.011e-09
 50.48377   -135.2 1.284e+04 2.039e-09
 50.50442   -135.3 1.282e+04 1.669e-09
 50.52894   -133.9 1.294e+04 1.608e-09
 50.57023   -132.4 1.302e+04 1.581e-09
 50.60608   -131.1 1.317e+04 1.650e-09
 50.62672   -130.7 1.289e+04 1.257e-09
 50.65280   -129.4 1.306e+04 1.303e-09
 50.69409   -128.3 1.303e+04 1.728e-09
 50.72839   -127.4 1.307e+04 2.647e-09
 50.74903   -126.7 1.295e+04 1.740e-09
 50.77666   -125.9 1.303e+04 2.858e-09
 50.81795   -125.3 1.323e+04 4.657e-09
 50.85069   -124.8 1.353e+04 6.571e-09
 50.87133   -124.0 1.333e+04 5.527e-09
 50.90053   -123.7 1.370e+04 7.395e-09
 50.94181   -124.2 1.386e+04 7.852e-09
 50.97300   -124.7 1.382e+04 7.284e-09
 50.99364   -123.6 1.382e+04 7.935e-09
 51.02439   -123.7 1.374e+04 6.262e-09
 51.06568   -123.6 1.367e+04 4.007e-09
 51.09530   -123.4 1.354e+04 2.746e-09
 51.11595   -122.4 1.362e+04 3.516e-09
 51.14825   -122.2 1.349e+04 2.623e-09
 51.18954   -121.8 1.334e+04 2.435e-09
 51.21761   -121.4 1.325e+04 2.444e-09
 51.23825   -120.7 1.344e+04 2.775e-09
 51.27211   -120.6 1.333e+04 2.801e-09
 51.31340   -120.5 1.323e+04 2.822e-09
 51.33991   -120.4 1.310e+04 2.654e-09
 51.36056   -120.0 1.327e+04 3.157e-09
 51.39597   -120.0 1.319e+04 2.830e-09
 51.43726   -120.1 1.314e+04 2.605e-09
 51.46222   -120.3 1.311e+04 2.534e-09
 51.48286   -119.8 1.325e+04 2.913e-09
 51.51984   -120.0 1.323e+04 2.808e-09
 51.56112   -120.2 1.320e+04 2.766e-09
 51.58453   -120.2 1.314e+04 2.785e-09
 51.60517   -119.7 1.324e+04 2.684e-09
 51.64370   -119.8 1.322e+04 2.700e-09
 51.68499   -120.1 1.310e+04 3.047e-09
 51.70683   -120.6 1.313e+04 3.863e-09
 51.72748   -120.2 1.323e+04 3.878e-09
 51.76756   -121.2 1.326e+04 4.978e-09
 51.80849   -122.6 1.322e+04 5.983e-09
 51.82914   -122.0 1.324e+04 5.675e-09
 51.85013   -123.4 1.315e+04 6.042e-09
 51.89142   -124.8 1.307e+04 6.156e-09
 51.93080   -125.9 1.285e+04 5.944e-09
 51.95144   -125.0 1.275e+04 5.360e-09
 51.97400   -125.7 1.253e+04 4.695e-09
 52.01528   -126.0 1.231e+04 4.047e-09
 52.05311   -125.9 1.210e+04 3.335e-09
 52.07375   -125.1 1.199e+04 3.228e-09
 52.09786   -125.0 1.185e+04 2.794e-09
 52.13915   -124.8 1.173e+04 2.606e-09
 52.17541   -124.7 1.167e+04 2.584e-09
 52.19605   -123.7 1.159e+04 2.612e-09
 52.22172   -123.6 1.156e+04 2.760e-09
 52.26301   -123.9 1.148e+04 2.912e-09
 52.29772   -124.1 1.139e+04 2.945e-09
 52.31836   -122.6 1.135e+04 2.940e-09
 52.34558   -122.3 1.104e+04 2.723e-09
 52.38687   -122.0 1.082e+04 2.223e-09
 52.42002   -121.4 1.066e+04 1.742e-09
 52.44067   -119.7 1.070e+04 1.757e-09
 52.46945   -119.1 1.057e+04 1.426e-09
 52.51073   -118.5 1.044e+04 1.266e-09
 52.54233   -117.7 1.033e+04 1.201e-09
 52.56297   -116.4 1.041e+04 1.316e-09
 52.59331   -115.6 1.029e+04 1.284e-09
 52.63459   -114.8 1.015e+04 1.241e-09
 52.66463   -113.9 1.001e+04 1.159e-09
 52.68528   -112.6 1.004e+04 1.296e-09
 52.71717   -111.7 9.935e+03 1.159e-09
 52.75846   -110.7 9.888e+03 1.015e-09
 52.78694   -109.7 9.874e+03 8.936e-10
 52.80758   -108.5 9.870e+03 9.222e-10
 52.84103   -107.6 9.832e+03 8.173e-10
 52.88232   -106.7 9.805e+03 7.535e-10
 52.90925   -105.7 9.808e+03 7.346e-10
 52.92989   -104.7 9.891e+03 7.460e-10
 52.94991   -103.8 9.895e+03 7.420e-10
 52.97055   -103.3 9.941e+03 7.659e-10
 53.00618   -102.7 1.009e+04 8.166e-10
 53.03155   -102.5 1.027e+04 1.179e-09
 53.05220   -101.9 1.038e+04 1.205e-09
 53.08876   -102.1 1.053e+04 2.273e-09
 53.13004   -102.4 1.078e+04 3.974e-09
 53.15386   -103.1 1.109e+04 5.648e-09
 53.17450   -103.5 1.140e+04 7.379e-09
 53.21262   -104.6 1.146e+04 7.831e-09
 53.25390   -105.2 1.131e+04 6.802e-09
 53.27616   -105.5 1.103e+04 4.314e-09
 53.29681   -105.8 1.102e+04 3.721e-09
 53.33648   -105.8 1.086e+04 2.335e-09
 53.37777   -105.5 1.081e+04 2.063e-09
 53.41905   -105.5 1.096e+04 2.355e-09
 53.46034   -105.4 1.095e+04 3.381e-09
 53.50013   -105.4 1.087e+04 4.108e-09
 53.52077   -105.5 1.085e+04 4.049e-09
 53.54292   -105.5 1.079e+04 4.093e-09
 53.58420   -105.2 1.041e+04 3.573e-09
 53.62244   -104.5 1.011e+04 2.611e-09
 53.64308   -104.2 1.017e+04 2.569e-09
 53.66678   -103.5 1.005e+04 2.105e-09
 53.70807   -102.8 9.993e+03 1.848e-09
 53.74474   -102.0 9.969e+03 1.692e-09
 53.76539   -101.8 1.007e+04 1.873e-09
 53.79064   -100.9 1.005e+04 1.604e-09
 53.83193    -99.9 1.006e+04 1.336e-09
 53.86705    -98.7 1.009e+04 1.080e-09
 53.88769    -98.6 1.008e+04 9.849e-10
 53.91450    -97.3 1.011e+04 7.778e-10
 53.95579    -95.9 1.012e+04 6.234e-10
 53.98935    -94.4 1.013e+04 5.116e-10
 54.01000    -94.2 1.017e+04 5.013e-10
 54.03836    -92.6 1.019e+04 4.401e-10
 54.07965    -91.0 1.022e+04 4.159e-10
 54.11166    -89.4 1.024e+04 4.127e-10
 54.13230    -89.4 1.029e+04 4.313e-10
 54.16223    -88.1 1.043e+04 4.996e-10
 54.20351    -87.0 1.047e+04 6.611e-10
 54.23397    -85.8 1.053e+04 8.728e-10
 54.25461    -85.9 1.060e+04 9.150e-10
 54.28609    -84.9 1.073e+04 1.076e-09
 54.32738    -84.0 1.085e+04 1.150e-09
 54.35627    -83.1 1.091e+04 1.171e-09
 54.37691    -83.4 1.094e+04 1.034e-09
 54.40995    -82.3 1.109e+04 9.122e-10
 54.45124    -81.1 1.127e+04 7.838e-10
 54.47858    -80.0 1.136e+04 7.401e-10
 54.49922    -79.9 1.136e+04 6.426e-10
 54.53381    -78.7 1.152e+04 6.515e-10
 54.57510    -77.6 1.164e+04 8.001e-10
 54.60088    -76.2 1.163e+04 1.027e-09
 54.62153    -75.8 1.163e+04 9.010e-10
 54.65767    -74.2 1.173e+04 1.025e-09
 54.69896    -72.6 1.182e+04 1.056e-09
 54.72319    -70.9 1.184e+04 1.054e-09
 54.74383    -70.3 1.189e+04 8.580e-10
 54.78154    -68.3 1.198e+04 8.229e-10
 54.82282    -66.3 1.202e+04 8.143e-10
 54.84549    -64.5 1.233e+04 8.708e-10
 54.86614    -63.8 1.233e+04 7.226e-10
 54.90540    -62.2 1.231e+04 1.095e-09
 54.94669    -60.5 1.235e+04 1.777e-09
 54.96780    -58.9 1.252e+04 2.430e-09
 54.98844    -58.1 1.251e+04 2.459e-09
 55.02926    -56.8 1.274e+04 3.033e-09
 55.06946    -56.0 1.285e+04 3.130e-09
 55.09011    -55.1 1.283e+04 3.072e-09
 55.11184    -54.5 1.309e+04 2.914e-09
 55.15312    -53.8 1.323e+04 2.383e-09
 55.19177    -53.1 1.340e+04 1.912e-09
 55.21241    -52.5 1.339e+04 2.082e-09
 55.23570    -51.7 1.361e+04 1.732e-09
 55.27699    -50.9 1.371e+04 1.693e-09
 55.31407    -50.9 1.426e+04 1.957e-09
 55.33472    -51.0 1.424e+04 2.971e-09
 55.35956    -51.5 1.442e+04 5.286e-09
 55.40085    -52.5 1.477e+04 6.836e-09
 55.43638    -53.8 1.477e+04 6.465e-09
 55.45702    -54.3 1.479e+04 7.799e-09
 55.48342    -54.5 1.494e+04 2.892e-09
 55.52471    -54.4 1.517e+04 1.132e-09
 55.55869    -53.5 1.524e+04 7.627e-10
 55.57933    -53.3 1.518e+04 7.587e-10
 55.59460    -51.7 1.521e+04 7.005e-10
 55.61525    -51.6 1.506e+04 6.783e-10
 55.64857    -50.2 1.506e+04 6.887e-10
 55.68099    -48.9 1.509e+04 7.415e-10
 55.70163    -48.8 1.477e+04 1.085e-09
 55.73115    -47.5 1.477e+04 1.182e-09
 55.77243    -46.5 1.483e+04 1.228e-09
 55.80330    -45.6 1.494e+04 1.238e-09
 55.82394    -45.1 1.475e+04 1.432e-09
 55.85501    -44.6 1.489e+04 1.386e-09
 55.89630    -44.3 1.506e+04 1.425e-09
 55.92560    -44.2 1.473e+04 1.657e-09
 55.94625    -43.7 1.451e+04 2.006e-09
 55.97887    -43.7 1.419e+04 2.095e-09
 56.02016    -43.4 1.388e+04 2.351e-09
 56.04791    -42.8 1.371e+04 2.533e-09
 56.06855    -42.8 1.356e+04 2.550e-09
 56.10273    -41.7 1.340e+04 2.366e-09
 56.14402    -40.3 1.329e+04 2.146e-09
 56.17021    -38.7 1.325e+04 1.900e-09
 56.19086    -38.4 1.310e+04 1.644e-09
 56.22659    -36.6 1.315e+04 1.363e-09
 56.26788    -34.8 1.321e+04 1.251e-09
 56.29252    -33.0 1.326e+04 1.249e-09
 56.31316    -32.4 1.308e+04 1.183e-09
 56.35046    -31.0 1.319e+04 1.509e-09
 56.39174    -29.3 1.308e+04 2.394e-09
 56.41483    -27.6 1.317e+04 3.399e-09
 56.43547    -26.7 1.296e+04 3.662e-09
 56.47432    -25.4 1.318e+04 4.417e-09
 56.51561    -24.5 1.338e+04 4.972e-09
 56.53713    -24.1 1.349e+04 5.907e-09
 56.55778    -24.0 1.351e+04 7.359e-09
 56.59818    -23.7 1.341e+04 8.098e-09
 56.63879    -22.8 1.306e+04 7.018e-09
 56.65944    -22.9 1.299e+04 7.005e-09
 56.68076    -22.0 1.290e+04 4.927e-09
 56.72204    -20.5 1.295e+04 4.696e-09
 56.76110    -18.9 1.313e+04 5.123e-09
 56.78165    -18.4 1.308e+04 6.804e-09
 56.79410    -16.6 1.323e+04 7.241e-09
 56.81474    -16.2 1.342e+04 7.471e-09
 56.83238    -16.9 1.486e+04 8.978e-09
 56.84270    -20.2 1.597e+04 2.137e-08
 56.85603    -21.5 1.648e+04 6.142e-08
 56.87667    -21.5 1.708e+04 1.600e-07
 56.89353    -21.5 1.787e+04 2.851e-07
 56.90380    -22.8 1.803e+04 3.139e-07
 56.91270    -23.7 1.814e+04 3.253e-07
 56.92182    -25.2 1.822e+04 3.081e-07
 56.92703    -25.4 1.777e+04 1.940e-07
 56.93861    -28.8 1.777e+04 2.153e-07
 56.95468    -30.9 1.766e+04 2.515e-07
 56.96501    -32.1 1.714e+04 1.889e-07
 56.97989    -32.7 1.727e+04 2.315e-07
 57.00054    -33.2 1.669e+04 1.660e-07
 57.01584    -33.7 1.532e+04 6.428e-08
 57.02616    -34.5 1.512e+04 6.714e-08
 57.04182    -34.8 1.409e+04 3.319e-08
 57.06247    -34.8 1.345e+04 1.751e-08
 57.07699    -34.6 1.326e+04 1.031e-08
 57.08731    -34.4 1.320e+04 1.273e-08
 57.10376    -33.9 1.300e+04 8.160e-09
 57.12440    -33.1 1.289e+04 5.877e-09
 57.13814    -32.3 1.289e+04 4.605e-09
 57.14847    -32.3 1.283e+04 4.492e-09
 57.16569    -31.6 1.277e+04 3.429e-09
 57.18633    -30.8 1.282e+04 2.816e-09
 57.21739    -29.8 1.286e+04 2.423e-09
 57.25032    -28.3 1.254e+04 1.890e-09
 57.27097    -28.6 1.242e+04 1.919e-09
 57.30007    -26.1 1.220e+04 1.461e-09
 57.34135    -24.4 1.216e+04 1.156e-09
 57.37263    -22.6 1.220e+04 7.865e-10
 57.39327    -23.1 1.225e+04 8.907e-10
 57.42393    -21.4 1.212e+04 6.117e-10
 57.46521    -19.6 1.206e+04 4.694e-10
 57.49493    -17.7 1.201e+04 4.306e-10
 57.51558    -18.1 1.201e+04 5.602e-10
 57.54779    -16.0 1.205e+04 5.362e-10
 57.58908    -14.2 1.194e+04 6.848e-10
 57.61724    -12.0 1.168e+04 1.112e-09
 57.63788    -12.5 1.152e+04 1.726e-09
 57.67165     -9.4 1.151e+04 2.407e-09
 57.71294     -7.1 1.148e+04 2.291e-09
 57.73955     -4.4 1.163e+04 1.582e-09
 57.76019     -4.8 1.153e+04 2.426e-09
 57.79551     -2.6 1.144e+04 2.270e-09
 57.83680     -0.1 1.142e+04 2.364e-09
 57.86185      2.5 1.145e+04 2.639e-09
 57.88250      2.5 1.140e+04 3.008e-09
 57.91938      5.0 1.147e+04 3.329e-09
 57.96066      7.4 1.168e+04 3.982e-09
 57.98416      9.7 1.185e+04 5.154e-09
 58.00480      9.2 1.173e+04 5.619e-09
 58.04324     11.3 1.204e+04 9.162e-09
 58.08453     13.7 1.258e+04 1.377e-08
 58.10637     14.7 1.279e+04 1.716e-08
 58.11659     14.3 1.271e+04 1.820e-08
 58.13594     15.3 1.283e+04 1.985e-08
 58.15658     16.0 1.285e+04 2.062e-08
 58.16742     16.8 1.297e+04 2.052e-08
 58.17774     16.4 1.244e+04 1.492e-08
 58.19787     17.5 1.230e+04 1.345e-08
 58.21825     18.0 1.228e+04 1.262e-08
 58.22867     17.3 1.187e+04 9.877e-09
 58.23930     19.1 1.190e+04 9.096e-09
 58.25994     20.0 1.124e+04 4.435e-09
 58.29096     21.9 1.129e+04 4.155e-09
 58.33043     23.7 1.139e+04 4.433e-09
 58.35107     23.5 1.098e+04 3.095e-09
 58.37354     25.7 1.117e+04 4.452e-09
 58.41482     28.4 1.150e+04 6.219e-09
 58.44569     28.8 1.166e+04 7.803e-09
 58.46286     29.5 1.171e+04 9.044e-09
 58.47319     29.6 1.146e+04 8.473e-09
 58.48688     30.6 1.154e+04 9.343e-09
 58.50753     31.5 1.163e+04 9.995e-09
 58.52402     32.4 1.164e+04 9.947e-09
 58.53434     32.4 1.135e+04 7.735e-09
 58.54881     33.2 1.126e+04 7.053e-09
 58.56946     34.1 1.109e+04 6.090e-09
 58.58517     34.9 1.096e+04 5.204e-09
 58.59549     34.8 1.065e+04 4.044e-09
 58.61074     35.7 1.049e+04 3.447e-09
 58.63139     36.4 1.039e+04 3.114e-09
 58.66245     38.1 1.027e+04 2.718e-09
 58.69735     40.3 1.027e+04 2.793e-09
 58.71799     40.6 1.000e+04 2.423e-09
 58.74512     42.6 1.020e+04 3.203e-09
 58.78641     44.7 1.059e+04 5.067e-09
 58.81965     46.7 1.106e+04 7.666e-09
 58.84030     46.8 1.060e+04 7.520e-09
 58.86898     48.4 1.083e+04 8.006e-09
 58.91027     49.8 1.081e+04 7.662e-09
 58.94196     51.1 1.072e+04 6.724e-09
 58.96260     51.0 1.012e+04 3.618e-09
 58.99285     52.6 1.018e+04 3.887e-09
 59.03413     54.5 1.045e+04 5.012e-09
 59.06427     56.3 1.090e+04 6.920e-09
 59.08491     56.5 1.054e+04 5.050e-09
 59.11671     57.9 1.102e+04 6.690e-09
 59.14758     58.1 1.129e+04 7.492e-09
 59.16812     58.4 1.140e+04 7.483e-09
 59.18638     58.9 1.142e+04 7.264e-09
 59.19670     59.0 1.126e+04 6.814e-09
 59.20941     59.4 1.130e+04 6.367e-09
 59.23005     59.7 1.135e+04 6.241e-09
 59.24753     59.9 1.140e+04 6.417e-09
 59.25785     60.1 1.129e+04 6.001e-09
 59.27134     60.2 1.133e+04 6.187e-09
 59.29198     60.2 1.141e+04 6.514e-09
 59.30868     60.2 1.155e+04 6.851e-09
 59.31900     60.5 1.138e+04 6.344e-09
 59.33327     60.3 1.148e+04 6.526e-09
 59.35392     60.1 1.149e+04 6.548e-09
 59.36984     59.8 1.144e+04 6.556e-09
 59.38016     60.2 1.153e+04 7.284e-09
 59.39520     59.9 1.148e+04 7.524e-09
 59.41585     59.6 1.144e+04 7.484e-09
 59.43099     59.2 1.129e+04 7.165e-09
 59.44131     59.8 1.160e+04 8.978e-09
 59.45713     59.5 1.145e+04 8.088e-09
 59.47778     59.3 1.122e+04 6.524e-09
 59.49214     59.0 1.096e+04 4.801e-09
 59.50246     58.9 1.190e+04 8.724e-09
 59.51907     58.6 1.170e+04 6.256e-09
 59.53971     58.1 1.139e+04 4.107e-09
 59.55329     57.3 1.085e+04 2.929e-09
 59.56362     57.4 1.290e+04 8.472e-09
 59.57177     57.2 1.222e+04 5.100e-09
 59.58209     56.7 1.255e+04 6.878e-09
 59.60164     56.5 1.174e+04 4.544e-09
 59.61445     56.3 1.096e+04 3.868e-09
 59.62477     55.4 1.426e+04 1.394e-08
 59.64293     54.7 1.428e+04 1.085e-08
 59.66357     53.7 1.423e+04 9.473e-09
 59.67560     51.7 1.426e+04 1.133e-08
 59.68592     48.3 1.811e+04 1.141e-07
 59.70486     46.6 1.761e+04 9.961e-08
 59.72550     45.7 1.650e+04 7.128e-08
 59.73675     45.4 1.506e+04 4.342e-08
 59.74707     44.2 1.677e+04 8.792e-08
 59.76679     43.3 1.478e+04 3.590e-08
 59.78743     41.9 1.281e+04 1.820e-08
 59.79791     41.1 1.155e+04 1.228e-08
 59.80823     40.1 1.196e+04 1.509e-08
 59.82872     40.2 1.125e+04 1.148e-08
 59.84874     41.0 1.079e+04 9.209e-09
 59.85906     40.4 1.100e+04 1.049e-08
 59.87001     41.4 1.055e+04 8.139e-09
 59.89065     42.5 1.020e+04 6.240e-09
 59.90989     43.4 9.955e+03 4.854e-09
 59.92021     43.2 9.990e+03 5.095e-09
 59.93194     43.9 9.799e+03 4.211e-09
 59.95258     44.6 9.556e+03 3.765e-09
 59.97104     45.7 9.465e+03 3.732e-09
 59.98136     45.6 9.568e+03 4.026e-09
 59.99387     46.6 9.590e+03 4.116e-09
 60.01451     47.4 9.643e+03 4.353e-09
 60.03220     48.2 9.707e+03 4.714e-09
 60.04252     48.1 9.813e+03 5.130e-09
 60.05580     48.7 9.903e+03 5.688e-09
 60.07644     49.2 9.988e+03 6.404e-09
 60.09335     49.6 1.006e+04 7.258e-09
 60.10367     49.5 1.006e+04 7.404e-09
 60.11773     50.0 1.011e+04 8.212e-09
 60.13838     50.5 1.015e+04 8.866e-09
 60.15450     50.8 1.022e+04 9.062e-09
 60.16482     50.8 1.005e+04 8.131e-09
 60.17966     50.8 1.008e+04 8.143e-09
 60.20031     50.7 1.013e+04 8.251e-09
 60.21565     50.5 1.021e+04 8.641e-09
 60.22598     50.5 1.007e+04 7.544e-09
 60.24159     50.2 1.023e+04 8.662e-09
 60.26224     49.8 1.047e+04 1.043e-08
 60.27681     49.4 1.080e+04 1.255e-08
 60.28713     49.9 1.065e+04 1.092e-08
 60.30352     49.5 1.085e+04 1.180e-08
 60.32417     48.9 1.084e+04 1.160e-08
 60.33796     48.5 1.066e+04 1.029e-08
 60.34828     49.1 1.058e+04 9.295e-09
 60.36546     48.7 1.035e+04 7.446e-09
 60.38610     48.0 1.014e+04 5.240e-09
 60.39911     46.8 9.899e+03 3.686e-09
 60.40943     47.8 9.951e+03 4.282e-09
 60.42739     46.7 9.805e+03 3.892e-09
 60.44803     45.7 9.818e+03 3.975e-09
 60.46027     44.5 9.926e+03 4.503e-09
 60.47059     45.7 1.009e+04 5.188e-09
 60.48932     44.8 1.022e+04 6.150e-09
 60.50996     43.9 1.028e+04 6.862e-09
 60.52142     42.2 1.056e+04 7.611e-09
 60.53174     43.7 1.059e+04 7.868e-09
 60.55125     40.6 1.131e+04 9.699e-09
 60.57189     36.8 1.195e+04 1.522e-08
 60.58257     34.5 1.178e+04 1.850e-08
 60.59289     35.9 1.194e+04 2.039e-08
 60.61318     35.2 1.155e+04 1.878e-08
 60.63340     35.0 1.075e+04 1.238e-08
 60.64372     36.4 1.108e+04 1.597e-08
 60.65447     35.7 1.052e+04 7.408e-09
 60.67511     32.5 9.858e+03 2.664e-09
 60.69456     28.9 8.340e+03 1.544e-09
 60.70488     30.7 8.697e+03 1.590e-09
 60.72682     29.3 8.077e+03 1.526e-09
 60.75590     29.6 8.186e+03 1.730e-09
 60.77655     31.7 8.086e+03 1.608e-09
 60.80949     31.9 8.315e+03 2.257e-09
 60.85078     32.3 8.943e+03 3.851e-09
 60.87811     32.4 9.245e+03 4.886e-09
 60.88834     34.0 9.273e+03 4.940e-09
 60.89412     32.9 9.953e+03 6.596e-09
 60.90444     32.9 9.961e+03 6.751e-09
 60.92284     29.7 1.147e+04 1.391e-08
 60.93917     27.5 1.335e+04 3.673e-08
 60.94949     28.5 1.318e+04 3.475e-08
 60.96412     27.7 1.355e+04 4.912e-08
 60.98477     28.1 1.322e+04 4.427e-08
 61.00032     28.6 1.211e+04 2.412e-08
 61.01064     29.1 1.209e+04 2.316e-08
 61.02605     28.0 1.099e+04 1.206e-08
 61.05712     25.5 9.766e+03 3.943e-09
 61.09850     23.1 8.541e+03 1.958e-09
 61.12282     23.6 8.267e+03 1.691e-09
 61.14346     25.2 8.270e+03 1.321e-09
 61.18108     25.8 8.236e+03 1.184e-09
 61.22236     26.5 8.446e+03 1.105e-09
 61.24513     27.1 8.442e+03 1.055e-09
 61.26577     28.2 8.389e+03 1.227e-09
 61.30494     28.9 8.347e+03 1.080e-09
 61.34623     29.7 8.303e+03 8.820e-10
 61.36743     30.3 8.332e+03 6.468e-10
 61.38808     31.2 8.337e+03 6.799e-10
 61.42880     31.6 8.302e+03 6.070e-10
 61.46909     31.9 8.356e+03 6.596e-10
 61.48974     32.6 8.365e+03 8.279e-10
 61.51138     32.7 8.491e+03 1.125e-09
 61.55266     33.2 8.676e+03 1.588e-09
 61.59140     33.7 8.864e+03 1.871e-09
 61.61204     33.7 9.044e+03 2.520e-09
 61.63524     33.9 9.184e+03 2.603e-09
 61.67652     33.6 9.402e+03 2.841e-09
 61.71371     33.2 9.772e+03 3.641e-09
 61.73435     31.6 1.059e+04 8.219e-09
 61.75910     31.2 1.097e+04 1.071e-08
 61.80039     31.1 1.092e+04 1.019e-08
 61.83601     31.9 1.061e+04 7.084e-09
 61.85666     31.1 1.044e+04 3.775e-09
 61.88296     30.5 1.028e+04 1.841e-09
 61.92425     30.6 1.009e+04 1.653e-09
 61.95832     31.2 1.021e+04 1.825e-09
 61.97896     31.4 1.019e+04 1.962e-09
 62.00682     32.1 1.046e+04 2.278e-09
 62.04811     32.7 1.074e+04 2.550e-09
 62.08062     32.7 1.102e+04 2.626e-09
 62.10127     33.5 1.080e+04 3.105e-09
 62.13069     33.8 1.093e+04 3.077e-09
 62.17197     34.3 1.096e+04 2.873e-09
 62.20293     35.1 1.097e+04 2.539e-09
 62.22357     36.4 1.091e+04 2.453e-09
 62.25455     37.3 1.102e+04 1.783e-09
 62.29583     38.3 1.118e+04 1.441e-09
 62.32523     39.5 1.122e+04 1.419e-09
 62.34588     40.6 1.123e+04 9.402e-10
 62.37841     42.0 1.123e+04 9.514e-10
 62.41970     43.6 1.125e+04 1.001e-09
 62.44754     45.1 1.129e+04 1.107e-09
 62.46818     46.5 1.128e+04 7.704e-10
 62.50227     47.8 1.134e+04 1.018e-09
 62.54356     48.9 1.139e+04 1.936e-09
 62.56985     49.9 1.147e+04 3.859e-09
 62.59049     51.7 1.149e+04 3.247e-09
 62.62613     52.4 1.168e+04 5.454e-09
 62.66742     52.6 1.165e+04 5.383e-09
 62.69215     52.6 1.144e+04 4.081e-09
 62.71280     54.4 1.182e+04 6.168e-09
 62.75000     53.9 1.153e+04 4.503e-09
 62.79128     53.2 1.121e+04 3.433e-09
 62.81446     52.8 1.091e+04 2.832e-09
 62.83510     54.3 1.127e+04 4.321e-09
 62.87386     54.7 1.091e+04 3.360e-09
 62.91515     55.4 1.059e+04 2.150e-09
 62.93676     55.9 1.045e+04 1.194e-09
 62.95741     57.6 1.063e+04 1.878e-09
 62.99772     58.0 1.034e+04 1.203e-09
 63.03843     58.6 1.029e+04 1.228e-09
 63.05907     60.1 1.044e+04 1.650e-09
 63.08029     60.6 1.046e+04 1.823e-09
 63.12158     60.9 1.056e+04 2.071e-09
 63.16073     61.2 1.062e+04 1.974e-09
 63.18138     62.1 1.070e+04 2.098e-09
 63.20416     62.2 1.080e+04 1.344e-09
 63.24544     61.8 1.085e+04 9.508e-10
 63.28304     61.7 1.083e+04 9.685e-10
 63.30368     61.9 1.089e+04 9.591e-10
 63.32802     62.0 1.087e+04 1.156e-09
 63.36931     62.6 1.089e+04 1.515e-09
 63.40534     63.4 1.102e+04 1.852e-09
 63.42599     63.2 1.111e+04 1.612e-09
 63.45188     63.4 1.141e+04 1.888e-09
 63.49317     63.3 1.180e+04 3.213e-09
 63.52765     63.6 1.195e+04 4.855e-09
 63.54252     63.5 1.194e+04 4.233e-09
 63.54933     65.0 1.169e+04 2.404e-09
 63.57574     65.7 1.170e+04 3.284e-09
 63.59903     65.7 1.183e+04 4.589e-09
 63.60925     65.9 1.169e+04 3.979e-09
 63.62716     66.3 1.168e+04 4.504e-09
 63.64780     66.9 1.177e+04 4.859e-09
 63.66008     67.4 1.196e+04 5.239e-09
 63.67040     67.9 1.164e+04 4.575e-09
 63.68909     68.4 1.193e+04 5.210e-09
 63.70973     68.9 1.221e+04 6.169e-09
 63.72123     69.4 1.237e+04 7.319e-09
 63.73156     70.2 1.226e+04 7.048e-09
 63.75102     70.8 1.245e+04 8.634e-09
 63.77166     71.6 1.270e+04 1.069e-08
 63.78239     72.6 1.274e+04 1.024e-08
 63.79271     73.2 1.298e+04 1.457e-08
 63.81295     74.2 1.303e+04 1.409e-08
 63.83322     75.0 1.310e+04 1.224e-08
 63.84354     76.0 1.343e+04 1.955e-08
 63.85424     76.8 1.347e+04 1.701e-08
 63.87488     77.2 1.337e+04 1.222e-08
 63.89437     77.4 1.319e+04 7.978e-09
 63.90469     79.0 1.369e+04 1.529e-08
 63.91617     78.9 1.345e+04 9.677e-09
 63.93681     78.0 1.303e+04 7.749e-09
 63.95552     77.1 1.294e+04 8.092e-09
 63.96585     78.3 1.360e+04 1.166e-08
 63.97810     76.6 1.353e+04 1.277e-08
 63.99874     75.0 1.359e+04 1.644e-08
 64.01668     73.8 1.385e+04 2.204e-08
 64.02700     74.2 1.460e+04 2.854e-08
 64.03482     72.7 1.420e+04 2.385e-08
 64.04509     72.1 1.417e+04 2.264e-08
 64.05232     71.5 1.423e+04 2.120e-08
 64.05748     70.6 1.478e+04 2.377e-08
 64.06574     67.6 1.594e+04 2.720e-08
 64.07606     60.4 1.995e+04 4.407e-08
 64.08289     52.4 2.073e+04 1.546e-07
 64.08805     49.1 1.921e+04 5.183e-07
 64.09670     47.4 1.831e+04 1.258e-06
 64.10702     45.9 1.831e+04 1.440e-06
 64.11347     45.4 1.849e+04 1.086e-06
 64.11863     43.3 1.916e+04 7.928e-07
 64.12767     40.4 2.045e+04 2.874e-07
 64.13799     36.8 2.073e+04 1.122e-07
 64.14405     31.0 2.034e+04 5.519e-08
 64.14926     25.1 1.851e+04 6.117e-08
 64.16389     19.0 1.515e+04 3.579e-08
 64.18454     18.3 1.451e+04 3.196e-08
 64.20014     18.7 1.415e+04 2.843e-08
 64.21046     17.7 1.378e+04 2.224e-08
 64.22582     18.7 1.328e+04 1.586e-08
 64.24647     19.4 1.291e+04 1.057e-08
 64.26139     20.6 1.249e+04 6.148e-09
 64.28213     18.7 1.211e+04 4.037e-09
 64.31892     20.9 1.156e+04 2.183e-09
 64.36020     22.5 1.129e+04 1.433e-09
 64.38379     24.6 1.108e+04 1.432e-09
 64.40443     23.6 1.088e+04 1.924e-09
 64.44278     26.3 1.072e+04 1.989e-09
 64.48406     29.0 1.068e+04 2.227e-09
 64.50610     31.8 1.069e+04 2.251e-09
 64.52674     31.5 1.048e+04 2.109e-09
 64.56664     34.4 1.030e+04 1.754e-09
 64.60776     37.0 1.015e+04 1.460e-09
 64.64904     39.5 1.025e+04 1.666e-09
 64.69050     42.0 1.035e+04 1.874e-09
 64.72137     43.9 1.065e+04 2.557e-09
 64.74019     44.2 1.078e+04 2.766e-09
 64.75061     43.7 1.110e+04 6.294e-09
 64.76266     45.6 1.118e+04 7.429e-09
 64.78320     46.0 1.125e+04 7.738e-09
 64.81427     47.9 1.093e+04 6.481e-09
 64.85237     50.8 1.087e+04 5.784e-09
 64.87301     50.3 1.115e+04 7.706e-09
 64.88652     51.8 1.100e+04 6.848e-09
 64.90706     53.0 1.099e+04 6.538e-09
 64.92365     54.2 1.102e+04 6.505e-09
 64.93397     53.8 1.106e+04 6.917e-09
 64.94835     54.9 1.121e+04 7.346e-09
 64.96900     56.0 1.149e+04 8.419e-09
 64.98480     56.7 1.180e+04 1.015e-08
 64.99512     56.1 1.168e+04 1.296e-08
 65.01028     57.0 1.194e+04 1.722e-08
 65.03093     58.2 1.241e+04 2.371e-08
 65.04595     59.4 1.278e+04 2.921e-08
 65.05628     59.9 1.254e+04 2.625e-08
 65.07221     60.9 1.268e+04 2.594e-08
 65.09286     61.2 1.270e+04 2.437e-08
 65.10711     61.2 1.272e+04 2.146e-08
 65.11743     60.4 1.237e+04 1.460e-08
 65.13415     59.8 1.222e+04 1.352e-08
 65.15479     59.3 1.199e+04 1.227e-08
 65.16826     59.3 1.172e+04 1.055e-08
 65.17858     58.7 1.186e+04 1.283e-08
 65.19608     58.9 1.186e+04 1.249e-08
 65.21672     59.3 1.184e+04 1.121e-08
 65.22941     59.8 1.167e+04 9.350e-09
 65.23973     59.7 1.221e+04 2.164e-08
 65.25801     60.3 1.200e+04 1.853e-08
 65.27865     60.4 1.136e+04 1.413e-08
 65.29057     59.2 1.257e+04 1.087e-08
 65.29568     54.4 2.198e+04 2.605e-08
 65.30436     48.5 2.651e+04 2.308e-08
 65.31468     49.2 2.556e+04 2.679e-08
 65.32104     47.8 2.450e+04 4.100e-08
 65.32621     36.3 2.294e+04 3.081e-07
 65.33532     33.1 2.061e+04 5.478e-07
 65.34565     30.5 1.867e+04 8.856e-07
 65.35162     30.2 1.799e+04 1.158e-06
 65.35678     29.2 1.797e+04 1.718e-06
 65.36629     30.7 1.818e+04 1.440e-06
 65.37661     32.5 1.886e+04 9.349e-07
 65.38220     33.4 2.024e+04 4.939e-07
 65.38736     26.3 2.298e+04 8.597e-08
 65.39725     20.8 2.404e+04 3.794e-08
 65.40758     15.3 2.072e+04 2.357e-08
 65.42311      6.9 1.437e+04 1.554e-08
 65.44380      5.3 1.449e+04 2.561e-08
 65.46370      5.4 1.539e+04 5.092e-08
 65.47402      5.3 1.475e+04 4.041e-08
 65.48509      6.3 1.451e+04 4.322e-08
 65.50573      7.3 1.402e+04 3.729e-08
 65.52486      7.9 1.347e+04 2.915e-08
 65.53518      6.7 1.178e+04 1.257e-08
 65.54702      6.3 1.123e+04 9.014e-09
 65.56766      6.0 1.072e+04 7.285e-09
 65.58601      6.0 1.053e+04 6.857e-09
 65.59633      5.8 9.985e+03 5.021e-09
 65.60895      6.5 1.001e+04 5.026e-09
 65.62959      7.2 1.002e+04 4.810e-09
 65.64716      7.7 9.948e+03 4.357e-09
 65.65748      8.0 9.731e+03 3.943e-09
 65.67088      8.9 9.709e+03 3.433e-09
 65.69152      9.0 9.711e+03 3.292e-09
 65.70841      9.9 9.861e+03 3.049e-09
 65.72915     10.9 9.678e+03 3.148e-09
 65.76397     11.9 9.571e+03 2.522e-09
 65.80526     12.8 9.566e+03 2.246e-09
 65.83082     13.5 9.698e+03 2.222e-09
 65.85146     14.6 9.682e+03 2.088e-09
 65.88783     14.8 9.841e+03 2.070e-09
 65.91870     15.4 9.757e+03 2.027e-09
 65.93925     14.7 1.019e+04 2.301e-09
 65.95293     13.5 1.131e+04 3.857e-09
 65.96325     14.5 1.090e+04 3.181e-09
 65.98054     13.7 1.182e+04 6.523e-09
 66.00118     13.2 1.249e+04 1.323e-08
 66.01408     13.0 1.306e+04 2.265e-08
 66.02440     14.0 1.290e+04 1.947e-08
 66.04247     14.0 1.338e+04 2.865e-08
 66.06311     14.3 1.376e+04 3.580e-08
 66.07523     14.8 1.374e+04 3.182e-08
 66.08555     15.5 1.375e+04 3.537e-08
 66.10440     16.2 1.358e+04 2.559e-08
 66.12504     16.2 1.332e+04 1.467e-08
 66.13638     15.8 1.295e+04 8.242e-09
 66.14671     17.4 1.311e+04 9.987e-09
 66.16633     17.0 1.276e+04 5.825e-09
 66.18351     17.1 1.229e+04 4.349e-09
 66.19383     18.1 1.290e+04 5.758e-09
 66.19754     18.4 1.249e+04 4.208e-09
 66.20786     19.7 1.291e+04 4.175e-09
 66.22826     20.2 1.255e+04 3.293e-09
 66.24837     21.3 1.225e+04 2.792e-09
 66.25869     22.2 1.250e+04 2.744e-09
 66.26955     22.9 1.221e+04 2.539e-09
 66.29019     24.2 1.198e+04 2.297e-09
 66.30952     24.8 1.187e+04 2.261e-09
 66.31984     26.3 1.190e+04 2.268e-09
 66.33148     27.5 1.181e+04 2.265e-09
 66.35212     28.5 1.175e+04 2.296e-09
 66.37067     29.3 1.164e+04 2.414e-09
 66.38100     30.4 1.181e+04 2.437e-09
 66.39341     31.2 1.172e+04 2.794e-09
 66.41405     31.8 1.174e+04 3.441e-09
 66.43183     32.2 1.170e+04 4.348e-09
 66.44215     33.3 1.188e+04 4.472e-09
 66.45534     33.7 1.178e+04 5.514e-09
 66.47598     34.1 1.173e+04 6.534e-09
 66.49298     34.3 1.172e+04 6.647e-09
 66.50330     35.2 1.185e+04 6.780e-09
 66.51727     35.5 1.169e+04 6.349e-09
 66.53792     36.0 1.155e+04 5.343e-09
 66.55413     36.3 1.139e+04 4.282e-09
 66.56445     37.0 1.153e+04 3.687e-09
 66.57920     37.2 1.126e+04 2.960e-09
 66.59985     37.6 1.110e+04 2.908e-09
 66.61529     38.3 1.110e+04 2.981e-09
 66.62561     38.7 1.108e+04 2.396e-09
 66.64113     39.5 1.112e+04 2.685e-09
 66.66178     40.5 1.118e+04 3.160e-09
 66.67644     41.4 1.128e+04 3.887e-09
 66.68676     41.8 1.128e+04 3.406e-09
 66.70306     42.8 1.144e+04 4.360e-09
 66.72371     43.8 1.157e+04 5.612e-09
 66.73759     44.8 1.170e+04 7.021e-09
 66.74791     45.0 1.203e+04 6.853e-09
 66.76500     45.8 1.226e+04 9.234e-09
 66.78564     46.1 1.258e+04 1.303e-08
 66.79874     45.9 1.301e+04 1.921e-08
 66.80907     45.7 1.375e+04 3.009e-08
 66.82693     45.6 1.458e+04 5.502e-08
 66.84757     45.4 1.520e+04 7.134e-08
 66.85990     44.8 1.513e+04 6.603e-08
 66.87022     44.6 1.675e+04 1.400e-07
 66.88886     43.9 1.619e+04 1.078e-07
 66.90950     43.4 1.515e+04 5.972e-08
 66.92105     42.6 1.405e+04 3.116e-08
 66.93137     42.5 1.468e+04 4.128e-08
 66.95079     41.7 1.345e+04 2.073e-08
 66.97143     41.3 1.271e+04 1.242e-08
 66.98220     41.5 1.233e+04 8.516e-09
 66.99252     40.5 1.222e+04 5.117e-09
 67.01272     40.6 1.199e+04 4.319e-09
 67.03303     41.2 1.180e+04 4.065e-09
 67.04336     40.9 1.169e+04 3.612e-09
 67.05401     41.9 1.173e+04 3.675e-09
 67.07465     42.7 1.182e+04 3.797e-09
 67.09419     43.4 1.188e+04 3.970e-09
 67.10451     43.4 1.192e+04 3.893e-09
 67.11594     43.9 1.198e+04 4.169e-09
 67.13658     44.5 1.204e+04 4.428e-09
 67.15534     45.0 1.211e+04 4.757e-09
 67.16566     44.9 1.227e+04 4.978e-09
 67.17787     45.3 1.238e+04 5.441e-09
 67.19851     45.3 1.250e+04 6.143e-09
 67.21649     45.3 1.266e+04 7.182e-09
 67.22681     45.3 1.270e+04 7.120e-09
 67.23980     45.3 1.279e+04 7.504e-09
 67.26044     45.1 1.283e+04 7.718e-09
 67.27765     44.9 1.283e+04 7.921e-09
 67.28797     45.1 1.276e+04 6.549e-09
 67.30173     45.0 1.275e+04 6.592e-09
 67.32237     45.0 1.278e+04 6.771e-09
 67.33880     44.9 1.285e+04 6.970e-09
 67.34912     45.3 1.277e+04 6.126e-09
 67.36366     45.4 1.281e+04 6.308e-09
 67.38431     45.5 1.284e+04 6.243e-09
 67.39995     45.8 1.290e+04 5.833e-09
 67.41027     46.2 1.283e+04 6.611e-09
 67.42559     46.6 1.285e+04 6.257e-09
 67.44624     47.1 1.285e+04 5.435e-09
 67.46110     47.4 1.281e+04 4.616e-09
 67.47143     48.1 1.282e+04 5.837e-09
 67.48752     48.4 1.273e+04 4.819e-09
 67.50586     48.6 1.261e+04 4.187e-09
 67.51618     48.8 1.274e+04 4.452e-09
 67.52226     49.0 1.258e+04 4.014e-09
 67.53258     49.9 1.287e+04 5.665e-09
 67.54946     50.4 1.278e+04 5.607e-09
 67.57010     51.1 1.277e+04 5.633e-09
 67.58341     51.8 1.279e+04 5.647e-09
 67.59373     52.3 1.285e+04 6.800e-09
 67.61139     52.9 1.286e+04 6.710e-09
 67.63203     53.6 1.290e+04 6.400e-09
 67.64456     54.2 1.295e+04 5.989e-09
 67.65488     54.7 1.307e+04 6.751e-09
 67.67332     55.1 1.308e+04 6.109e-09
 67.69396     55.4 1.308e+04 5.587e-09
 67.70572     55.6 1.305e+04 5.215e-09
 67.71604     56.0 1.316e+04 5.513e-09
 67.73525     56.1 1.317e+04 5.127e-09
 67.75589     56.4 1.315e+04 4.837e-09
 67.76687     56.7 1.313e+04 4.541e-09
 67.77719     57.0 1.321e+04 5.100e-09
 67.79718     57.4 1.323e+04 4.664e-09
 67.81770     57.9 1.325e+04 4.229e-09
 67.82802     58.2 1.301e+04 4.607e-09
 67.83847     58.5 1.297e+04 4.303e-09
 67.86863     59.5 1.306e+04 3.433e-09
 67.88937     60.1 1.289e+04 4.820e-09
 67.91091     61.5 1.280e+04 4.644e-09
 67.95220     62.8 1.281e+04 4.693e-09
 67.99103     63.8 1.282e+04 4.805e-09
 68.01168     64.0 1.297e+04 7.619e-09
 68.03478     64.5 1.292e+04 7.219e-09
 68.07606     65.1 1.279e+04 5.742e-09
 68.11334     65.8 1.267e+04 3.662e-09
 68.13398     66.1 1.258e+04 3.304e-09
 68.15864     66.9 1.262e+04 1.634e-09
 68.19993     67.6 1.259e+04 1.116e-09
 68.23564     69.1 1.254e+04 1.107e-09
 68.25629     69.7 1.253e+04 1.071e-09
 68.28250     71.3 1.255e+04 1.104e-09
 68.32379     72.8 1.262e+04 1.281e-09
 68.35795     73.9 1.275e+04 1.719e-09
 68.37859     74.4 1.273e+04 2.277e-09
 68.40636     75.1 1.291e+04 3.734e-09
 68.44765     75.3 1.287e+04 5.184e-09
 68.48026     75.1 1.282e+04 5.090e-09
 68.50090     74.8 1.303e+04 8.617e-09
 68.53023     74.9 1.267e+04 6.633e-09
 68.57151     75.3 1.249e+04 4.117e-09
 68.60256     75.8 1.218e+04 2.674e-09
 68.62320     76.5 1.220e+04 3.147e-09
 68.65409     77.6 1.192e+04 3.007e-09
 68.69537     79.3 1.182e+04 3.213e-09
 68.72477     80.4 1.178e+04 3.447e-09
 68.73499     81.9 1.199e+04 3.770e-09
 68.74679     82.4 1.194e+04 4.019e-09
 68.76743     82.8 1.186e+04 4.346e-09
 68.78582     83.0 1.178e+04 4.497e-09
 68.79615     83.3 1.196e+04 4.763e-09
 68.80872     83.5 1.192e+04 4.737e-09
 68.82820     83.6 1.183e+04 4.609e-09
 68.83853     84.4 1.182e+04 5.103e-09
 68.84698     84.3 1.175e+04 4.891e-09
 68.85730     85.1 1.198e+04 5.279e-09
 68.87065     84.5 1.195e+04 5.188e-09
 68.89129     83.5 1.196e+04 5.318e-09
 68.90813     82.4 1.199e+04 5.819e-09
 68.91845     82.8 1.211e+04 7.038e-09
 68.93258     81.6 1.216e+04 8.100e-09
 68.95323     80.5 1.210e+04 8.764e-09
 68.96928     79.3 1.202e+04 8.683e-09
 68.97960     79.5 1.225e+04 9.492e-09
 68.99451     78.4 1.197e+04 8.027e-09
 69.01516     77.5 1.159e+04 6.139e-09
 69.03044     76.4 1.124e+04 5.011e-09
 69.04076     76.7 1.125e+04 4.974e-09
 69.05644     74.5 1.170e+04 5.208e-09
 69.07709     70.9 1.312e+04 8.481e-09
 69.09159     67.4 1.417e+04 1.843e-08
 69.10191     67.5 1.438e+04 2.227e-08
 69.11837     64.7 1.464e+04 3.651e-08
 69.13902     62.2 1.449e+04 3.900e-08
 69.15274     60.3 1.389e+04 3.139e-08
 69.16306     60.1 1.391e+04 3.067e-08
 69.18031     57.9 1.286e+04 1.628e-08
 69.20095     55.0 1.168e+04 8.662e-09
 69.21389     52.7 1.071e+04 6.157e-09
 69.22422     51.7 1.096e+04 5.375e-09
 69.24224     51.5 1.057e+04 5.180e-09
 69.26288     51.7 1.036e+04 4.931e-09
 69.27505     52.0 1.021e+04 4.504e-09
 69.28537     52.0 1.022e+04 4.376e-09
 69.30417     51.9 1.006e+04 3.392e-09
 69.32481     51.4 9.906e+03 2.843e-09
 69.33630     52.4 9.728e+03 2.529e-09
 69.34662     52.1 9.795e+03 2.317e-09
 69.36610     51.9 9.803e+03 2.132e-09
 69.39716     52.9 9.696e+03 1.829e-09
 69.43806     54.4 9.213e+03 1.426e-09
 69.45860     55.0 9.508e+03 1.989e-09
 69.46932     55.7 9.259e+03 1.844e-09
 69.48996     56.5 9.096e+03 1.819e-09
 69.50934     57.3 9.117e+03 1.839e-09
 69.51966     56.6 1.005e+04 2.555e-09
 69.53125     56.9 1.018e+04 2.737e-09
 69.55189     56.8 1.025e+04 3.163e-09
 69.57049     56.7 1.027e+04 3.907e-09
 69.58081     56.2 1.059e+04 6.341e-09
 69.59318     56.2 1.067e+04 7.193e-09
 69.61382     56.1 1.085e+04 8.118e-09
 69.63164     55.8 1.098e+04 8.337e-09
 69.64196     55.2 1.139e+04 1.039e-08
 69.65511     54.9 1.121e+04 9.313e-09
 69.67575     55.0 1.087e+04 7.237e-09
 69.69280     55.0 1.052e+04 4.985e-09
 69.70312     55.0 1.056e+04 5.678e-09
 69.71704     54.7 1.039e+04 3.114e-09
 69.73768     53.6 1.038e+04 1.978e-09
 69.76875     53.9 9.857e+03 1.929e-09
 69.80498     54.9 9.657e+03 1.955e-09
 69.82552     55.2 9.895e+03 2.354e-09
 69.84090     56.3 9.796e+03 2.434e-09
 69.86155     56.9 9.717e+03 2.806e-09
 69.87625     56.7 9.859e+03 3.503e-09
 69.88658     55.9 1.006e+04 4.639e-09
 69.90283     55.1 1.046e+04 7.265e-09
 69.92348     53.8 1.115e+04 1.289e-08
 69.93741     53.0 1.201e+04 2.221e-08
 69.94773     53.3 1.233e+04 2.331e-08
 69.96477     51.8 1.278e+04 2.390e-08
 69.98541     49.1 1.294e+04 2.218e-08
 69.99856     44.8 1.293e+04 1.973e-08
 70.00888     42.0 1.262e+04 1.837e-08
 70.02670     37.9 1.250e+04 1.998e-08
 70.04734     35.0 1.235e+04 2.330e-08
 70.05971     33.1 1.221e+04 2.320e-08
 70.07003     33.3 1.222e+04 2.421e-08
 70.08863     32.4 1.180e+04 2.087e-08
 70.10927     31.7 1.121e+04 1.511e-08
 70.12087     30.7 1.058e+04 9.916e-09
 70.13119     30.4 1.035e+04 8.002e-09
 70.15055     29.4 9.812e+03 5.794e-09
 70.17120     29.2 9.557e+03 5.169e-09
 70.18202     29.1 9.392e+03 4.673e-09
 70.19234     29.7 9.282e+03 4.092e-09
 70.21249     29.9 9.259e+03 3.897e-09
 70.23285     30.2 9.274e+03 3.910e-09
 70.24317     30.6 9.173e+03 3.239e-09
 70.25378     30.8 9.233e+03 3.317e-09
 70.27442     31.1 9.388e+03 3.601e-09
 70.29400     31.4 9.477e+03 4.029e-09
 70.30432     31.8 9.325e+03 3.396e-09
 70.31571     32.5 9.469e+03 4.086e-09
 70.33635     32.7 9.703e+03 4.722e-09
 70.35516     32.5 1.009e+04 5.765e-09
 70.36548     33.1 9.887e+03 5.418e-09
 70.37764     32.7 1.026e+04 7.289e-09
 70.39828     32.7 1.053e+04 9.671e-09
 70.41631     32.9 1.079e+04 1.151e-08
 70.42663     33.6 1.041e+04 9.540e-09
 70.43957     33.6 1.059e+04 1.007e-08
 70.46021     33.1 1.112e+04 1.103e-08
 70.47746     32.2 1.193e+04 1.311e-08
 70.48778     33.0 1.066e+04 9.591e-09
 70.50150     32.4 1.112e+04 1.115e-08
 70.52214     31.9 1.164e+04 1.318e-08
 70.53861     31.6 1.205e+04 1.480e-08
 70.54894     32.6 1.132e+04 1.212e-08
 70.56343     32.1 1.176e+04 1.282e-08
 70.58408     31.6 1.211e+04 1.334e-08
 70.59977     30.9 1.221e+04 1.434e-08
 70.61009     31.4 1.194e+04 1.104e-08
 70.62536     30.5 1.213e+04 1.124e-08
 70.64601     29.6 1.237e+04 1.258e-08
 70.66092     28.9 1.256e+04 1.440e-08
 70.67124     29.1 1.224e+04 1.699e-08
 70.68729     28.6 1.260e+04 1.978e-08
 70.70794     28.0 1.274e+04 1.961e-08
 70.72207     27.6 1.275e+04 1.730e-08
 70.73239     27.9 1.279e+04 2.069e-08
 70.74922     27.6 1.249e+04 1.663e-08
 70.76987     27.2 1.215e+04 1.270e-08
 70.78323     27.1 1.184e+04 9.914e-09
 70.79355     28.1 1.189e+04 9.830e-09
 70.81116     28.2 1.175e+04 7.440e-09
 70.83180     28.7 1.162e+04 5.555e-09
 70.84438     29.4 1.161e+04 3.814e-09
 70.85470     29.5 1.166e+04 4.196e-09
 70.87309     29.7 1.183e+04 2.970e-09
 70.89373     29.8 1.187e+04 2.409e-09
 70.90553     30.2 1.176e+04 2.342e-09
 70.91585     30.5 1.219e+04 3.279e-09
 70.93502     31.1 1.230e+04 3.361e-09
 70.95566     31.8 1.249e+04 3.891e-09
 70.96668     32.7 1.262e+04 5.193e-09
 70.97701     33.1 1.261e+04 7.882e-09
 70.99695     34.3 1.296e+04 1.157e-08
 71.01752     34.7 1.368e+04 1.809e-08
 71.03816     31.6 1.685e+04 7.173e-08
 71.05320     31.7 1.758e+04 1.039e-07
 71.05832     30.1 1.850e+04 1.226e-07
 71.06394     24.1 2.095e+04 3.446e-07
 71.07427     18.0 1.993e+04 1.014e-06
 71.08373     14.4 1.879e+04 9.698e-07
 71.08889     13.0 1.867e+04 5.390e-07
 71.09491     11.3 1.888e+04 1.703e-07
 71.10523      4.2 2.156e+04 3.359e-08
 71.11431     -8.7 1.720e+04 1.000e-08
 71.11947    -10.6 1.552e+04 8.035e-09
 71.12587    -14.5 1.329e+04 6.698e-09
 71.13977    -16.1 1.271e+04 6.014e-09
 71.15014    -16.8 1.216e+04 4.439e-09
 71.16210    -17.7 1.189e+04 4.562e-09
 71.18274    -18.2 1.206e+04 5.039e-09
 71.20097    -19.0 1.236e+04 5.211e-09
 71.21130    -19.5 1.249e+04 5.957e-09
 71.22403    -20.8 1.261e+04 7.219e-09
 71.24467    -21.6 1.258e+04 8.989e-09
 71.26213    -21.5 1.260e+04 1.024e-08
 71.27245    -20.8 1.265e+04 1.117e-08
 71.28596    -20.4 1.265e+04 9.307e-09
 71.30660    -20.4 1.276e+04 6.697e-09
 71.32328    -20.9 1.286e+04 4.998e-09
 71.33360    -20.5 1.273e+04 4.432e-09
 71.34789    -20.9 1.267e+04 3.722e-09
 71.36854    -20.9 1.256e+04 3.554e-09
 71.38443    -20.2 1.244e+04 3.540e-09
 71.39475    -19.6 1.241e+04 3.306e-09
 71.40982    -18.9 1.234e+04 3.227e-09
 71.43047    -18.2 1.230e+04 3.097e-09
 71.44559    -17.8 1.225e+04 3.052e-09
 71.45591    -17.3 1.214e+04 2.860e-09
 71.47175    -17.0 1.192e+04 2.954e-09
 71.48322    -15.3 1.222e+04 3.575e-09
 71.49354    -15.8 1.225e+04 4.024e-09
 71.50674    -15.6 1.216e+04 4.152e-09
 71.51706    -14.5 1.222e+04 4.397e-09
 71.53368    -13.0 1.244e+04 5.717e-09
 71.55433    -12.8 1.230e+04 5.932e-09
 71.56789    -12.2 1.223e+04 6.589e-09
 71.57821    -12.1 1.255e+04 7.225e-09
 71.59562    -12.1 1.258e+04 7.407e-09
 71.61626    -11.6 1.277e+04 8.322e-09
 71.62904    -12.0 1.272e+04 8.628e-09
 71.63937    -11.2 1.282e+04 1.166e-08
 71.65755    -11.4 1.298e+04 1.192e-08
 71.67819    -12.0 1.305e+04 1.205e-08
 71.69020    -12.8 1.301e+04 1.404e-08
 71.70052    -11.7 1.308e+04 1.191e-08
 71.71948    -12.5 1.337e+04 1.359e-08
 71.74012    -13.0 1.341e+04 1.852e-08
 71.75135    -13.4 1.303e+04 2.336e-08
 71.76167    -13.2 1.278e+04 1.959e-08
 71.78141    -12.0 1.304e+04 2.375e-08
 71.80205    -11.9 1.286e+04 2.196e-08
 71.81250    -11.6 1.265e+04 1.527e-08
 71.82283    -11.6 1.304e+04 2.048e-08
 71.84334    -12.0 1.277e+04 1.405e-08
 71.86333    -13.1 1.237e+04 1.052e-08
 71.87366    -12.1 1.268e+04 1.242e-08
 71.88463    -12.7 1.219e+04 1.037e-08
 71.90527    -12.8 1.202e+04 9.422e-09
 71.92449    -13.1 1.194e+04 8.082e-09
 71.93481    -12.5 1.223e+04 8.063e-09
 71.94656    -13.4 1.223e+04 6.944e-09
 71.96720    -14.8 1.213e+04 5.859e-09
 71.98564    -16.1 1.211e+04 5.080e-09
 71.99596    -16.4 1.206e+04 6.754e-09
 72.00849    -17.5 1.195e+04 6.446e-09
 72.02913    -18.4 1.191e+04 6.045e-09
 72.04679    -19.0 1.184e+04 5.497e-09
 72.05711    -19.2 1.193e+04 6.432e-09
 72.07042    -19.5 1.188e+04 5.124e-09
 72.09106    -20.0 1.183e+04 3.978e-09
 72.10795    -20.8 1.184e+04 3.451e-09
 72.11827    -21.8 1.212e+04 4.188e-09
 72.13235    -24.6 1.350e+04 5.169e-09
 72.15299    -27.4 1.428e+04 9.473e-09
 72.16910    -28.7 1.419e+04 1.821e-08
 72.17942    -29.2 1.431e+04 4.394e-08
 72.19428    -28.8 1.439e+04 4.883e-08
 72.21493    -29.8 1.417e+04 4.561e-08
 72.23025    -31.4 1.390e+04 3.657e-08
 72.24057    -32.6 1.334e+04 2.312e-08
 72.25621    -34.3 1.312e+04 2.187e-08
 72.27686    -35.8 1.314e+04 2.229e-08
 72.29140    -37.4 1.339e+04 2.484e-08
 72.30173    -39.4 1.348e+04 2.478e-08
 72.31814    -40.0 1.367e+04 3.402e-08
 72.33879    -40.2 1.375e+04 3.730e-08
 72.35256    -40.1 1.340e+04 3.383e-08
 72.36288    -40.2 1.337e+04 3.424e-08
 72.38008    -40.2 1.264e+04 2.000e-08
 72.40072    -41.0 1.199e+04 1.051e-08
 72.41371    -41.9 1.151e+04 6.215e-09
 72.42403    -43.0 1.127e+04 4.832e-09
 72.44201    -42.8 1.095e+04 3.846e-09
 72.46265    -42.3 1.079e+04 3.225e-09
 72.47486    -41.7 1.066e+04 2.788e-09
 72.48519    -42.2 1.063e+04 2.686e-09
 72.50394    -41.9 1.054e+04 2.468e-09
 72.53500    -41.1 1.047e+04 2.458e-09
 72.57639    -40.1 1.033e+04 2.459e-09
 72.59736    -39.2 1.015e+04 2.887e-09
 72.60759    -39.7 1.028e+04 3.164e-09
 72.62780    -39.3 1.029e+04 3.348e-09
 72.64800    -39.1 1.026e+04 3.544e-09
 72.65832    -39.4 1.031e+04 3.748e-09
 72.66909    -39.0 1.028e+04 3.995e-09
 72.68973    -38.7 1.025e+04 4.134e-09
 72.70915    -38.4 1.019e+04 4.137e-09
 72.71947    -38.6 1.035e+04 4.253e-09
 72.73102    -38.3 1.022e+04 4.043e-09
 72.75166    -38.2 1.010e+04 3.899e-09
 72.77031    -37.8 1.005e+04 3.857e-09
 72.78063    -38.0 1.002e+04 3.796e-09
 72.79295    -37.6 9.917e+03 3.574e-09
 72.82123    -37.0 9.844e+03 3.141e-09
 72.84188    -37.2 9.897e+03 2.947e-09
 72.86530    -36.8 9.811e+03 2.721e-09
 72.90668    -36.2 9.508e+03 2.394e-09
 72.94364    -35.2 9.192e+03 2.198e-09
 72.96428    -34.9 9.289e+03 2.485e-09
 72.98926    -33.7 9.007e+03 1.996e-09
 73.03055    -32.8 8.788e+03 1.602e-09
 73.06594    -32.1 8.668e+03 1.434e-09
 73.08659    -32.0 9.335e+03 2.265e-09
 73.11312    -31.4 9.390e+03 2.322e-09
 73.15441    -30.9 9.412e+03 2.588e-09
 73.18825    -30.4 9.493e+03 2.929e-09
 73.20880    -31.6 9.699e+03 4.896e-09
 73.22647    -31.7 9.782e+03 4.996e-09
 73.24711    -31.8 9.992e+03 5.227e-09
 73.25953    -32.3 1.030e+04 5.617e-09
 73.26985    -32.6 1.041e+04 5.468e-09
 73.28840    -33.5 1.064e+04 6.019e-09
 73.30904    -34.4 1.084e+04 6.774e-09
 73.32068    -35.1 1.092e+04 7.130e-09
 73.33100    -35.5 1.092e+04 6.760e-09
 73.35033    -36.1 1.093e+04 6.045e-09
 73.37097    -37.0 1.078e+04 4.267e-09
 73.38183    -38.0 1.062e+04 3.164e-09
 73.39216    -37.8 1.053e+04 2.994e-09
 73.41226    -38.7 1.045e+04 2.559e-09
 73.43276    -39.3 1.042e+04 2.251e-09
 73.45350    -38.5 1.063e+04 2.680e-09
 73.48471    -38.8 1.072e+04 2.747e-09
 73.52599    -38.8 1.093e+04 3.101e-09
 73.55507    -40.1 1.094e+04 3.569e-09
 73.56529    -39.4 1.106e+04 3.503e-09
 73.57741    -40.1 1.115e+04 3.803e-09
 73.59805    -41.1 1.116e+04 4.363e-09
 73.61612    -41.4 1.130e+04 4.801e-09
 73.62645    -40.9 1.124e+04 4.173e-09
 73.63934    -41.3 1.134e+04 4.182e-09
 73.65998    -41.7 1.146e+04 3.924e-09
 73.67728    -42.3 1.152e+04 3.402e-09
 73.69802    -41.6 1.146e+04 2.569e-09
 73.72201    -43.3 1.150e+04 2.473e-09
 73.73843    -44.6 1.169e+04 3.020e-09
 73.74875    -43.6 1.167e+04 2.445e-09
 73.76320    -44.3 1.163e+04 3.495e-09
 73.78385    -44.4 1.160e+04 5.017e-09
 73.79958    -44.2 1.173e+04 6.072e-09
 73.80991    -43.0 1.180e+04 5.141e-09
 73.82513    -43.1 1.187e+04 5.403e-09
 73.84578    -43.3 1.225e+04 6.750e-09
 73.86074    -44.5 1.259e+04 7.582e-09
 73.87106    -44.3 1.252e+04 8.073e-09
 73.88706    -44.9 1.288e+04 9.137e-09
 73.90771    -45.7 1.307e+04 9.348e-09
 73.92189    -46.6 1.320e+04 9.058e-09
 73.93221    -46.1 1.326e+04 1.020e-08
 73.94899    -47.2 1.334e+04 9.050e-09
 73.96964    -48.1 1.331e+04 8.382e-09
 73.98304    -48.7 1.330e+04 7.578e-09
 73.99336    -48.4 1.383e+04 8.765e-09
 74.01093    -48.9 1.396e+04 7.113e-09
 74.03157    -49.4 1.384e+04 5.137e-09
 74.04429    -48.9 1.356e+04 3.709e-09
 74.06503    -48.7 1.381e+04 6.551e-09
 74.10402    -47.9 1.359e+04 4.738e-09
 74.12811    -46.7 1.359e+04 3.877e-09
 74.14875    -49.1 1.343e+04 4.042e-09
 74.16670    -47.8 1.345e+04 3.459e-09
 74.18734    -47.8 1.332e+04 3.649e-09
 74.22788    -46.0 1.323e+04 2.849e-09
 74.26836    -44.1 1.323e+04 2.346e-09
 74.28900    -43.8 1.329e+04 1.772e-09
 74.31045    -41.6 1.328e+04 1.601e-09
 74.35174    -39.4 1.331e+04 1.578e-09
 74.39066    -37.2 1.345e+04 1.648e-09
 74.41131    -36.7 1.345e+04 1.425e-09
 74.43432    -35.2 1.350e+04 1.954e-09
 74.47560    -34.4 1.353e+04 3.222e-09
 74.50647    -32.1 1.368e+04 4.447e-09
 74.52310    -32.7 1.382e+04 5.227e-09
 74.53352    -32.6 1.356e+04 4.387e-09
 74.55818    -32.4 1.369e+04 5.794e-09
 74.59947    -32.8 1.373e+04 6.588e-09
 74.63528    -33.1 1.363e+04 5.047e-09
 74.65592    -32.7 1.370e+04 4.530e-09
 74.68204    -33.4 1.353e+04 2.063e-09
 74.72333    -34.0 1.285e+04 1.107e-09
 74.75758    -33.7 1.249e+04 9.921e-10
 74.77822    -33.1 1.249e+04 9.636e-10
 74.80590    -31.8 1.255e+04 8.956e-10
 74.84719    -30.1 1.261e+04 8.755e-10
 74.87989    -28.8 1.281e+04 8.975e-10
 74.90053    -28.7 1.249e+04 1.584e-09
 74.92976    -27.4 1.253e+04 1.778e-09
 74.97105    -26.5 1.254e+04 1.804e-09
 75.00219    -25.6 1.247e+04 1.733e-09
 75.02284    -25.0 1.265e+04 1.925e-09
 75.05363    -24.4 1.252e+04 1.704e-09
 75.09491    -23.3 1.248e+04 1.694e-09
 75.12450    -22.1 1.247e+04 1.746e-09
 75.14514    -21.8 1.275e+04 1.374e-09
 75.17749    -20.4 1.286e+04 1.289e-09
 75.21878    -19.0 1.284e+04 1.250e-09
 75.24680    -17.5 1.275e+04 1.282e-09
 75.26745    -17.0 1.255e+04 1.474e-09
 75.30135    -14.9 1.258e+04 1.514e-09
 75.34264    -12.6 1.261e+04 1.583e-09
 75.36911    -10.5 1.281e+04 1.685e-09
 75.38975    -10.4 1.324e+04 1.231e-09
 75.42521     -8.6 1.305e+04 1.761e-09
 75.46650     -6.4 1.295e+04 2.458e-09
 75.49142     -4.3 1.302e+04 2.639e-09
 75.51206     -4.0 1.321e+04 1.777e-09
 75.54907     -2.5 1.362e+04 1.336e-09
 75.59036     -1.3 1.366e+04 1.117e-09
 75.61372      0.6 1.332e+04 1.061e-09
 75.63437      0.7 1.310e+04 7.829e-10
 75.67294      2.3 1.361e+04 5.566e-10
 75.71422      3.5 1.351e+04 6.113e-10
 75.73603      4.4 1.342e+04 9.056e-10
 75.75667      4.8 1.333e+04 8.968e-10
 75.79680      6.3 1.340e+04 1.178e-09
 75.83769      7.1 1.376e+04 1.414e-09
 75.85833      7.2 1.372e+04 1.464e-09
 75.87937      7.3 1.365e+04 2.115e-09
 75.92066      7.6 1.345e+04 2.936e-09
 75.96000      7.3 1.364e+04 2.945e-09
 75.98064      7.7 1.338e+04 3.054e-09
 76.00324      7.5 1.332e+04 2.534e-09
 76.04452      7.6 1.319e+04 2.620e-09
 76.08230      7.9 1.304e+04 2.964e-09
 76.10294      8.8 1.323e+04 1.751e-09
 76.12710      9.4 1.294e+04 2.016e-09
 76.16839     10.0 1.308e+04 1.612e-09
 76.20461     10.6 1.333e+04 1.073e-09
 76.22525     11.0 1.293e+04 2.818e-09
 76.25096     11.7 1.292e+04 2.161e-09
 76.29225     12.3 1.279e+04 1.719e-09
 76.32691     13.4 1.258e+04 1.570e-09
 76.34756     13.9 1.259e+04 1.535e-09
 76.37482     15.5 1.244e+04 1.106e-09
 76.41611     17.4 1.258e+04 6.900e-10
 76.44922     18.8 1.304e+04 3.919e-10
 76.46986     18.9 1.270e+04 3.655e-10
 76.49868     20.5 1.247e+04 3.368e-10
 76.53997     22.6 1.234e+04 3.551e-10
 76.57152     24.5 1.200e+04 4.411e-10
 76.59217     25.5 1.192e+04 4.756e-10
 76.62255     27.6 1.159e+04 5.676e-10
 76.66383     29.4 1.128e+04 6.572e-10
 76.69383     30.9 1.103e+04 7.533e-10
 76.71447     31.8 1.098e+04 8.006e-10
 76.74641     33.0 1.067e+04 1.039e-09
 76.77281     34.5 1.037e+04 1.361e-09
 76.79345     34.0 1.043e+04 1.547e-09
 76.81614     35.2 1.026e+04 1.732e-09
 76.83678     36.1 1.033e+04 1.808e-09
 76.87027     37.2 1.012e+04 1.650e-09
 76.91156     38.1 9.869e+03 1.404e-09
 76.93844     38.7 9.668e+03 1.378e-09
 76.95909     39.3 9.823e+03 1.521e-09
 76.99413     39.9 9.672e+03 1.712e-09
 77.03542     40.7 9.522e+03 2.002e-09
 77.06075     42.0 9.380e+03 2.285e-09
 77.08139     42.1 9.553e+03 3.057e-09
 77.11799     43.7 9.433e+03 3.189e-09
 77.15928     45.6 9.309e+03 3.175e-09
 77.18305     47.9 9.172e+03 3.293e-09
 77.20370     48.0 8.956e+03 2.885e-09
 77.24186     50.6 8.925e+03 2.958e-09
 77.27272     52.1 8.789e+03 2.834e-09
 77.29327     53.3 8.762e+03 2.998e-09
 77.30516     54.6 8.863e+03 3.596e-09
 77.31549     54.2 8.751e+03 3.155e-09
 77.33456     55.5 9.019e+03 4.197e-09
 77.35520     56.6 9.407e+03 5.506e-09
 77.36632     57.5 9.856e+03 7.117e-09
 77.37664     57.2 9.782e+03 6.900e-09
 77.39649     58.0 1.041e+04 9.396e-09
 77.41192     58.0 1.064e+04 1.111e-08
 77.42220     56.8 1.198e+04 1.190e-08
 77.43252     30.9 3.761e+04 2.772e-08
 77.43885      5.7 2.209e+04 1.032e-06
 77.44401      6.2 1.903e+04 2.345e-06
 77.45056      4.2 1.631e+04 1.134e-05
 77.45532      5.0 1.626e+04 1.385e-05
 77.45790      5.2 1.617e+04 1.485e-05
 77.46346      2.8 1.773e+04 5.911e-06
 77.47380    -13.9 3.751e+04 1.057e-07
 77.48336    -42.1 2.206e+04 2.047e-08
 77.48852    -42.4 2.311e+04 1.942e-08
 77.49966    -47.5 1.870e+04 1.268e-08
 77.52035    -53.7 1.074e+04 1.260e-08
 77.53945    -54.0 1.050e+04 1.183e-08
 77.54978    -54.5 9.868e+03 8.671e-09
 77.56164    -54.7 9.736e+03 7.941e-09
 77.58228    -54.8 9.656e+03 7.588e-09
 77.60061    -54.8 9.627e+03 7.490e-09
 77.61093    -55.1 9.235e+03 6.023e-09
 77.62357    -54.9 9.313e+03 6.400e-09
 77.64421    -54.5 9.480e+03 7.091e-09
 77.66176    -54.0 9.676e+03 7.846e-09
 77.67208    -53.9 9.371e+03 6.496e-09
 77.68550    -53.6 9.542e+03 6.914e-09
 77.70614    -53.4 9.671e+03 7.186e-09
 77.72291    -53.3 9.722e+03 7.293e-09
 77.73323    -53.6 9.436e+03 6.232e-09
 77.74743    -53.6 9.461e+03 6.344e-09
 77.76807    -53.6 9.478e+03 6.455e-09
 77.78406    -54.5 9.769e+03 6.791e-09
 77.79439    -54.0 9.529e+03 6.414e-09
 77.80936    -60.3 1.339e+04 8.907e-09
 77.83001    -69.9 1.842e+04 5.369e-08
 77.84517    -73.2 1.903e+04 1.423e-07
 77.85028    -71.8 1.845e+04 1.209e-07
 77.85571    -74.3 1.927e+04 2.367e-07
 77.86603    -77.1 1.993e+04 3.811e-07
 77.87570    -81.2 2.020e+04 4.295e-07
 77.88086    -78.8 2.026e+04 4.438e-07
 77.88668    -83.8 2.044e+04 4.280e-07
 77.89700    -90.1 2.010e+04 2.141e-07
 77.90627    -97.7 1.761e+04 6.786e-08
 77.91143    -94.7 1.889e+04 9.856e-08
 77.91764   -102.5 1.460e+04 3.285e-08
 77.92797   -106.7 1.224e+04 2.063e-08
 77.93685   -107.9 1.157e+04 1.746e-08
 77.94201   -107.5 1.160e+04 1.763e-08
 77.95382   -108.8 1.113e+04 1.445e-08
 77.96752   -111.4 9.875e+03 1.021e-08
 77.97785   -109.3 1.036e+04 1.146e-08
 77.99516   -111.0 9.420e+03 8.994e-09
 78.01580   -111.5 9.262e+03 8.637e-09
 78.02868   -111.6 9.313e+03 8.963e-09
 78.03900   -110.5 9.285e+03 8.806e-09
 78.05709   -110.6 9.493e+03 9.731e-09
 78.07773   -110.5 9.707e+03 1.071e-08
 78.08983   -110.5 9.770e+03 1.102e-08
 78.09674   -109.6 9.792e+03 1.107e-08
 78.10528   -110.6 9.757e+03 1.086e-08
 78.11902   -110.7 9.726e+03 1.080e-08
 78.13966   -110.7 9.571e+03 1.004e-08
 78.15098   -110.7 9.341e+03 8.796e-09
 78.16130   -110.0 9.560e+03 9.746e-09
 78.18095   -110.1 9.269e+03 8.209e-09
 78.20159   -110.2 8.974e+03 6.857e-09
 78.21214   -110.3 8.750e+03 5.942e-09
 78.22246   -109.7 8.937e+03 6.482e-09
 78.24288   -109.8 8.777e+03 5.818e-09
 78.26297   -109.8 8.733e+03 5.600e-09
 78.27329   -109.3 8.857e+03 5.904e-09
 78.28417   -109.3 8.838e+03 5.793e-09
 78.30481   -109.2 8.839e+03 5.770e-09
 78.32412   -109.0 8.838e+03 5.733e-09
 78.33444   -108.6 8.971e+03 6.013e-09
 78.34610   -108.2 8.928e+03 5.677e-09
 78.36674   -107.7 8.792e+03 5.028e-09
 78.38527   -107.1 8.586e+03 4.188e-09
 78.39559   -106.9 8.858e+03 4.946e-09
 78.40803   -106.2 8.667e+03 4.142e-09
 78.42867   -105.4 8.510e+03 3.476e-09
 78.44642   -104.6 8.438e+03 3.095e-09
 78.45675   -104.5 8.686e+03 3.677e-09
 78.46996   -103.7 8.636e+03 3.202e-09
 78.49060   -102.9 8.657e+03 2.916e-09
 78.50768   -102.2 8.685e+03 2.728e-09
 78.51800   -102.0 8.875e+03 3.118e-09
 78.53189   -101.2 8.880e+03 2.942e-09
 78.55253   -100.2 8.911e+03 2.877e-09
 78.56873    -99.4 8.986e+03 2.898e-09
 78.57905    -99.2 9.095e+03 3.054e-09
 78.60424    -98.1 9.106e+03 3.021e-09
 78.63008    -95.7 9.226e+03 3.044e-09
 78.64030    -96.0 9.398e+03 3.455e-09
 78.65575    -95.0 9.454e+03 3.495e-09
 78.67640    -93.7 9.578e+03 3.555e-09
 78.69104    -92.9 9.682e+03 3.547e-09
 78.70136    -93.0 9.780e+03 3.774e-09
 78.72810    -91.9 9.781e+03 3.491e-09
 78.75238    -90.1 9.743e+03 3.086e-09
 78.77303    -90.3 9.764e+03 2.878e-09
 78.81078    -87.8 9.640e+03 2.362e-09
 78.85206    -85.1 9.656e+03 2.191e-09
 78.87469    -82.4 9.776e+03 2.164e-09
 78.89533    -82.4 9.838e+03 1.863e-09
 78.93464    -80.1 9.870e+03 1.833e-09
 78.97593    -78.0 1.017e+04 1.826e-09
 78.99700    -76.0 1.045e+04 2.110e-09
 79.01764    -76.3 1.042e+04 1.952e-09
 79.05850    -74.5 1.062e+04 2.268e-09
 79.09866    -72.8 1.088e+04 2.520e-09
 79.11930    -72.7 1.071e+04 1.763e-09
 79.14107    -71.0 1.090e+04 1.642e-09
 79.18236    -69.2 1.094e+04 1.523e-09
 79.22096    -67.4 1.093e+04 1.433e-09
 79.24161    -67.1 1.083e+04 9.457e-10
 79.26494    -65.2 1.081e+04 9.598e-10
 79.30622    -63.4 1.076e+04 1.099e-09
 79.34327    -61.5 1.071e+04 1.305e-09
 79.36391    -60.9 1.069e+04 1.320e-09
 79.38880    -58.9 1.062e+04 1.513e-09
 79.41750    -56.9 1.053e+04 1.629e-09
 79.43814    -56.7 1.059e+04 1.651e-09
 79.46558    -54.7 1.059e+04 1.714e-09
 79.48622    -53.9 1.056e+04 1.696e-09
 79.51266    -51.6 1.057e+04 1.673e-09
 79.55395    -49.4 1.064e+04 1.794e-09
 79.58788    -47.3 1.075e+04 2.139e-09
 79.60853    -46.4 1.076e+04 2.099e-09
 79.63652    -44.4 1.094e+04 2.840e-09
 79.65926    -42.8 1.085e+04 3.131e-09
 79.66948    -42.5 1.094e+04 3.166e-09
 79.68794    -42.1 1.097e+04 3.572e-09
 79.70858    -41.0 1.102e+04 4.460e-09
 79.72031    -40.1 1.102e+04 5.086e-09
 79.73064    -39.5 1.109e+04 4.981e-09
 79.74987    -38.6 1.108e+04 5.537e-09
 79.77051    -37.8 1.105e+04 5.822e-09
 79.78147    -37.0 1.102e+04 5.978e-09
 79.79179    -36.4 1.107e+04 5.769e-09
 79.81180    -35.5 1.101e+04 5.760e-09
 79.83230    -34.7 1.093e+04 5.600e-09
 79.84262    -34.1 1.095e+04 5.351e-09
 79.85309    -33.3 1.085e+04 5.100e-09
 79.87373    -32.4 1.075e+04 4.796e-09
 79.89345    -31.6 1.061e+04 4.465e-09
 79.90377    -31.0 1.062e+04 4.235e-09
 79.91502    -30.3 1.046e+04 3.924e-09
 79.93566    -29.5 1.033e+04 3.686e-09
 79.95470    -28.4 1.019e+04 3.537e-09
 79.97544    -27.4 1.024e+04 3.570e-09
 80.00811    -24.2 1.002e+04 3.216e-09
 80.04940    -21.8 9.963e+03 2.871e-09
 80.07710    -19.4 9.924e+03 2.729e-09
 80.08733    -18.8 9.949e+03 2.871e-09
 80.10081    -18.5 9.926e+03 2.856e-09
 80.12145    -17.0 9.975e+03 2.893e-09
 80.13806    -16.6 9.952e+03 3.030e-09
 80.14838    -16.2 1.001e+04 3.552e-09
 80.16274    -15.0 1.014e+04 4.219e-09
 80.18338    -14.0 1.028e+04 4.848e-09
 80.19922    -13.0 1.046e+04 5.617e-09
 80.20954    -13.1 1.078e+04 7.543e-09
 80.22467    -12.5 1.112e+04 9.265e-09
 80.24532    -12.1 1.150e+04 1.149e-08
 80.26037    -12.0 1.187e+04 1.427e-08
 80.27069    -12.4 1.265e+04 2.410e-08
 80.28660    -12.0 1.308e+04 2.976e-08
 80.30725    -11.7 1.331e+04 3.369e-08
 80.32152    -11.3 1.336e+04 3.540e-08
 80.33184    -11.4 1.357e+04 3.986e-08
 80.34853    -10.9 1.323e+04 3.525e-08
 80.36918    -10.2 1.289e+04 3.050e-08
 80.38267     -9.5 1.254e+04 2.528e-08
 80.39300    -10.1 1.226e+04 2.207e-08
 80.41047     -9.7 1.187e+04 1.821e-08
 80.43111     -9.4 1.155e+04 1.559e-08
 80.44392     -8.8 1.126e+04 1.355e-08
 80.46467     -8.9 1.063e+04 1.048e-08
 80.50356     -6.5 1.040e+04 9.326e-09
 80.53442     -5.3 1.052e+04 9.589e-09
 80.55497     -4.9 1.042e+04 9.215e-09
 80.56613     -3.6 1.034e+04 8.862e-09
 80.57645     -3.9 1.026e+04 8.654e-09
 80.59626     -3.3 1.022e+04 8.589e-09
 80.61690     -2.5 1.022e+04 8.657e-09
 80.63755     -2.1 9.886e+03 7.489e-09
 80.65819     -1.3 9.807e+03 7.014e-09
 80.67812     -0.7 9.616e+03 6.493e-09
 80.68844     -1.1 9.372e+03 5.480e-09
 80.69948     -0.5 9.269e+03 5.185e-09
 80.72012      0.1 9.194e+03 5.004e-09
 80.73927      0.8 9.103e+03 4.850e-09
 80.74848      0.4 8.912e+03 4.295e-09
 80.74998      1.0 9.065e+03 5.069e-09
 80.76141      1.7 9.018e+03 5.029e-09
 80.78205      2.5 8.971e+03 4.966e-09
 80.80042      3.3 8.775e+03 4.656e-09
 80.81074      2.7 8.644e+03 4.115e-09
 80.82334      3.4 8.591e+03 3.941e-09
 80.84398      3.9 8.531e+03 3.770e-09
 80.86158      4.3 8.550e+03 3.798e-09
 80.87190      2.7 8.852e+03 4.124e-09
 80.88527      1.4 9.285e+03 5.118e-09
 80.90591      0.0 9.989e+03 7.669e-09
 80.92273     -0.8 1.076e+04 1.173e-08
 80.93305     -4.1 1.224e+04 2.216e-08
 80.94720     -4.5 1.295e+04 2.737e-08
 80.96784     -6.0 1.356e+04 2.986e-08
 80.98388     -8.4 1.378e+04 3.025e-08
 80.99420    -13.4 1.342e+04 2.804e-08
 81.00913    -15.8 1.300e+04 2.588e-08
 81.02978    -17.9 1.258e+04 2.345e-08
 81.04503    -20.0 1.208e+04 2.029e-08
 81.05536    -22.7 1.093e+04 1.357e-08
 81.07106    -24.0 1.039e+04 1.161e-08
 81.09171    -24.9 1.009e+04 1.021e-08
 81.10619    -25.4 9.960e+03 9.049e-09
 81.11651    -26.8 9.455e+03 6.043e-09
 81.13299    -27.5 9.224e+03 5.274e-09
 81.15364    -28.1 8.953e+03 4.649e-09
 81.16734    -28.5 8.725e+03 4.318e-09
 81.17766    -29.1 8.461e+03 3.717e-09
 81.19492    -28.9 8.430e+03 3.716e-09
 81.21557    -28.5 8.414e+03 3.752e-09
 81.22849    -28.1 8.435e+03 3.820e-09
 81.23881    -28.6 8.533e+03 3.928e-09
 81.25686    -28.1 8.572e+03 4.067e-09
 81.27750    -27.6 8.581e+03 4.143e-09
 81.28965    -27.0 8.576e+03 4.137e-09
 81.30006    -27.8 8.627e+03 4.690e-09
 81.32930    -26.8 8.751e+03 5.285e-09
 81.37059    -25.3 8.742e+03 5.425e-09
 81.40182    -23.5 8.687e+03 5.253e-09
 81.42247    -23.1 8.104e+03 3.873e-09
 81.45317    -21.3 7.794e+03 2.790e-09
 81.49445    -20.1 7.623e+03 2.298e-09
 81.52413    -19.4 7.689e+03 2.366e-09
 81.54477    -20.1 7.142e+03 1.398e-09
 81.57703    -19.6 8.088e+03 2.911e-09
 81.60790    -18.5 8.708e+03 4.579e-09
 81.62844    -18.5 9.054e+03 6.051e-09
 81.64624    -17.6 9.518e+03 7.785e-09
 81.66698    -17.0 9.566e+03 7.847e-09
 81.70089    -16.6 9.729e+03 8.193e-09
 81.74218    -16.6 9.737e+03 6.812e-09
 81.76864    -15.5 9.739e+03 6.026e-09
 81.77887    -15.0 9.572e+03 5.743e-09
 81.79359    -15.0 9.525e+03 5.236e-09
 81.81424    -14.5 9.603e+03 5.097e-09
 81.82970    -14.3 1.013e+04 5.375e-09
 81.84002    -13.8 9.641e+03 5.027e-09
 81.85552    -13.8 1.034e+04 5.519e-09
 81.87617    -14.9 1.146e+04 8.082e-09
 81.89085    -15.6 1.250e+04 1.751e-08
 81.90117    -14.9 1.185e+04 1.108e-08
 81.91745    -15.6 1.302e+04 2.395e-08
 81.93810    -16.0 1.464e+04 5.006e-08
 81.95201    -17.4 1.663e+04 9.674e-08
 81.96233    -16.9 1.545e+04 5.863e-08
 81.97938    -19.9 1.714e+04 1.003e-07
 81.99482    -22.6 1.774e+04 1.221e-07
 82.00509    -25.0 1.810e+04 1.533e-07
 82.01306    -27.2 1.840e+04 1.975e-07
 82.02343    -28.1 1.773e+04 1.415e-07
 82.04132    -31.6 1.787e+04 1.629e-07
 82.06196    -34.5 1.755e+04 1.511e-07
 82.07431    -35.8 1.707e+04 1.126e-07
 82.08463    -34.9 1.621e+04 7.575e-08
 82.10325    -36.5 1.542e+04 5.150e-08
 82.12389    -37.3 1.439e+04 3.254e-08
 82.13546    -37.4 1.341e+04 1.851e-08
 82.14579    -36.8 1.310e+04 1.484e-08
 82.16518    -36.8 1.256e+04 1.063e-08
 82.18582    -36.7 1.205e+04 8.111e-09
 82.19662    -36.3 1.159e+04 6.577e-09
 82.20694    -35.6 1.169e+04 6.929e-09
 82.22711    -35.1 1.136e+04 6.000e-09
 82.24745    -34.4 1.106e+04 5.032e-09
 82.25777    -33.9 1.119e+04 5.656e-09
 82.26840    -33.2 1.090e+04 4.689e-09
 82.28904    -32.4 1.063e+04 3.659e-09
 82.32010    -31.1 1.035e+04 2.758e-09
 82.35963    -30.1 1.002e+04 2.044e-09
 82.38027    -29.1 1.004e+04 2.182e-09
 82.40278    -27.7 9.561e+03 1.544e-09
 82.44406    -25.6 9.212e+03 1.232e-09
 82.48193    -23.7 9.073e+03 1.138e-09
 82.50258    -22.6 9.041e+03 9.957e-10
 82.52664    -20.6 8.941e+03 8.794e-10
 82.56792    -18.5 8.900e+03 8.624e-10
 82.60424    -16.4 8.921e+03 9.004e-10
 82.62488    -15.2 8.934e+03 7.389e-10
 82.65050    -13.3 9.018e+03 8.260e-10
 82.69179    -11.6 9.058e+03 1.117e-09
 82.72654     -9.7 9.235e+03 1.536e-09
 82.74719     -8.5 9.283e+03 1.517e-09
 82.77436     -6.8 9.588e+03 1.955e-09
 82.81565     -5.1 9.736e+03 2.198e-09
 82.84885     -3.7 9.723e+03 2.191e-09
 82.86949     -3.0 9.903e+03 2.149e-09
 82.89822     -1.7 9.803e+03 1.952e-09
 82.93951     -0.4 9.756e+03 1.965e-09
 82.97116      1.1 9.909e+03 2.440e-09
 82.99180      1.5 1.010e+04 2.521e-09
 83.01167      2.2 1.028e+04 2.926e-09
 83.03211      1.8 1.024e+04 3.409e-09
 83.04244      1.7 1.044e+04 3.846e-09
 83.05286      1.8 1.066e+04 4.916e-09
 83.07350      1.4 1.086e+04 6.226e-09
 83.09327      0.9 1.118e+04 8.146e-09
 83.10359      0.8 1.144e+04 9.628e-09
 83.11479     -0.7 1.197e+04 1.268e-08
 83.13543     -2.8 1.255e+04 1.760e-08
 83.15442     -4.9 1.300e+04 2.447e-08
 83.16474     -6.3 1.393e+04 3.470e-08
 83.17672     -8.0 1.421e+04 4.128e-08
 83.19736     -9.7 1.423e+04 4.279e-08
 83.21557    -11.3 1.390e+04 3.887e-08
 83.22589    -12.4 1.399e+04 4.147e-08
 83.23865    -13.8 1.321e+04 3.209e-08
 83.25929    -14.8 1.225e+04 2.255e-08
 83.27673    -15.3 1.162e+04 1.721e-08
 83.28705    -15.6 1.141e+04 1.603e-08
 83.30058    -15.7 1.098e+04 1.210e-08
 83.32122    -15.8 1.054e+04 8.985e-09
 83.33788    -16.0 1.018e+04 6.933e-09
 83.34820    -16.3 1.006e+04 6.419e-09
 83.36251    -16.3 9.932e+03 5.869e-09
 83.38315    -16.1 9.903e+03 5.763e-09
 83.39467    -16.3 1.014e+04 6.441e-09
 83.40022    -18.1 1.069e+04 8.996e-09
 83.40935    -18.5 1.095e+04 1.011e-08
 83.42444    -20.0 1.177e+04 1.550e-08
 83.44509    -21.7 1.280e+04 2.665e-08
 83.46018    -22.9 1.394e+04 4.597e-08
 83.47051    -24.2 1.422e+04 4.790e-08
 83.48637    -25.7 1.530e+04 7.033e-08
 83.50702    -28.3 1.617e+04 8.610e-08
 83.52134    -33.0 1.680e+04 9.045e-08
 83.53166    -34.9 1.574e+04 5.796e-08
 83.54830    -41.5 1.608e+04 5.177e-08
 83.56895    -48.3 1.621e+04 5.739e-08
 83.58249    -52.6 1.617e+04 7.782e-08
 83.59281    -52.6 1.529e+04 5.804e-08
 83.61023    -54.1 1.552e+04 7.246e-08
 83.63088    -55.0 1.551e+04 7.371e-08
 83.64364    -55.6 1.493e+04 5.684e-08
 83.65396    -55.7 1.466e+04 4.922e-08
 83.67217    -56.4 1.427e+04 4.048e-08
 83.69281    -56.8 1.391e+04 3.471e-08
 83.70480    -56.7 1.367e+04 3.148e-08
 83.71512    -56.5 1.382e+04 3.412e-08
 83.73410    -55.9 1.374e+04 3.255e-08
 83.75474    -55.0 1.372e+04 3.105e-08
 83.76595    -53.9 1.375e+04 3.064e-08
 83.77627    -54.5 1.363e+04 2.680e-08
 83.79603    -54.1 1.389e+04 2.682e-08
 83.81667    -54.3 1.488e+04 2.938e-08
 83.82710    -54.7 1.588e+04 4.214e-08
 83.83742    -56.5 1.526e+04 3.844e-08
 83.85796    -56.4 1.593e+04 5.046e-08
 83.87793    -56.0 1.642e+04 6.301e-08
 83.88825    -57.1 1.456e+04 4.130e-08
 83.89925    -56.9 1.446e+04 3.405e-08
 83.91989    -57.1 1.427e+04 2.816e-08
 83.93909    -57.7 1.384e+04 2.436e-08
 83.94941    -58.5 1.243e+04 1.319e-08
 83.96118    -58.4 1.244e+04 1.291e-08
 83.98182    -58.0 1.258e+04 1.367e-08
 84.00024    -57.4 1.257e+04 1.562e-08
 84.01056    -57.1 1.201e+04 1.105e-08
 84.02311    -56.4 1.220e+04 1.259e-08
 84.04375    -55.6 1.222e+04 1.402e-08
 84.06139    -54.9 1.214e+04 1.471e-08
 84.07171    -54.5 1.152e+04 8.244e-09
 84.09546    -53.5 1.133e+04 8.026e-09
 84.12264    -52.0 1.132e+04 8.690e-09
 84.13287    -52.0 1.113e+04 7.796e-09
 84.14697    -51.6 1.110e+04 7.804e-09
 84.16761    -51.1 1.111e+04 8.387e-09
 84.18370    -50.8 1.131e+04 9.783e-09
 84.19412    -50.8 1.093e+04 8.759e-09
 84.21942    -49.5 1.108e+04 1.065e-08
 84.26071    -48.2 1.117e+04 1.266e-08
 84.29588    -46.9 1.112e+04 1.309e-08
 84.31652    -46.4 1.050e+04 8.533e-09
 84.34328    -45.2 1.020e+04 7.473e-09
 84.38457    -44.0 9.837e+03 6.211e-09
 84.41818    -42.7 9.525e+03 5.206e-09
 84.43883    -42.0 9.375e+03 4.798e-09
 84.46714    -40.6 9.170e+03 4.491e-09
 84.50843    -39.0 9.000e+03 4.248e-09
 84.54049    -37.5 8.831e+03 3.983e-09
 84.56113    -36.3 8.684e+03 3.395e-09
 84.59100    -35.0 8.567e+03 3.225e-09
 84.63229    -33.7 8.492e+03 3.161e-09
 84.66279    -32.4 8.404e+03 3.073e-09
 84.68344    -31.5 8.464e+03 3.286e-09
 84.70689    -30.2 8.426e+03 3.317e-09
 84.72753    -30.2 8.365e+03 3.248e-09
 84.75615    -28.8 8.165e+03 2.982e-09
 84.78510    -27.5 7.912e+03 2.477e-09
 84.80574    -26.7 7.908e+03 2.408e-09
 84.83873    -25.5 7.640e+03 2.015e-09
 84.88002    -24.2 7.560e+03 1.916e-09
 84.90741    -23.0 7.540e+03 1.943e-09
 84.92805    -22.8 7.633e+03 2.060e-09
 84.95217    -21.9 8.153e+03 2.954e-09
 84.96836    -22.0 8.199e+03 3.090e-09
 84.97868    -21.8 8.162e+03 3.064e-09
 84.99336    -21.5 8.602e+03 4.415e-09
 85.01400    -22.7 9.347e+03 6.377e-09
 85.02952    -24.1 1.060e+04 1.137e-08
 85.03984    -22.7 1.005e+04 8.701e-09
 85.05529    -24.1 1.125e+04 1.527e-08
 85.07594    -25.2 1.233e+04 2.633e-08
 85.09067    -25.6 1.323e+04 3.969e-08
 85.10099    -25.7 1.267e+04 2.730e-08
 85.11722    -26.5 1.322e+04 3.753e-08
 85.13787    -27.7 1.384e+04 4.520e-08
 85.15182    -33.2 1.643e+04 5.205e-08
 85.16214    -37.7 1.859e+04 8.325e-08
 85.17394    -43.5 2.049e+04 1.134e-07
 85.18230    -50.6 2.138e+04 2.123e-07
 85.18746    -53.9 2.075e+04 3.934e-07
 85.19454    -59.1 1.920e+04 6.678e-07
 85.20486    -62.0 1.855e+04 7.832e-07
 85.21288    -63.7 1.846e+04 7.920e-07
 85.21804    -62.5 1.844e+04 7.004e-07
 85.22550    -65.1 1.916e+04 3.410e-07
 85.23583    -70.6 1.941e+04 1.254e-07
 85.24345    -76.9 1.760e+04 5.805e-08
 85.24861    -78.6 1.653e+04 4.747e-08
 85.26168    -82.0 1.508e+04 3.668e-08
 85.27413    -86.3 1.234e+04 2.141e-08
 85.28445    -87.9 1.138e+04 1.297e-08
 85.30302    -88.2 1.111e+04 1.127e-08
 85.32366    -88.3 1.077e+04 8.993e-09
 85.33528    -88.6 1.032e+04 6.825e-09
 85.34560    -89.6 1.017e+04 6.396e-09
 85.36495    -89.8 1.015e+04 5.459e-09
 85.38559    -90.1 1.022e+04 5.040e-09
 85.39643    -90.4 1.027e+04 4.955e-09
 85.40675    -92.1 1.117e+04 7.829e-09
 85.42688    -92.1 1.122e+04 8.427e-09
 85.44726    -91.8 1.127e+04 9.059e-09
 85.45759    -93.0 1.185e+04 1.507e-08
 85.46817    -92.8 1.188e+04 1.518e-08
 85.48881    -92.8 1.195e+04 1.539e-08
 85.50842    -93.3 1.222e+04 1.600e-08
 85.51874    -95.1 1.277e+04 2.222e-08
 85.53010    -97.0 1.372e+04 3.129e-08
 85.55074    -98.3 1.466e+04 4.907e-08
 85.56957    -99.3 1.557e+04 7.322e-08
 85.57989   -101.2 1.518e+04 5.541e-08
 85.59203   -103.3 1.532e+04 5.527e-08
 85.61267   -106.6 1.523e+04 4.177e-08
 85.63072   -110.8 1.442e+04 2.835e-08
 85.64104   -113.9 1.300e+04 2.059e-08
 85.65396   -117.6 1.242e+04 1.742e-08
 85.67460   -120.3 1.187e+04 1.482e-08
 85.69188   -122.2 1.134e+04 1.090e-08
 85.70220   -122.6 1.096e+04 8.858e-09
 85.71589   -124.5 1.031e+04 5.249e-09
 85.73653   -126.6 9.676e+03 3.489e-09
 85.75303   -128.0 9.382e+03 3.101e-09
 85.76335   -128.2 9.250e+03 2.720e-09
 85.77782   -128.6 9.193e+03 2.670e-09
 85.79846   -128.7 9.171e+03 2.688e-09
 85.81418   -128.7 9.275e+03 3.140e-09
 85.82450   -129.6 9.278e+03 2.913e-09
 85.83975   -134.0 1.289e+04 6.754e-09
 85.86040   -139.4 1.627e+04 2.579e-08
 85.87533   -143.6 1.757e+04 8.162e-08
 85.88566   -145.7 1.785e+04 1.242e-07
 85.90168   -148.4 1.790e+04 1.684e-07
 85.92233   -150.8 1.781e+04 1.689e-07
 85.93649   -152.9 1.731e+04 1.105e-07
 85.94681   -155.2 1.693e+04 6.235e-08
 85.96361   -158.6 1.543e+04 1.630e-08
 85.98426   -163.1 1.242e+04 4.503e-09
 85.99764   -166.3 1.037e+04 3.012e-09
 86.00796   -168.0 1.016e+04 2.948e-09
 86.02555   -168.2 1.015e+04 2.950e-09
 86.03937   -167.9 1.044e+04 3.444e-09
 86.04969   -168.7 1.062e+04 4.084e-09
 86.05879   -168.8 1.091e+04 5.354e-09
 86.06911   -169.4 1.102e+04 6.117e-09
 86.08748   -169.6 1.135e+04 7.826e-09
 86.10812   -169.8 1.171e+04 9.755e-09
 86.11995   -170.1 1.207e+04 1.149e-08
 86.13027   -170.9 1.214e+04 1.186e-08
 86.14941   -171.4 1.242e+04 1.303e-08
 86.17005   -172.1 1.261e+04 1.386e-08
 86.18110   -172.8 1.266e+04 1.413e-08
 86.19142   -173.6 1.283e+04 1.504e-08
 86.21134   -174.2 1.286e+04 1.503e-08
 86.23193   -174.8 1.284e+04 1.310e-08
 86.25257   -176.6 1.292e+04 1.176e-08
 86.27327   -177.4 1.261e+04 7.992e-09
 86.29308   -178.1 1.220e+04 5.084e-09
 86.30340   -179.3 1.218e+04 6.394e-09
 86.31456   -179.8 1.169e+04 4.281e-09
 86.33520   -180.1 1.134e+04 3.133e-09
 86.35424   -179.9 1.112e+04 2.531e-09
 86.36456   -180.4 1.104e+04 3.158e-09
 86.37649   -179.8 1.091e+04 2.619e-09
 86.39713   -179.1 1.086e+04 2.314e-09
 86.41539   -178.4 1.087e+04 2.182e-09
 86.42571   -178.4 1.080e+04 2.353e-09
 86.43842   -177.7 1.079e+04 2.265e-09
 86.45906   -176.8 1.079e+04 2.217e-09
 86.47654   -175.6 1.081e+04 2.188e-09
 86.49728   -175.7 1.075e+04 2.229e-09
 86.52109   -174.6 1.089e+04 2.194e-09
 86.53769   -174.8 1.121e+04 2.438e-09
 86.54802   -175.4 1.108e+04 2.646e-09
 86.56228   -175.7 1.142e+04 3.774e-09
 86.58292   -176.6 1.227e+04 6.225e-09
 86.59885   -177.9 1.350e+04 1.142e-08
 86.60917   -177.5 1.248e+04 7.208e-09
 86.62421   -179.3 1.340e+04 1.057e-08
 86.64486   -181.3 1.424e+04 1.599e-08
 86.66000   -183.1 1.485e+04 2.470e-08
 86.67032   -183.1 1.376e+04 1.261e-08
 86.68614   -184.6 1.423e+04 1.907e-08
 86.70679   -185.6 1.455e+04 2.854e-08
 86.72115   -186.0 1.475e+04 3.890e-08
 86.73147   -186.1 1.388e+04 2.386e-08
 86.74807   -186.3 1.404e+04 3.101e-08
 86.76872   -186.5 1.414e+04 3.640e-08
 86.78231   -186.5 1.417e+04 3.930e-08
 86.79263   -186.8 1.360e+04 2.794e-08
 86.81000   -187.0 1.381e+04 3.215e-08
 86.83065   -187.3 1.407e+04 3.627e-08
 86.84346   -187.7 1.437e+04 4.052e-08
 86.85378   -188.5 1.450e+04 4.253e-08
 86.87194   -188.8 1.508e+04 5.494e-08
 86.89258   -189.1 1.553e+04 6.646e-08
 86.90461   -189.6 1.575e+04 7.381e-08
 86.91493   -190.6 1.580e+04 7.661e-08
 86.93387   -191.2 1.581e+04 7.783e-08
 86.95451   -191.5 1.568e+04 7.706e-08
 86.96576   -191.6 1.534e+04 7.018e-08
 86.97609   -192.6 1.484e+04 5.965e-08
 86.99580   -192.3 1.443e+04 5.111e-08
 87.01644   -192.0 1.395e+04 4.233e-08
 87.02692   -191.4 1.343e+04 3.407e-08
 87.03724   -191.8 1.299e+04 2.900e-08
 87.05773   -190.9 1.251e+04 2.301e-08
 87.07775   -189.9 1.208e+04 1.817e-08
 87.08807   -190.0 1.177e+04 1.578e-08
 87.09902   -188.8 1.144e+04 1.262e-08
 87.11966   -187.6 1.120e+04 1.033e-08
 87.13890   -186.2 1.103e+04 8.741e-09
 87.14922   -186.1 1.088e+04 8.026e-09
 87.16095   -184.8 1.078e+04 6.988e-09
 87.18159   -183.5 1.071e+04 6.189e-09
 87.20005   -182.1 1.066e+04 5.585e-09
 87.21038   -182.0 1.061e+04 5.296e-09
 87.22288   -180.5 1.059e+04 4.842e-09
 87.24352   -179.2 1.058e+04 4.502e-09
 87.26121   -177.9 1.055e+04 4.220e-09
 87.27153   -177.6 1.050e+04 4.069e-09
 87.28481   -176.1 1.054e+04 3.738e-09
 87.30545   -174.5 1.061e+04 3.473e-09
 87.32236   -173.2 1.066e+04 3.304e-09
 87.33278   -173.5 1.080e+04 3.593e-09
 87.35159   -171.5 1.081e+04 3.357e-09
 87.37223   -171.9 1.055e+04 2.300e-09
 87.39854   -169.3 1.048e+04 1.940e-09
 87.43454   -166.7 1.051e+04 1.691e-09
 87.45518   -166.0 1.051e+04 1.497e-09
 87.48112   -163.3 1.058e+04 1.359e-09
 87.52241   -160.6 1.061e+04 1.320e-09
 87.55684   -157.9 1.063e+04 1.316e-09
 87.57749   -157.2 1.065e+04 1.276e-09
 87.60498   -154.7 1.091e+04 1.315e-09
 87.64627   -152.5 1.104e+04 1.508e-09
 87.67915   -150.5 1.114e+04 1.755e-09
 87.69979   -150.0 1.120e+04 1.786e-09
 87.72884   -148.3 1.130e+04 1.975e-09
 87.77013   -146.7 1.142e+04 2.053e-09
 87.80146   -145.1 1.146e+04 2.053e-09
 87.82210   -144.4 1.157e+04 2.099e-09
 87.85271   -142.8 1.167e+04 2.022e-09
 87.89399   -140.9 1.179e+04 1.908e-09
 87.92376   -138.9 1.190e+04 1.783e-09
 87.94441   -138.1 1.207e+04 1.947e-09
 87.97657   -135.8 1.218e+04 1.786e-09
 88.01786   -133.5 1.226e+04 1.705e-09
 88.04607   -131.1 1.228e+04 1.708e-09
 88.06671   -130.3 1.252e+04 1.853e-09
 88.10043   -128.2 1.288e+04 1.905e-09
 88.14172   -126.7 1.317e+04 2.735e-09
 88.16837   -125.5 1.337e+04 4.445e-09
 88.18902   -125.0 1.359e+04 5.325e-09
 88.21387   -122.8 1.347e+04 5.039e-09
 88.22933   -122.7 1.366e+04 6.774e-09
 88.23965   -123.1 1.398e+04 8.015e-09
 88.25506   -123.7 1.456e+04 1.351e-08
 88.27571   -124.3 1.543e+04 2.441e-08
 88.29048   -125.1 1.616e+04 4.002e-08
 88.30081   -125.3 1.653e+04 5.986e-08
 88.31699   -126.7 1.695e+04 6.815e-08
 88.33764   -128.9 1.747e+04 6.190e-08
 88.35164   -132.0 1.771e+04 3.854e-08
 88.36196   -134.3 1.787e+04 3.208e-08
 88.37892   -137.9 1.660e+04 1.904e-08
 88.39957   -140.4 1.558e+04 1.393e-08
 88.41279   -142.0 1.545e+04 1.124e-08
 88.42311   -143.3 1.546e+04 1.060e-08
 88.44086   -144.5 1.541e+04 8.557e-09
 88.46150   -145.8 1.531e+04 7.156e-09
 88.47394   -146.8 1.522e+04 6.301e-09
 88.48426   -147.4 1.518e+04 6.291e-09
 88.50279   -148.1 1.520e+04 6.032e-09
 88.52343   -148.8 1.523e+04 6.018e-09
 88.53510   -149.9 1.558e+04 6.234e-09
 88.54542   -151.1 1.586e+04 7.696e-09
 88.56472   -152.6 1.607e+04 1.196e-08
 88.58536   -153.9 1.625e+04 1.905e-08
 88.59625   -155.2 1.635e+04 2.658e-08
 88.60657   -156.3 1.626e+04 3.146e-08
 88.62665   -157.3 1.620e+04 3.318e-08
 88.64708   -157.8 1.588e+04 3.199e-08
 88.65740   -158.3 1.559e+04 3.196e-08
 88.66794   -158.4 1.552e+04 2.300e-08
 88.68406   -158.3 1.547e+04 1.588e-08
 88.69438   -156.8 1.556e+04 1.077e-08
 88.70823   -156.5 1.567e+04 7.884e-09
 88.71855   -156.5 1.567e+04 7.788e-09
 88.72987   -156.0 1.575e+04 6.238e-09
 88.75051   -155.3 1.554e+04 5.860e-09
 88.76939   -154.4 1.537e+04 5.825e-09
 88.77971   -154.2 1.530e+04 6.870e-09
 88.79180   -153.3 1.511e+04 7.138e-09
 88.81244   -152.3 1.491e+04 7.582e-09
 88.83054   -151.2 1.484e+04 7.754e-09
 88.84086   -151.0 1.480e+04 8.950e-09
 88.85373   -150.0 1.468e+04 8.906e-09
 88.87437   -149.0 1.456e+04 8.505e-09
 88.89169   -147.8 1.453e+04 7.621e-09
 88.90201   -147.6 1.450e+04 8.188e-09
 88.91566   -146.4 1.455e+04 7.038e-09
 88.93630   -145.1 1.471e+04 5.860e-09
 88.95284   -143.8 1.500e+04 4.831e-09
 88.96317   -143.7 1.483e+04 5.255e-09
 88.97759   -142.6 1.513e+04 4.472e-09
 89.00377   -141.5 1.534e+04 3.861e-09
 89.02451   -140.8 1.529e+04 4.213e-09
 89.05004   -138.8 1.532e+04 3.608e-09
 89.09133   -136.3 1.522e+04 3.030e-09
 89.12618   -133.7 1.510e+04 2.703e-09
 89.14682   -133.2 1.511e+04 2.760e-09
 89.17390   -130.4 1.508e+04 2.657e-09
 89.21519   -127.5 1.502e+04 2.705e-09
 89.24848   -124.8 1.489e+04 3.171e-09
 89.26913   -124.2 1.489e+04 3.200e-09
 89.29776   -121.6 1.479e+04 3.863e-09
 89.33905   -119.1 1.471e+04 4.425e-09
 89.37079   -116.9 1.462e+04 4.611e-09
 89.39143   -116.2 1.465e+04 4.974e-09
 89.42163   -113.9 1.453e+04 5.081e-09
 89.46291   -111.4 1.437e+04 4.360e-09
 89.49309   -108.8 1.433e+04 3.149e-09
 89.51374   -108.3 1.446e+04 4.500e-09
 89.54549   -105.7 1.444e+04 3.185e-09
 89.58677   -103.0 1.449e+04 2.184e-09
 89.61540   -100.5 1.457e+04 1.575e-09
 89.63604   -100.2 1.457e+04 2.390e-09
 89.66935    -97.7 1.457e+04 1.879e-09
 89.71064    -95.2 1.454e+04 1.739e-09
 89.73771    -92.6 1.447e+04 1.767e-09
 89.75835    -92.2 1.437e+04 1.913e-09
 89.79321    -89.6 1.418e+04 2.043e-09
 89.83450    -87.1 1.400e+04 2.677e-09
 89.86001    -84.6 1.389e+04 3.573e-09
 89.88065    -83.9 1.388e+04 2.419e-09
 89.91707    -81.5 1.388e+04 2.669e-09
 89.95836    -79.4 1.389e+04 2.687e-09
 89.98232    -77.4 1.392e+04 2.509e-09
 89.99959    -76.7 1.400e+04 2.134e-09
 90.01692    -75.3 1.402e+04 7.252e-09
 90.04094    -73.5 1.398e+04 6.732e-09
 90.08222    -71.6 1.396e+04 5.712e-09
 90.10462    -69.8 1.407e+04 5.234e-09
 90.12527    -69.6 1.425e+04 6.171e-09
 90.16480    -67.7 1.432e+04 6.471e-09
 90.20608    -65.6 1.432e+04 6.826e-09
 90.22693    -63.1 1.430e+04 7.312e-09
 90.24757    -63.1 1.441e+04 8.349e-09
 90.28866    -60.5 1.438e+04 8.747e-09
 90.32859    -57.9 1.447e+04 1.013e-08
 90.34923    -57.7 1.471e+04 1.001e-08
 90.37123    -55.4 1.479e+04 1.011e-08
 90.39997    -54.2 1.466e+04 7.979e-09
 90.41019    -54.5 1.465e+04 7.975e-09
 90.42265    -54.1 1.454e+04 7.770e-09
 90.44329    -53.3 1.486e+04 8.355e-09
 90.46102    -53.4 1.489e+04 9.326e-09
 90.47134    -54.2 1.504e+04 1.171e-08
 90.48458    -54.3 1.520e+04 1.470e-08
 90.50522    -54.5 1.520e+04 1.751e-08
 90.52218    -54.6 1.531e+04 1.994e-08
 90.53250    -55.5 1.517e+04 1.883e-08
 90.54651    -55.6 1.500e+04 1.814e-08
 90.56715    -55.4 1.492e+04 1.468e-08
 90.58333    -55.1 1.485e+04 1.104e-08
 90.59365    -55.6 1.481e+04 1.068e-08
 90.60844    -55.1 1.482e+04 8.617e-09
 90.62908    -54.5 1.486e+04 7.703e-09
 90.64448    -54.0 1.491e+04 7.484e-09
 90.65480    -53.9 1.490e+04 7.833e-09
 90.67037    -53.2 1.489e+04 7.685e-09
 90.69102    -52.6 1.515e+04 8.231e-09
 90.70563    -52.0 1.528e+04 1.018e-08
 90.71596    -51.7 1.528e+04 8.233e-09
 90.73230    -51.2 1.528e+04 1.022e-08
 90.75295    -50.7 1.528e+04 1.372e-08
 90.76679    -50.2 1.530e+04 1.841e-08
 90.77711    -49.9 1.521e+04 1.345e-08
 90.79423    -49.3 1.524e+04 1.681e-08
 90.81488    -48.9 1.534e+04 1.946e-08
 90.82794    -48.7 1.543e+04 2.107e-08
 90.83826    -48.0 1.532e+04 1.525e-08
 90.85617    -47.9 1.542e+04 1.653e-08
 90.87681    -47.9 1.544e+04 1.965e-08
 90.88909    -47.5 1.554e+04 2.509e-08
 90.89942    -46.9 1.532e+04 2.013e-08
 90.91810    -46.4 1.553e+04 2.667e-08
 90.93874    -45.9 1.579e+04 2.854e-08
 90.95025    -45.6 1.576e+04 2.403e-08
 90.96057    -45.0 1.567e+04 2.668e-08
 90.98003    -44.8 1.546e+04 2.195e-08
 91.00067    -44.6 1.529e+04 1.618e-08
 91.03173    -44.0 1.510e+04 1.181e-08
 91.06243    -42.4 1.504e+04 4.632e-09
 91.08307    -41.5 1.461e+04 9.513e-09
 91.11441    -40.1 1.467e+04 5.540e-09
 91.15569    -38.6 1.491e+04 3.530e-09
 91.18473    -37.2 1.503e+04 2.443e-09
 91.20537    -36.7 1.473e+04 3.842e-09
 91.23827    -35.5 1.475e+04 2.452e-09
 91.27956    -34.1 1.458e+04 2.181e-09
 91.30704    -32.5 1.443e+04 2.201e-09
 91.32768    -32.5 1.420e+04 2.537e-09
 91.36213    -31.0 1.413e+04 2.674e-09
 91.40342    -29.7 1.414e+04 3.074e-09
 91.42934    -28.5 1.419e+04 3.648e-09
 91.44999    -28.6 1.401e+04 3.666e-09
 91.48599    -27.6 1.403e+04 4.229e-09
 91.52728    -26.5 1.398e+04 4.420e-09
 91.55165    -25.5 1.417e+04 3.963e-09
 91.57229    -25.4 1.398e+04 3.318e-09
 91.60985    -25.3 1.433e+04 3.717e-09
 91.65114    -24.9 1.445e+04 4.876e-09
 91.67395    -24.5 1.448e+04 4.883e-09
 91.69460    -24.6 1.439e+04 5.508e-09
 91.73372    -23.9 1.504e+04 2.586e-09
 91.77500    -24.7 1.468e+04 1.837e-09
 91.79626    -23.9 1.466e+04 1.841e-09
 91.81690    -24.6 1.436e+04 2.005e-09
 91.85758    -24.0 1.424e+04 2.566e-09
 91.89792    -23.3 1.395e+04 3.016e-09
 91.91857    -23.6 1.361e+04 3.713e-09
 91.94015    -22.2 1.371e+04 2.426e-09
 91.98144    -21.8 1.400e+04 1.435e-09
 92.02023    -21.1 1.391e+04 1.271e-09
 92.04087    -21.5 1.387e+04 1.245e-09
 92.06402    -20.5 1.360e+04 1.429e-09
 92.10530    -19.4 1.378e+04 1.748e-09
 92.13617    -20.1 1.368e+04 3.028e-09
 92.15266    -21.3 1.434e+04 4.463e-09
 92.16298    -21.3 1.422e+04 5.036e-09
 92.17736    -21.1 1.343e+04 1.021e-08
 92.19800    -20.5 1.358e+04 1.194e-08
 92.21381    -21.7 1.494e+04 8.880e-09
 92.22414    -21.9 1.505e+04 8.234e-09
 92.23929    -24.3 1.412e+04 1.021e-08
 92.25994    -25.6 1.382e+04 1.168e-08
 92.27497    -26.2 1.376e+04 1.225e-08
 92.28529    -26.0 1.374e+04 1.415e-08
 92.30122    -26.7 1.358e+04 1.170e-08
 92.32187    -26.7 1.341e+04 1.071e-08
 92.35293    -27.2 1.331e+04 5.986e-09
 92.38715    -27.6 1.318e+04 3.303e-09
 92.40779    -27.4 1.301e+04 3.454e-09
 92.43560    -27.3 1.291e+04 2.445e-09
 92.47689    -27.0 1.274e+04 2.138e-09
 92.50945    -26.3 1.260e+04 2.182e-09
 92.53009    -25.4 1.244e+04 1.757e-09
 92.55946    -24.4 1.252e+04 1.450e-09
 92.60075    -23.5 1.250e+04 1.404e-09
 92.63176    -22.4 1.238e+04 1.515e-09
 92.65134    -21.4 1.238e+04 1.091e-09
 92.66162    -21.9 1.219e+04 1.560e-09
 92.68333    -20.2 1.196e+04 1.584e-09
 92.72461    -17.7 1.232e+04 9.794e-10
 92.75406    -16.2 1.266e+04 5.563e-10
 92.77471    -14.8 1.260e+04 5.534e-10
 92.80719    -13.6 1.260e+04 4.314e-10
 92.84848    -11.8 1.244e+04 3.961e-10
 92.87637     -9.8 1.242e+04 3.662e-10
 92.89701     -8.4 1.239e+04 3.563e-10
 92.93105     -6.3 1.239e+04 3.438e-10
 92.97234     -4.4 1.245e+04 3.593e-10
 92.99867     -2.9 1.249e+04 4.468e-10
 93.01932     -1.8 1.236e+04 5.393e-10
 93.05491     -0.1 1.221e+04 9.633e-10
 93.09620      1.8 1.211e+04 1.848e-09
 93.12098      3.4 1.243e+04 2.247e-09
 93.14162      4.7 1.241e+04 2.257e-09
 93.17877      5.8 1.250e+04 2.105e-09
 93.22006      6.8 1.264e+04 1.608e-09
 93.24329      7.9 1.283e+04 1.054e-09
 93.26393      8.9 1.277e+04 1.337e-09
 93.30264      9.7 1.297e+04 1.003e-09
 93.34392     10.5 1.306e+04 8.904e-10
 93.36559     11.8 1.306e+04 9.120e-10
 93.38624     12.3 1.296e+04 1.643e-09
 93.42650     13.7 1.307e+04 1.743e-09
 93.46725     15.1 1.316e+04 1.846e-09
 93.48790     15.5 1.322e+04 2.347e-09
 93.50907     16.8 1.331e+04 1.993e-09
 93.55036     18.1 1.329e+04 1.797e-09
 93.58956     19.5 1.313e+04 1.799e-09
 93.61020     19.4 1.318e+04 1.780e-09
 93.63293     20.8 1.311e+04 1.868e-09
 93.67422     22.1 1.308e+04 2.091e-09
 93.71187     23.2 1.308e+04 2.441e-09
 93.73251     23.3 1.308e+04 2.357e-09
 93.75680     24.8 1.313e+04 2.768e-09
 93.79808     25.7 1.338e+04 3.080e-09
 93.82895     26.0 1.362e+04 3.230e-09
 93.84430     26.2 1.363e+04 3.795e-09
 93.85462     26.1 1.371e+04 2.791e-09
 93.87014     25.9 1.368e+04 3.302e-09
 93.89079     25.4 1.381e+04 3.959e-09
 93.90545     23.5 1.438e+04 6.234e-09
 93.91577     23.2 1.428e+04 4.674e-09
 93.93207     20.2 1.484e+04 1.044e-08
 93.95272     17.3 1.541e+04 2.167e-08
 93.96660     14.1 1.564e+04 2.439e-08
 93.97693     14.8 1.524e+04 1.763e-08
 93.99400     12.2 1.476e+04 1.368e-08
 94.01465     10.4 1.458e+04 1.325e-08
 94.04571      8.8 1.413e+04 9.581e-09
 94.07878      8.1 1.362e+04 4.125e-09
 94.09943      9.8 1.366e+04 4.312e-09
 94.12838      9.8 1.366e+04 1.740e-09
 94.16967      9.3 1.388e+04 8.722e-10
 94.20109      9.7 1.357e+04 7.219e-10
 94.22173     11.1 1.355e+04 8.327e-10
 94.25225     11.9 1.340e+04 7.235e-10
 94.29353     13.0 1.338e+04 7.252e-10
 94.32339     14.0 1.336e+04 7.769e-10
 94.34404     15.0 1.332e+04 8.044e-10
 94.37611     16.2 1.320e+04 8.864e-10
 94.41739     17.5 1.310e+04 8.504e-10
 94.44570     19.0 1.303e+04 7.271e-10
 94.46634     20.1 1.295e+04 7.160e-10
 94.49997     21.7 1.296e+04 5.523e-10
 94.54126     23.4 1.302e+04 4.202e-10
 94.56801     25.2 1.305e+04 3.362e-10
 94.58865     26.4 1.306e+04 2.752e-10
 94.62383     28.1 1.307e+04 2.298e-10
 94.66512     30.1 1.296e+04 2.230e-10
 94.69031     32.2 1.295e+04 2.243e-10
 94.71096     33.3 1.295e+04 1.947e-10
 94.74769     35.4 1.293e+04 2.052e-10
 94.78898     37.5 1.288e+04 2.333e-10
 94.81262     39.6 1.284e+04 2.932e-10
 94.83326     40.4 1.289e+04 2.657e-10
 94.87156     42.4 1.282e+04 3.804e-10
 94.91284     44.5 1.267e+04 5.763e-10
 94.93492     46.7 1.258e+04 8.000e-10
 94.95557     47.5 1.270e+04 6.356e-10
 94.99542     49.5 1.286e+04 6.637e-10
 95.03659     51.2 1.289e+04 6.514e-10
 95.07787     53.4 1.294e+04 5.053e-10
 95.11928     55.1 1.295e+04 4.468e-10
 95.15889     57.0 1.297e+04 3.991e-10
 95.17953     57.3 1.295e+04 3.764e-10
 95.20185     59.2 1.293e+04 3.761e-10
 95.24314     61.2 1.291e+04 3.885e-10
 95.28120     63.2 1.289e+04 4.215e-10
 95.30184     63.7 1.282e+04 4.657e-10
 95.30631     65.9 1.285e+04 5.201e-10
 95.32696     65.4 1.287e+04 5.866e-10
 95.36700     67.5 1.291e+04 6.010e-10
 95.40350     69.6 1.291e+04 5.912e-10
 95.42415     69.9 1.290e+04 5.480e-10
 95.44958     72.1 1.298e+04 4.386e-10
 95.49087     74.2 1.309e+04 3.265e-10
 95.52581     76.2 1.320e+04 2.443e-10
 95.54645     76.2 1.315e+04 2.198e-10
 95.57344     78.2 1.309e+04 2.010e-10
 95.61473     80.4 1.308e+04 2.013e-10
 95.64811     82.6 1.310e+04 2.035e-10
 95.66876     83.0 1.285e+04 2.738e-10
 95.69730     85.2 1.292e+04 3.066e-10
 95.73859     87.3 1.294e+04 3.591e-10
 95.77042     89.4 1.293e+04 4.296e-10
 95.79106     90.1 1.273e+04 6.923e-10
 95.82116     92.2 1.281e+04 8.277e-10
 95.86245     94.0 1.287e+04 9.687e-10
 95.89273     95.7 1.296e+04 1.102e-09
 95.91337     96.2 1.277e+04 1.615e-09
 95.94503     97.7 1.288e+04 1.973e-09
 95.98631     99.0 1.313e+04 2.407e-09
 96.01493     99.4 1.338e+04 2.743e-09
 96.02516     99.3 1.309e+04 3.486e-09
 96.03773     99.7 1.310e+04 4.405e-09
 96.05837    100.0 1.320e+04 5.732e-09
 96.07599    100.0 1.335e+04 7.511e-09
 96.08631    100.4 1.355e+04 7.974e-09
 96.11008     99.4 1.397e+04 9.105e-09
 96.13734     97.5 1.414e+04 1.011e-08
 96.15798     97.0 1.421e+04 1.177e-08
 96.19275     94.8 1.403e+04 9.551e-09
 96.23404     93.3 1.374e+04 4.275e-09
 96.25964     92.1 1.370e+04 1.314e-09
 96.28029     92.1 1.332e+04 2.338e-09
 96.31661     91.8 1.304e+04 1.267e-09
 96.35790     92.3 1.286e+04 1.062e-09
 96.38195     93.5 1.278e+04 9.763e-10
 96.40259     93.8 1.309e+04 1.271e-09
 96.44047     95.0 1.309e+04 1.144e-09
 96.48176     96.3 1.301e+04 1.091e-09
 96.50425     97.7 1.299e+04 1.114e-09
 96.52490     97.8 1.291e+04 1.938e-09
 96.56434     99.2 1.274e+04 2.441e-09
 96.60562    100.6 1.261e+04 3.202e-09
 96.62656    102.0 1.267e+04 3.885e-09
 96.64720    101.9 1.293e+04 3.635e-09
 96.68820    102.9 1.305e+04 3.074e-09
 96.72822    103.8 1.312e+04 2.356e-09
 96.74887    103.5 1.322e+04 1.861e-09
 96.77077    104.5 1.297e+04 1.691e-09
 96.81206    105.9 1.273e+04 1.625e-09
 96.85053    107.5 1.256e+04 1.595e-09
 96.87117    107.8 1.277e+04 1.631e-09
 96.89464    109.5 1.278e+04 1.401e-09
 96.93592    111.1 1.284e+04 1.177e-09
 96.97283    112.8 1.282e+04 1.064e-09
 96.99348    113.0 1.288e+04 1.084e-09
 97.01850    114.8 1.287e+04 1.099e-09
 97.05979    116.5 1.285e+04 1.170e-09
 97.09514    118.2 1.288e+04 1.326e-09
 97.11578    118.4 1.311e+04 1.429e-09
 97.14236    119.8 1.320e+04 1.538e-09
 97.18365    121.1 1.333e+04 1.638e-09
 97.21745    122.2 1.347e+04 1.776e-09
 97.23809    122.0 1.342e+04 1.639e-09
 97.26622    123.0 1.352e+04 1.787e-09
 97.30751    124.0 1.365e+04 1.982e-09
 97.33975    124.9 1.381e+04 2.265e-09
 97.36040    124.8 1.373e+04 2.107e-09
 97.39008    125.6 1.390e+04 2.438e-09
 97.43137    126.4 1.399e+04 2.818e-09
 97.46206    127.1 1.389e+04 3.123e-09
 97.48270    127.5 1.386e+04 3.329e-09
 97.51395    128.1 1.380e+04 3.299e-09
 97.55523    128.9 1.355e+04 3.081e-09
 97.58436    130.1 1.329e+04 2.534e-09
 97.60501    130.3 1.331e+04 2.567e-09
 97.63781    131.5 1.327e+04 1.731e-09
 97.67910    132.9 1.335e+04 1.096e-09
 97.70667    134.4 1.313e+04 7.891e-10
 97.72731    134.7 1.282e+04 1.072e-09
 97.76167    136.7 1.253e+04 1.065e-09
 97.80296    139.0 1.248e+04 1.079e-09
 97.82897    141.4 1.232e+04 1.156e-09
 97.84962    142.1 1.224e+04 1.465e-09
 97.88553    144.3 1.214e+04 1.630e-09
 97.92682    146.4 1.208e+04 1.828e-09
 97.95101    148.4 1.204e+04 2.017e-09
 97.95483    147.4 1.224e+04 2.046e-09
 97.97192    148.0 1.214e+04 1.938e-09
 98.00939    149.8 1.209e+04 2.150e-09
 98.05068    151.5 1.210e+04 2.361e-09
 98.07359    153.0 1.215e+04 2.571e-09
 98.09423    153.5 1.204e+04 2.125e-09
 98.13326    154.9 1.206e+04 2.333e-09
 98.17454    156.1 1.201e+04 2.507e-09
 98.19589    157.3 1.188e+04 2.622e-09
 98.21654    157.6 1.173e+04 2.217e-09
 98.25712    158.8 1.157e+04 2.269e-09
 98.29755    160.0 1.143e+04 2.340e-09
 98.31820    160.4 1.129e+04 2.114e-09
 98.33969    161.8 1.115e+04 2.206e-09
 98.38098    163.1 1.101e+04 2.417e-09
 98.41986    164.2 1.092e+04 2.727e-09
 98.44050    164.8 1.078e+04 2.407e-09
 98.46356    165.5 1.072e+04 2.803e-09
 98.49124    166.3 1.062e+04 3.524e-09
 98.50146    166.4 1.066e+04 3.404e-09
 98.51497    166.8 1.064e+04 4.245e-09
 98.53561    167.1 1.069e+04 5.339e-09
 98.55229    167.0 1.082e+04 6.559e-09
 98.56261    167.1 1.084e+04 6.879e-09
 98.57690    167.1 1.101e+04 8.356e-09
 98.59754    166.9 1.116e+04 9.661e-09
 98.61345    166.6 1.124e+04 1.051e-08
 98.62377    166.7 1.116e+04 1.014e-08
 98.63883    166.2 1.108e+04 9.922e-09
 98.65947    165.8 1.090e+04 9.576e-09
 98.67460    165.4 1.086e+04 9.589e-09
 98.68492    165.8 1.061e+04 8.408e-09
 98.70076    165.5 1.062e+04 8.590e-09
 98.72141    165.1 1.073e+04 9.588e-09
 98.73575    164.6 1.098e+04 1.181e-08
 98.74607    165.4 1.077e+04 1.046e-08
 98.76269    165.1 1.112e+04 1.354e-08
 98.78334    164.9 1.141e+04 1.693e-08
 98.79690    164.8 1.167e+04 1.998e-08
 98.80723    165.7 1.154e+04 1.909e-08
 98.82462    165.6 1.176e+04 2.204e-08
 98.84527    165.6 1.176e+04 2.214e-08
 98.85806    165.5 1.166e+04 2.086e-08
 98.86838    166.7 1.157e+04 2.143e-08
 98.88656    166.7 1.140e+04 1.963e-08
 98.90720    166.6 1.107e+04 1.677e-08
 98.91921    166.5 1.062e+04 1.352e-08
 98.92953    167.7 1.072e+04 1.440e-08
 98.94849    167.5 1.021e+04 1.128e-08
 98.96913    167.2 9.638e+03 8.611e-09
 98.98036    166.8 9.074e+03 6.569e-09
 98.99068    167.8 9.249e+03 7.087e-09
 99.01042    167.3 8.719e+03 5.469e-09
 99.03106    166.7 8.306e+03 4.417e-09
 99.04152    166.3 7.999e+03 3.757e-09
 99.05184    167.1 8.107e+03 4.178e-09
 99.07235    166.7 7.883e+03 3.830e-09
 99.09235    166.6 7.843e+03 3.796e-09
 99.10267    167.4 8.001e+03 4.372e-09
 99.11364    167.3 8.002e+03 4.401e-09
 99.13428    167.3 8.034e+03 4.573e-09
 99.15350    167.2 8.144e+03 4.941e-09
 99.16382    167.8 8.346e+03 5.838e-09
 99.17557    167.7 8.552e+03 6.581e-09
 99.19621    167.6 8.812e+03 7.504e-09
 99.21465    167.4 9.110e+03 8.580e-09
 99.22497    167.8 9.453e+03 1.046e-08
 99.23750    167.5 9.825e+03 1.209e-08
 99.25814    167.1 1.018e+04 1.371e-08
 99.27316    166.6 1.053e+04 1.525e-08
 99.28050    166.7 1.019e+04 1.344e-08
 99.28613    166.6 1.060e+04 1.601e-08
 99.29943    166.0 1.078e+04 1.660e-08
 99.32007    165.4 1.094e+04 1.723e-08
 99.33696    164.7 1.119e+04 1.845e-08
 99.34728    163.4 1.173e+04 2.162e-08
 99.36136    162.8 1.218e+04 2.470e-08
 99.38200    162.4 1.273e+04 2.936e-08
 99.39811    162.1 1.329e+04 3.522e-08
 99.40843    159.8 1.405e+04 4.352e-08
 99.42329    159.0 1.483e+04 5.483e-08
 99.44393    157.9 1.585e+04 7.513e-08
 99.45926    156.8 1.686e+04 1.111e-07
 99.46959    153.8 1.758e+04 1.860e-07
 99.48522    152.8 1.759e+04 1.912e-07
 99.50587    152.0 1.725e+04 1.707e-07
 99.52042    152.0 1.638e+04 1.144e-07
 99.53074    152.3 1.531e+04 5.792e-08
 99.54715    152.1 1.420e+04 2.306e-08
 99.56780    150.9 1.316e+04 8.644e-09
 99.58157    149.1 1.221e+04 4.490e-09
 99.59189    147.8 1.151e+04 3.914e-09
 99.61950    148.5 1.132e+04 3.397e-09
 99.64292    149.6 1.090e+04 2.531e-09
 99.66356    150.7 1.067e+04 2.706e-09
 99.70218    152.1 1.050e+04 2.026e-09
 99.74346    153.5 1.037e+04 1.723e-09
 99.76522    154.8 1.005e+04 1.709e-09
 99.78587    155.6 1.014e+04 2.176e-09
 99.82604    157.0 1.006e+04 2.063e-09
 99.86689    158.4 1.008e+04 2.056e-09
 99.88753    159.1 1.008e+04 2.682e-09
 99.90861    160.5 1.015e+04 2.719e-09
 99.94990    161.9 1.021e+04 2.880e-09
 99.98919    163.2 1.023e+04 3.108e-09
