# Columns:
#   distance along LOS (in CHIMPs)
#   peculiar velocity  (in km/s)
#   temperature (K)
#   HI number density
# pos=(223.148,107.105,61.2926), angles=(1.50559,6.19775)
  0.00824    -13.9 1.088e+04 1.145e-09
  0.03612    -12.8 1.096e+04 1.252e-09
  0.07541    -11.7 1.104e+04 1.571e-09
  0.11470    -10.6 1.113e+04 2.044e-09
  0.15399     -9.7 1.130e+04 2.418e-09
  0.18306     -8.9 1.142e+04 2.659e-09
  0.20270    -10.1 1.142e+04 2.293e-09
  0.23257     -9.5 1.144e+04 2.246e-09
  0.27185     -9.0 1.166e+04 1.887e-09
  0.31114     -8.9 1.176e+04 1.737e-09
  0.35043     -8.4 1.160e+04 2.141e-09
  0.38972     -7.2 1.168e+04 2.324e-09
  0.42901     -6.1 1.195e+04 1.689e-09
  0.46830     -5.8 1.216e+04 1.195e-09
  0.49287     -5.2 1.213e+04 1.101e-09
  0.51251     -5.7 1.217e+04 1.452e-09
  0.54688     -4.9 1.225e+04 1.551e-09
  0.58617     -4.1 1.243e+04 1.718e-09
  0.62546     -3.6 1.277e+04 2.150e-09
  0.64807     -3.2 1.287e+04 2.851e-09
  0.65779     -4.0 1.284e+04 3.802e-09
  0.67437     -4.2 1.326e+04 4.513e-09
  0.69402     -4.2 1.284e+04 6.671e-09
  0.71366     -4.1 1.293e+04 7.179e-09
  0.73331     -4.3 1.276e+04 7.691e-09
  0.75295     -4.2 1.266e+04 7.381e-09
  0.77259     -4.5 1.273e+04 5.737e-09
  0.78987     -4.7 1.259e+04 5.548e-09
  0.79969     -5.3 1.247e+04 5.221e-09
  0.82180     -5.2 1.244e+04 4.294e-09
  0.86119     -4.7 1.211e+04 3.631e-09
  0.90048     -3.9 1.199e+04 2.814e-09
  0.93977     -3.1 1.181e+04 2.283e-09
  0.97906     -2.0 1.160e+04 2.208e-09
  1.01835     -0.5 1.153e+04 2.198e-09
  1.05763      1.1 1.158e+04 2.110e-09
  1.08727      2.4 1.163e+04 2.279e-09
  1.10362      2.2 1.164e+04 2.292e-09
  1.11328      0.8 1.166e+04 2.051e-09
  1.13621      2.3 1.179e+04 2.051e-09
  1.17550      4.1 1.180e+04 1.945e-09
  1.21479      5.7 1.187e+04 1.764e-09
  1.25408      7.2 1.191e+04 1.662e-09
  1.29337      8.4 1.193e+04 1.827e-09
  1.33266      9.5 1.196e+04 2.539e-09
  1.36203      9.8 1.200e+04 3.697e-09
  1.38157     10.6 1.204e+04 4.619e-09
  1.39409     11.0 1.216e+04 5.764e-09
  1.40391     11.0 1.209e+04 5.181e-09
  1.42086     11.8 1.206e+04 6.253e-09
  1.44051     12.3 1.216e+04 7.189e-09
  1.46015     12.7 1.224e+04 7.757e-09
  1.47980     13.5 1.209e+04 7.419e-09
  1.49944     13.2 1.212e+04 7.147e-09
  1.51909     14.5 1.159e+04 5.327e-09
  1.53873     14.3 1.164e+04 4.919e-09
  1.55837     16.0 1.129e+04 3.474e-09
  1.56837     16.0 1.133e+04 3.383e-09
  1.57829     15.6 1.133e+04 3.304e-09
  1.60768     17.1 1.118e+04 2.315e-09
  1.64697     18.8 1.103e+04 1.797e-09
  1.68166     20.9 1.093e+04 1.500e-09
  1.70131     21.5 1.108e+04 2.096e-09
  1.72555     23.5 1.107e+04 1.929e-09
  1.76484     25.7 1.107e+04 1.866e-09
  1.80413     27.7 1.108e+04 1.922e-09
  1.84341     29.7 1.110e+04 2.177e-09
  1.88270     31.7 1.116e+04 2.662e-09
  1.92199     33.6 1.119e+04 3.090e-09
  1.96128     35.3 1.118e+04 3.138e-09
  2.00057     37.1 1.110e+04 2.979e-09
  2.02385     39.2 1.095e+04 2.505e-09
  2.04349     38.7 1.092e+04 2.357e-09
  2.07915     40.7 1.085e+04 1.862e-09
  2.11844     42.8 1.084e+04 1.544e-09
  2.15773     44.9 1.085e+04 1.452e-09
  2.19702     47.1 1.086e+04 1.495e-09
  2.23630     49.3 1.091e+04 1.546e-09
  2.27559     51.6 1.097e+04 1.565e-09
  2.29571     53.9 1.101e+04 1.545e-09
  2.31535     53.7 1.097e+04 1.492e-09
  2.35417     56.1 1.104e+04 1.423e-09
  2.39346     58.6 1.107e+04 1.281e-09
  2.43275     61.1 1.106e+04 1.081e-09
  2.46931     63.8 1.100e+04 8.865e-10
  2.48896     63.5 1.098e+04 9.202e-10
  2.51133     66.1 1.090e+04 7.668e-10
  2.55062     68.8 1.086e+04 6.429e-10
  2.58991     71.4 1.078e+04 5.660e-10
  2.62919     74.2 1.061e+04 5.542e-10
  2.66848     77.1 1.059e+04 5.560e-10
  2.70777     80.1 1.055e+04 5.700e-10
  2.74706     82.9 1.045e+04 6.227e-10
  2.78635     85.7 1.037e+04 7.314e-10
  2.82564     88.4 1.036e+04 9.466e-10
  2.86493     91.1 1.048e+04 1.305e-09
  2.89010     93.5 1.069e+04 1.779e-09
  2.90975     93.6 1.106e+04 2.386e-09
  2.93442     95.5 1.124e+04 2.935e-09
  2.95407     94.0 1.139e+04 3.139e-09
  2.98280     95.5 1.145e+04 3.353e-09
  3.02208     97.2 1.145e+04 3.273e-09
  3.06137     99.2 1.129e+04 2.647e-09
  3.10066    101.2 1.111e+04 1.918e-09
  3.13995    103.2 1.095e+04 1.461e-09
  3.17924    105.3 1.080e+04 1.244e-09
  3.21853    107.7 1.081e+04 1.250e-09
  3.25782    109.9 1.083e+04 1.281e-09
  3.29711    112.1 1.086e+04 1.353e-09
  3.33640    113.9 1.091e+04 1.462e-09
  3.37569    115.5 1.099e+04 1.553e-09
  3.39953    116.8 1.104e+04 1.585e-09
  3.41918    116.7 1.115e+04 1.517e-09
  3.45426    117.9 1.113e+04 1.481e-09
  3.48450    118.9 1.112e+04 1.504e-09
  3.50415    118.0 1.112e+04 1.475e-09
  3.53284    119.1 1.109e+04 1.610e-09
  3.57213    119.8 1.114e+04 1.975e-09
  3.61142    120.2 1.128e+04 2.423e-09
  3.63199    120.5 1.130e+04 2.713e-09
  3.64171    120.5 1.138e+04 2.719e-09
  3.66034    120.9 1.145e+04 3.162e-09
  3.67998    121.0 1.151e+04 3.844e-09
  3.69962    121.0 1.164e+04 4.718e-09
  3.71927    120.7 1.192e+04 6.280e-09
  3.73891    119.8 1.252e+04 9.986e-09
  3.75856    118.3 1.344e+04 1.846e-08
  3.77820    116.4 1.435e+04 3.294e-08
  3.79133    114.3 1.483e+04 4.432e-08
  3.80115    113.1 1.611e+04 8.083e-08
  3.81749    110.6 1.595e+04 7.596e-08
  3.83714    108.9 1.516e+04 5.382e-08
  3.85462    107.5 1.383e+04 2.808e-08
  3.86444    107.5 1.373e+04 2.676e-08
  3.87643    105.9 1.222e+04 1.300e-08
  3.89607    104.2 1.121e+04 7.500e-09
  3.91571    103.4 1.086e+04 5.585e-09
  3.93536    103.3 1.068e+04 4.900e-09
  3.95500    103.3 1.042e+04 4.558e-09
  3.97465    103.5 1.011e+04 4.381e-09
  3.99429    103.8 9.960e+03 4.380e-09
  4.01394    104.4 9.984e+03 4.414e-09
  4.03358    105.0 1.007e+04 4.634e-09
  4.05323    105.2 1.021e+04 5.185e-09
  4.07287    105.0 1.045e+04 6.267e-09
  4.08718    104.3 1.094e+04 8.538e-09
  4.09301    104.1 1.088e+04 8.387e-09
  4.09835    102.3 1.142e+04 1.123e-08
  4.11216    101.2 1.217e+04 1.814e-08
  4.13180    100.5 1.270e+04 2.619e-08
  4.15145     99.9 1.282e+04 2.871e-08
  4.17109     99.4 1.272e+04 2.774e-08
  4.19074     99.1 1.228e+04 2.351e-08
  4.21038     98.9 1.155e+04 1.760e-08
  4.23003     98.6 1.071e+04 1.257e-08
  4.24967     98.4 9.963e+03 9.219e-09
  4.26932     98.5 9.409e+03 7.218e-09
  4.28896     99.0 9.057e+03 6.026e-09
  4.30860     99.9 8.838e+03 5.278e-09
  4.31973    101.1 8.701e+03 4.823e-09
  4.32955    100.3 8.544e+03 4.275e-09
  4.34789    101.6 8.529e+03 4.193e-09
  4.36754    103.0 8.550e+03 4.206e-09
  4.38573    104.3 8.644e+03 4.337e-09
  4.39555    104.4 8.814e+03 4.724e-09
  4.40683    105.8 9.302e+03 5.813e-09
  4.42151    106.9 9.715e+03 6.946e-09
  4.43100    107.0 9.950e+03 7.661e-09
  4.43591    105.8 9.863e+03 7.376e-09
  4.44111    105.1 1.098e+04 8.154e-09
  4.45093    102.2 1.621e+04 1.024e-08
  4.46075     92.4 2.773e+04 2.621e-08
  4.47057     79.8 2.885e+04 1.590e-07
  4.47792     73.7 2.342e+04 9.241e-07
  4.48280     69.8 1.886e+04 4.046e-06
  4.48771     68.1 1.684e+04 9.954e-06
  4.49155     67.5 1.651e+04 1.214e-05
  4.49400     66.9 1.674e+04 8.936e-06
  4.49754     66.2 1.681e+04 8.383e-06
  4.50245     65.3 1.692e+04 7.284e-06
  4.50984     64.4 1.739e+04 5.345e-06
  4.51969     58.0 2.489e+04 9.554e-07
  4.52951     42.3 4.665e+04 3.326e-08
  4.53914     17.2 2.616e+04 1.876e-08
  4.54405      9.8 1.282e+04 2.265e-08
  4.54728      8.7 1.225e+04 2.261e-08
  4.55219      9.4 1.214e+04 2.134e-08
  4.56393      6.7 1.244e+04 2.226e-08
  4.58363      3.6 1.194e+04 1.921e-08
  4.60327      0.9 1.131e+04 1.398e-08
  4.62292     -1.3 1.055e+04 9.410e-09
  4.64256     -3.0 9.808e+03 6.261e-09
  4.66221     -3.7 9.163e+03 4.355e-09
  4.68185     -4.1 8.922e+03 3.400e-09
  4.69275     -3.7 8.649e+03 2.646e-09
  4.71249     -2.7 7.978e+03 1.579e-09
  4.75080     -1.6 7.883e+03 1.553e-09
  4.77521      0.4 8.082e+03 1.780e-09
  4.79486      2.7 8.077e+03 1.914e-09
  4.82938      5.0 8.302e+03 2.150e-09
  4.86867      7.5 8.341e+03 2.231e-09
  4.90796      9.9 8.307e+03 2.160e-09
  4.94725     11.9 8.242e+03 2.158e-09
  4.98653     13.5 8.257e+03 2.235e-09
  5.02582     14.8 8.325e+03 2.474e-09
  5.05519     16.1 8.370e+03 2.586e-09
  5.07474     16.1 8.414e+03 2.731e-09
  5.09438     15.7 8.571e+03 3.344e-09
  5.11403     14.9 8.914e+03 4.313e-09
  5.13367     13.4 9.629e+03 6.399e-09
  5.15332     11.7 1.055e+04 1.076e-08
  5.17296     10.9 1.136e+04 1.724e-08
  5.19261     10.3 1.151e+04 1.919e-08
  5.21225      9.0 1.152e+04 1.791e-08
  5.23030      4.4 1.258e+04 1.943e-08
  5.24013      8.3 1.147e+04 1.452e-08
  5.25154      0.1 1.449e+04 2.041e-08
  5.27118     -8.5 1.712e+04 6.495e-08
  5.28715    -12.9 1.766e+04 1.695e-07
  5.29697    -14.8 1.800e+04 1.947e-07
  5.31047    -18.4 1.826e+04 1.472e-07
  5.33012    -24.6 1.727e+04 5.462e-08
  5.34976    -32.1 1.344e+04 2.601e-08
  5.36941    -35.4 1.241e+04 2.171e-08
  5.38905    -37.4 1.248e+04 2.118e-08
  5.40870    -39.1 1.238e+04 2.138e-08
  5.42834    -40.1 1.227e+04 2.150e-08
  5.44799    -40.6 1.196e+04 1.945e-08
  5.46286    -41.0 1.147e+04 1.521e-08
  5.47268    -40.7 1.169e+04 1.647e-08
  5.48727    -41.7 1.111e+04 1.244e-08
  5.50692    -42.3 1.062e+04 1.007e-08
  5.52656    -42.4 1.037e+04 8.962e-09
  5.54621    -42.1 1.025e+04 8.395e-09
  5.56585    -41.7 1.022e+04 7.952e-09
  5.58435    -41.0 1.024e+04 7.780e-09
  5.59417    -40.6 1.014e+04 6.957e-09
  5.60514    -39.9 1.013e+04 6.761e-09
  5.62479    -39.1 1.012e+04 6.695e-09
  5.64443    -37.9 1.026e+04 7.131e-09
  5.66407    -37.5 1.017e+04 6.719e-09
  5.68372    -35.4 1.018e+04 6.165e-09
  5.69541    -34.5 1.012e+04 5.509e-09
  5.70524    -35.0 1.044e+04 6.569e-09
  5.72301    -33.5 1.055e+04 6.177e-09
  5.74265    -32.7 1.042e+04 5.744e-09
  5.76230    -31.1 1.060e+04 5.723e-09
  5.78194    -30.5 1.052e+04 5.608e-09
  5.80159    -29.2 1.078e+04 5.974e-09
  5.82123    -28.5 1.066e+04 5.854e-09
  5.84088    -26.9 1.111e+04 6.922e-09
  5.86052    -26.9 1.107e+04 7.165e-09
  5.88164    -25.0 1.170e+04 1.013e-08
  5.90138    -24.2 1.151e+04 8.771e-09
  5.92947    -21.8 1.175e+04 9.237e-09
  5.95884    -20.8 1.203e+04 9.464e-09
  5.97839    -20.0 1.207e+04 9.125e-09
  5.99803    -19.0 1.219e+04 9.077e-09
  6.01768    -18.5 1.235e+04 9.499e-09
  6.03732    -17.9 1.253e+04 1.052e-08
  6.05696    -17.4 1.302e+04 1.210e-08
  6.07661    -17.7 1.388e+04 1.467e-08
  6.09625    -18.6 1.466e+04 2.197e-08
  6.11590    -19.1 1.505e+04 3.635e-08
  6.13554    -18.8 1.526e+04 4.968e-08
  6.15070    -18.5 1.521e+04 4.857e-08
  6.16052    -19.3 1.545e+04 5.381e-08
  6.17483    -19.6 1.491e+04 3.590e-08
  6.18857    -20.3 1.420e+04 2.059e-08
  6.19839    -18.6 1.497e+04 3.747e-08
  6.21412    -19.3 1.424e+04 2.401e-08
  6.23377    -19.7 1.366e+04 1.637e-08
  6.25341    -19.8 1.295e+04 1.314e-08
  6.27305    -18.8 1.236e+04 1.242e-08
  6.29270    -18.0 1.212e+04 1.011e-08
  6.31234    -16.4 1.161e+04 1.076e-08
  6.33199    -14.5 1.149e+04 1.074e-08
  6.35163    -13.4 1.198e+04 7.309e-09
  6.37128    -12.8 1.183e+04 7.485e-09
  6.38325    -11.9 1.142e+04 1.025e-08
  6.39308    -12.0 1.142e+04 1.024e-08
  6.41057    -10.1 1.141e+04 1.151e-08
  6.43021     -8.6 1.155e+04 1.146e-08
  6.44985     -7.3 1.153e+04 1.291e-08
  6.46950     -5.9 1.152e+04 1.279e-08
  6.48576     -4.6 1.153e+04 1.208e-08
  6.49559     -4.3 1.122e+04 8.647e-09
  6.50879     -3.2 1.128e+04 8.169e-09
  6.52843     -2.2 1.137e+04 7.640e-09
  6.54808     -1.5 1.153e+04 7.095e-09
  6.56772     -0.6 1.155e+04 6.982e-09
  6.58737      0.3 1.150e+04 6.860e-09
  6.60599      1.2 1.140e+04 6.700e-09
  6.61581      1.7 1.131e+04 8.395e-09
  6.62666      2.6 1.122e+04 8.122e-09
  6.64630      3.6 1.114e+04 8.226e-09
  6.66594      4.8 1.100e+04 8.323e-09
  6.68559      5.8 1.109e+04 9.304e-09
  6.70523      6.8 1.135e+04 1.185e-08
  6.72488      8.0 1.173e+04 1.549e-08
  6.74452      9.1 1.265e+04 2.055e-08
  6.76417      9.5 1.426e+04 2.927e-08
  6.78296      9.6 1.577e+04 4.338e-08
  6.79279     12.0 1.271e+04 2.038e-08
  6.80346     12.4 1.381e+04 2.583e-08
  6.82310     13.0 1.444e+04 3.127e-08
  6.83854     13.8 1.454e+04 3.474e-08
  6.84836     15.9 1.373e+04 2.191e-08
  6.86239     16.7 1.409e+04 2.618e-08
  6.88203     17.8 1.387e+04 2.806e-08
  6.90168     19.0 1.348e+04 2.542e-08
  6.92132     20.5 1.284e+04 2.267e-08
  6.94097     21.9 1.241e+04 1.921e-08
  6.96061     23.5 1.204e+04 1.521e-08
  6.99018     24.7 1.152e+04 6.682e-09
  7.02956     27.5 1.073e+04 3.293e-09
  7.06147     30.3 1.026e+04 2.092e-09
  7.08102     33.1 1.068e+04 3.976e-09
  7.08999     34.0 1.070e+04 3.524e-09
  7.09981     35.8 1.106e+04 7.409e-09
  7.11777     36.8 1.091e+04 6.003e-09
  7.13741     38.1 1.081e+04 5.404e-09
  7.15706     39.3 1.067e+04 5.019e-09
  7.17670     40.3 1.045e+04 4.793e-09
  7.19635     41.2 1.037e+04 4.838e-09
  7.21599     42.0 1.037e+04 5.134e-09
  7.23563     42.9 1.046e+04 5.735e-09
  7.25528     43.9 1.061e+04 6.449e-09
  7.27492     44.8 1.082e+04 7.258e-09
  7.29383     45.7 1.094e+04 7.973e-09
  7.30365     45.6 1.180e+04 1.344e-08
  7.31421     46.6 1.183e+04 1.314e-08
  7.33386     47.3 1.176e+04 1.263e-08
  7.35350     47.8 1.161e+04 1.215e-08
  7.37315     48.3 1.142e+04 1.219e-08
  7.38718     48.9 1.130e+04 1.249e-08
  7.39701     50.0 1.314e+04 2.299e-08
  7.41244     50.6 1.284e+04 2.075e-08
  7.43208     51.0 1.245e+04 1.884e-08
  7.45172     51.3 1.205e+04 1.733e-08
  7.47137     51.9 1.178e+04 1.631e-08
  7.49101     52.4 1.169e+04 1.568e-08
  7.51066     52.3 1.185e+04 1.508e-08
  7.52638     51.7 1.220e+04 1.583e-08
  7.53620     50.5 1.281e+04 2.288e-08
  7.54995     49.2 1.359e+04 2.983e-08
  7.56959     47.7 1.423e+04 4.052e-08
  7.58924     46.4 1.447e+04 4.940e-08
  7.60888     45.4 1.431e+04 4.939e-08
  7.62852     45.4 1.384e+04 4.249e-08
  7.64817     45.8 1.313e+04 3.020e-08
  7.66781     46.0 1.252e+04 1.927e-08
  7.68438     45.7 1.206e+04 1.258e-08
  7.69421     43.4 1.437e+04 1.737e-08
  7.70710     43.4 1.323e+04 1.399e-08
  7.72675     44.0 1.267e+04 1.413e-08
  7.74639     44.8 1.266e+04 1.539e-08
  7.75894     45.4 1.302e+04 1.956e-08
  7.76876     45.8 1.340e+04 1.979e-08
  7.78568     46.3 1.350e+04 2.652e-08
  7.80533     46.3 1.402e+04 3.869e-08
  7.82497     46.1 1.511e+04 6.530e-08
  7.84461     45.6 1.660e+04 1.213e-07
  7.86426     44.6 1.772e+04 1.924e-07
  7.88390     42.5 1.800e+04 1.964e-07
  7.90355     40.8 1.744e+04 1.467e-07
  7.92319     39.1 1.597e+04 7.900e-08
  7.94284     37.0 1.410e+04 3.939e-08
  7.96248     34.6 1.226e+04 1.921e-08
  7.98158     32.8 1.081e+04 9.910e-09
  7.99140     34.5 1.178e+04 1.452e-08
  8.00177     32.8 1.101e+04 9.294e-09
  8.02141     30.8 1.041e+04 6.076e-09
  8.04106     29.2 1.027e+04 6.768e-09
  8.06070     27.6 1.014e+04 6.667e-09
  8.09027     27.4 1.029e+04 7.365e-09
  8.11973     26.1 1.032e+04 8.824e-09
  8.13928     25.5 1.037e+04 1.011e-08
  8.15893     25.0 1.069e+04 1.126e-08
  8.17857     22.5 1.193e+04 1.656e-08
  8.19822     19.6 1.334e+04 3.051e-08
  8.21422     18.1 1.405e+04 4.717e-08
  8.22405     17.3 1.445e+04 5.138e-08
  8.23750     16.6 1.435e+04 4.505e-08
  8.25715     15.4 1.392e+04 2.818e-08
  8.27679     13.1 1.284e+04 1.392e-08
  8.28860     10.5 1.137e+04 7.631e-09
  8.29843      7.6 1.066e+04 5.368e-09
  8.31608      8.4 9.743e+03 3.744e-09
  8.33573      8.6 9.829e+03 3.122e-09
  8.35537     10.3 9.348e+03 2.167e-09
  8.37502     10.4 9.363e+03 2.128e-09
  8.40458     12.6 9.098e+03 1.531e-09
  8.43715     15.1 8.966e+03 1.180e-09
  8.45680     15.0 8.978e+03 9.838e-10
  8.48326     17.7 8.918e+03 8.655e-10
  8.52254     20.7 8.910e+03 8.777e-10
  8.56183     23.6 8.988e+03 9.384e-10
  8.60112     26.2 9.171e+03 1.228e-09
  8.64041     28.8 9.361e+03 2.134e-09
  8.67970     31.6 9.651e+03 3.701e-09
  8.71899     34.4 1.003e+04 5.472e-09
  8.75828     36.9 1.045e+04 5.400e-09
  8.78765     37.9 1.042e+04 5.140e-09
  8.80719     38.5 1.046e+04 4.868e-09
  8.82684     39.3 1.045e+04 4.617e-09
  8.84648     40.0 1.046e+04 4.625e-09
  8.86613     40.8 1.051e+04 4.767e-09
  8.88300     41.5 1.059e+04 5.057e-09
  8.89282     40.6 1.059e+04 5.049e-09
  8.90216     41.6 1.079e+04 6.147e-09
  8.92190     41.4 1.075e+04 5.885e-09
  8.95472     43.1 1.101e+04 6.907e-09
  8.99401     44.3 1.124e+04 7.248e-09
  9.02338     45.2 1.139e+04 7.773e-09
  9.04293     45.6 1.142e+04 7.552e-09
  9.06257     46.2 1.139e+04 6.658e-09
  9.08222     46.5 1.138e+04 5.771e-09
  9.10186     47.1 1.130e+04 4.954e-09
  9.12151     47.8 1.127e+04 4.338e-09
  9.13462     48.3 1.128e+04 3.896e-09
  9.14444     48.9 1.124e+04 3.899e-09
  9.16080     49.6 1.126e+04 3.648e-09
  9.18020     50.4 1.133e+04 3.459e-09
  9.19002     50.1 1.126e+04 3.649e-09
  9.20008     51.0 1.135e+04 3.699e-09
  9.21973     52.0 1.147e+04 3.788e-09
  9.23937     53.0 1.171e+04 3.998e-09
  9.25902     53.8 1.212e+04 4.566e-09
  9.27866     53.8 1.271e+04 6.076e-09
  9.29831     53.5 1.342e+04 1.038e-08
  9.31795     53.0 1.413e+04 2.086e-08
  9.33760     52.8 1.487e+04 4.069e-08
  9.35724     52.7 1.546e+04 6.645e-08
  9.36717     52.7 1.578e+04 8.270e-08
  9.37700     53.4 1.579e+04 8.271e-08
  9.39653     53.4 1.581e+04 8.052e-08
  9.41617     53.4 1.583e+04 7.673e-08
  9.43582     53.2 1.564e+04 6.214e-08
  9.45546     52.8 1.520e+04 4.470e-08
  9.47511     52.2 1.472e+04 3.277e-08
  9.48722     51.6 1.433e+04 2.625e-08
  9.49704     50.6 1.326e+04 1.306e-08
  9.51440     50.8 1.329e+04 1.340e-08
  9.53404     51.0 1.337e+04 1.411e-08
  9.55369     51.3 1.345e+04 1.517e-08
  9.57333     51.6 1.354e+04 1.663e-08
  9.58991     52.1 1.365e+04 1.866e-08
  9.59973     51.8 1.371e+04 1.913e-08
  9.61262     52.3 1.392e+04 2.373e-08
  9.63226     52.9 1.413e+04 2.941e-08
  9.65191     53.6 1.450e+04 3.549e-08
  9.67155     54.3 1.471e+04 4.104e-08
  9.69120     54.7 1.475e+04 4.129e-08
  9.71084     55.0 1.470e+04 4.007e-08
  9.73049     55.4 1.451e+04 3.593e-08
  9.75013     55.7 1.424e+04 3.026e-08
  9.76978     56.0 1.395e+04 2.424e-08
  9.78442     56.2 1.363e+04 1.863e-08
  9.79424     56.6 1.377e+04 2.163e-08
  9.80906     56.9 1.356e+04 1.851e-08
  9.82246     57.4 1.333e+04 1.631e-08
  9.83228     58.4 1.329e+04 1.589e-08
  9.84835     59.1 1.313e+04 1.466e-08
  9.86800     59.9 1.303e+04 1.426e-08
  9.88764     60.6 1.303e+04 1.447e-08
  9.90729     61.3 1.304e+04 1.523e-08
  9.92693     61.7 1.303e+04 1.598e-08
  9.94658     62.1 1.308e+04 1.779e-08
  9.96622     62.4 1.322e+04 2.062e-08
  9.98586     62.5 1.341e+04 2.453e-08
 10.00551     62.5 1.370e+04 3.040e-08
 10.02515     62.2 1.403e+04 3.788e-08
 10.04480     61.5 1.426e+04 4.347e-08
 10.05501     60.7 1.425e+04 4.313e-08
 10.06484     61.6 1.469e+04 5.223e-08
 10.08162     60.5 1.469e+04 5.237e-08
 10.09144     60.2 1.539e+04 7.125e-08
 10.10373     58.9 1.532e+04 6.844e-08
 10.12338     57.5 1.503e+04 5.908e-08
 10.14302     56.1 1.450e+04 4.803e-08
 10.16267     55.2 1.392e+04 4.063e-08
 10.18231     55.0 1.355e+04 3.670e-08
 10.20195     55.2 1.326e+04 3.269e-08
 10.22160     55.7 1.300e+04 2.814e-08
 10.24124     56.2 1.264e+04 2.292e-08
 10.26089     56.6 1.228e+04 1.893e-08
 10.27784     57.2 1.169e+04 1.311e-08
 10.29759     58.0 1.182e+04 1.433e-08
 10.32984     59.2 1.119e+04 9.981e-09
 10.36913     60.7 1.069e+04 6.732e-09
 10.40842     62.0 1.032e+04 4.638e-09
 10.44771     63.6 1.009e+04 3.480e-09
 10.48699     65.3 1.002e+04 3.078e-09
 10.52628     67.1 1.003e+04 2.946e-09
 10.56557     68.8 1.011e+04 2.868e-09
 10.60486     70.2 1.025e+04 2.703e-09
 10.64415     71.6 1.032e+04 2.507e-09
 10.67621     72.9 1.029e+04 2.472e-09
 10.69586     73.3 1.067e+04 4.889e-09
 10.72273     74.3 1.077e+04 5.697e-09
 10.74305     75.2 1.111e+04 7.825e-09
 10.76270     76.2 1.100e+04 6.534e-09
 10.80131     76.7 1.132e+04 8.593e-09
 10.84060     77.0 1.161e+04 1.130e-08
 10.87988     77.0 1.159e+04 1.147e-08
 10.91917     77.2 1.132e+04 9.778e-09
 10.95846     77.6 1.075e+04 6.301e-09
 10.99775     77.9 1.003e+04 4.071e-09
 11.03704     78.5 9.755e+03 3.829e-09
 11.07633     79.2 9.743e+03 3.928e-09
 11.11562     79.7 9.729e+03 4.021e-09
 11.15491     80.1 9.674e+03 3.909e-09
 11.18851     80.7 9.462e+03 3.340e-09
 11.20816     80.4 9.877e+03 4.944e-09
 11.23349     81.3 9.470e+03 3.554e-09
 11.27061     82.4 9.089e+03 2.336e-09
 11.29026     82.7 9.102e+03 2.366e-09
 11.31206     83.7 8.951e+03 1.808e-09
 11.35135     84.5 8.851e+03 1.421e-09
 11.39064     85.6 8.750e+03 1.227e-09
 11.42993     86.8 8.697e+03 1.216e-09
 11.46922     88.3 8.691e+03 1.244e-09
 11.50851     89.8 8.640e+03 1.378e-09
 11.54780     91.2 8.581e+03 1.544e-09
 11.58709     92.4 8.422e+03 1.642e-09
 11.62638     93.7 8.318e+03 1.651e-09
 11.65362     95.0 8.150e+03 1.675e-09
 11.67327     95.8 8.065e+03 1.756e-09
 11.70495     97.3 8.037e+03 1.779e-09
 11.74424     98.9 7.988e+03 1.922e-09
 11.78353    100.4 8.025e+03 2.272e-09
 11.82282    102.0 8.146e+03 2.718e-09
 11.86211    103.5 8.265e+03 3.090e-09
 11.88466    105.1 8.386e+03 3.276e-09
 11.90430    104.8 8.213e+03 2.800e-09
 11.93077    105.6 8.308e+03 2.969e-09
 11.95031    106.3 8.386e+03 3.070e-09
 11.96996    106.8 8.461e+03 3.149e-09
 11.98960    107.3 8.521e+03 3.157e-09
 12.00925    107.6 8.707e+03 3.253e-09
 12.02889    107.3 9.215e+03 3.735e-09
 12.04854    106.4 1.008e+04 5.329e-09
 12.06818    105.3 1.112e+04 8.946e-09
 12.08783    104.2 1.214e+04 1.622e-08
 12.10747    103.2 1.316e+04 2.946e-08
 12.11854    102.5 1.420e+04 5.127e-08
 12.12836    103.8 1.315e+04 2.899e-08
 12.14676    103.0 1.404e+04 4.596e-08
 12.16640    102.3 1.485e+04 6.604e-08
 12.18166    101.6 1.522e+04 8.147e-08
 12.19148    100.8 1.418e+04 5.218e-08
 12.20569    100.1 1.378e+04 4.291e-08
 12.22534     99.3 1.319e+04 3.296e-08
 12.24498     98.3 1.277e+04 2.616e-08
 12.26463     97.1 1.259e+04 2.305e-08
 12.28427     95.8 1.280e+04 2.484e-08
 12.30392     94.8 1.328e+04 2.859e-08
 12.32356     93.7 1.350e+04 2.994e-08
 12.34127     92.8 1.346e+04 2.900e-08
 12.35109     92.8 1.393e+04 3.533e-08
 12.36285     92.2 1.355e+04 2.896e-08
 12.38249     91.8 1.287e+04 2.074e-08
 12.40214     91.4 1.208e+04 1.411e-08
 12.42178     91.0 1.140e+04 9.925e-09
 12.44143     91.0 1.092e+04 7.681e-09
 12.46107     91.1 1.068e+04 6.388e-09
 12.47886     91.4 1.056e+04 5.924e-09
 12.48868     90.9 1.064e+04 6.287e-09
 12.50036     91.8 1.056e+04 6.258e-09
 12.52001     92.7 1.057e+04 6.312e-09
 12.53965     93.6 1.060e+04 6.526e-09
 12.55929     94.4 1.067e+04 7.036e-09
 12.57382     95.3 1.084e+04 8.014e-09
 12.58365     95.3 1.111e+04 7.488e-09
 12.59858     96.0 1.147e+04 9.060e-09
 12.61823     96.7 1.189e+04 1.149e-08
 12.63787     97.0 1.233e+04 1.473e-08
 12.65752     97.0 1.286e+04 1.936e-08
 12.67716     96.3 1.378e+04 2.828e-08
 12.69681     94.6 1.516e+04 4.824e-08
 12.71645     92.1 1.665e+04 9.237e-08
 12.73609     89.7 1.754e+04 1.629e-07
 12.75078     87.5 1.808e+04 2.843e-07
 12.76055     86.4 1.809e+04 3.065e-07
 12.77037     85.3 1.797e+04 2.726e-07
 12.78020     84.3 1.781e+04 2.491e-07
 12.78583     82.7 1.705e+04 1.434e-07
 12.79074     83.9 1.779e+04 2.483e-07
 12.79984     83.0 1.731e+04 1.541e-07
 12.80633     82.2 1.671e+04 9.712e-08
 12.81620     80.6 1.579e+04 3.734e-08
 12.83432     77.4 1.343e+04 1.964e-08
 12.85396     75.7 1.256e+04 1.757e-08
 12.87361     74.9 1.255e+04 1.802e-08
 12.89325     74.3 1.267e+04 2.027e-08
 12.91290     73.7 1.295e+04 2.363e-08
 12.93254     73.0 1.305e+04 2.411e-08
 12.95218     72.3 1.290e+04 2.201e-08
 12.97183     71.8 1.275e+04 1.894e-08
 13.00139     71.8 1.169e+04 8.550e-09
 13.02931     71.6 1.095e+04 5.117e-09
 13.04895     71.1 1.142e+04 7.525e-09
 13.07345     70.8 1.104e+04 5.214e-09
 13.09300     69.3 1.135e+04 6.193e-09
 13.10934     69.1 1.117e+04 5.664e-09
 13.12898     69.2 1.099e+04 5.320e-09
 13.14863     69.4 1.082e+04 4.972e-09
 13.16827     69.7 1.065e+04 4.607e-09
 13.18792     70.0 1.047e+04 4.267e-09
 13.20756     70.3 1.030e+04 3.935e-09
 13.22721     70.6 1.014e+04 3.719e-09
 13.24685     71.2 1.010e+04 3.725e-09
 13.26167     71.7 1.012e+04 3.785e-09
 13.27149     71.4 1.000e+04 3.368e-09
 13.28614     71.8 1.007e+04 3.578e-09
 13.30579     72.1 1.025e+04 4.134e-09
 13.32543     72.3 1.047e+04 4.933e-09
 13.34507     72.5 1.063e+04 5.717e-09
 13.36472     72.5 1.075e+04 6.275e-09
 13.38028     72.4 1.076e+04 6.508e-09
 13.39010     72.1 1.069e+04 6.066e-09
 13.40401     71.8 1.072e+04 5.799e-09
 13.42365     71.2 1.069e+04 5.564e-09
 13.44330     70.6 1.066e+04 5.541e-09
 13.46294     70.0 1.067e+04 5.687e-09
 13.48259     69.5 1.073e+04 6.081e-09
 13.49422     68.9 1.085e+04 6.826e-09
 13.51396     69.8 1.082e+04 7.155e-09
 13.55154     68.8 1.124e+04 9.236e-09
 13.59083     67.8 1.158e+04 1.139e-08
 13.63011     66.7 1.165e+04 1.231e-08
 13.66785     65.2 1.158e+04 1.205e-08
 13.68749     65.5 1.143e+04 1.051e-08
 13.70869     64.5 1.128e+04 1.026e-08
 13.74798     64.4 1.095e+04 9.338e-09
 13.78727     64.6 1.053e+04 7.841e-09
 13.82656     65.3 1.007e+04 5.955e-09
 13.86585     66.5 9.591e+03 4.169e-09
 13.90514     68.0 9.197e+03 2.838e-09
 13.93988     69.6 8.900e+03 1.991e-09
 13.95952     69.8 8.911e+03 2.160e-09
 13.98372     71.4 8.608e+03 1.403e-09
 14.02300     72.9 8.368e+03 9.860e-10
 14.06229     74.5 8.223e+03 8.065e-10
 14.10158     76.2 8.192e+03 7.440e-10
 14.14087     78.0 8.187e+03 7.129e-10
 14.18016     79.6 8.200e+03 6.738e-10
 14.21945     81.1 8.239e+03 6.221e-10
 14.25874     82.6 8.290e+03 5.943e-10
 14.28189     84.0 8.311e+03 5.990e-10
 14.30154     83.5 8.325e+03 5.923e-10
 14.33732     84.6 8.406e+03 6.383e-10
 14.37661     85.6 8.625e+03 7.850e-10
 14.40499     85.9 8.921e+03 1.183e-09
 14.42463     86.3 8.896e+03 1.140e-09
 14.45518     86.3 9.531e+03 2.066e-09
 14.48455     86.1 9.776e+03 2.493e-09
 14.50410     85.3 1.022e+04 3.268e-09
 14.52374     83.4 1.099e+04 5.441e-09
 14.54339     81.0 1.187e+04 1.011e-08
 14.56303     78.7 1.273e+04 1.762e-08
 14.57890     76.4 1.343e+04 2.617e-08
 14.58872     75.4 1.432e+04 3.913e-08
 14.60232     72.8 1.458e+04 4.002e-08
 14.62197     69.8 1.441e+04 3.545e-08
 14.63735     66.4 1.395e+04 2.721e-08
 14.64717     65.8 1.395e+04 2.407e-08
 14.66126     61.1 1.323e+04 1.654e-08
 14.68090     55.8 1.282e+04 1.506e-08
 14.70054     51.0 1.274e+04 1.619e-08
 14.72019     46.9 1.262e+04 1.684e-08
 14.73983     44.0 1.227e+04 1.540e-08
 14.75948     42.0 1.160e+04 1.137e-08
 14.77912     40.0 1.101e+04 7.154e-09
 14.79877     37.3 1.059e+04 4.575e-09
 14.81841     34.8 1.011e+04 3.817e-09
 14.83806     32.8 1.013e+04 3.923e-09
 14.85770     29.2 1.102e+04 4.734e-09
 14.86990     23.8 1.264e+04 1.051e-08
 14.87847     20.6 1.346e+04 2.092e-08
 14.88592     18.8 1.414e+04 3.320e-08
 14.89699     16.8 1.499e+04 5.282e-08
 14.91663     14.6 1.555e+04 5.486e-08
 14.93628     11.2 1.579e+04 3.979e-08
 14.95592      4.2 1.676e+04 3.471e-08
 14.97557     -5.5 1.692e+04 5.362e-08
 14.99521     -9.2 1.567e+04 8.746e-08
 15.01486     -9.9 1.544e+04 4.554e-08
 15.03450    -15.6 1.486e+04 1.510e-08
 15.05415    -22.1 1.268e+04 7.484e-09
 15.07379    -24.3 1.215e+04 5.728e-09
 15.09263    -25.6 1.200e+04 5.332e-09
 15.10246    -24.8 1.205e+04 5.286e-09
 15.11308    -26.1 1.209e+04 5.331e-09
 15.13272    -27.6 1.216e+04 6.221e-09
 15.15237    -28.7 1.211e+04 7.772e-09
 15.17201    -29.4 1.202e+04 9.337e-09
 15.18312    -29.8 1.198e+04 1.012e-08
 15.19294    -29.8 1.168e+04 7.730e-09
 15.21130    -30.5 1.152e+04 8.077e-09
 15.23095    -31.6 1.144e+04 8.181e-09
 15.25059    -33.0 1.140e+04 8.438e-09
 15.27024    -34.3 1.128e+04 9.711e-09
 15.28988    -34.9 1.122e+04 1.146e-08
 15.30952    -35.1 1.127e+04 1.243e-08
 15.32519    -35.6 1.125e+04 1.247e-08
 15.33501    -36.7 1.105e+04 1.139e-08
 15.34881    -37.7 1.084e+04 1.032e-08
 15.36846    -38.5 1.057e+04 9.655e-09
 15.38810    -39.0 1.039e+04 9.268e-09
 15.40775    -39.4 1.026e+04 8.976e-09
 15.42739    -39.8 1.014e+04 8.738e-09
 15.44704    -40.3 1.008e+04 8.661e-09
 15.46668    -40.7 1.003e+04 8.776e-09
 15.48032    -41.1 1.003e+04 9.119e-09
 15.49014    -40.2 1.004e+04 9.141e-09
 15.50597    -40.5 1.005e+04 9.390e-09
 15.52561    -40.9 1.004e+04 9.467e-09
 15.54526    -41.4 9.975e+03 9.399e-09
 15.55774    -42.1 9.940e+03 9.354e-09
 15.56756    -41.9 9.595e+03 8.056e-09
 15.58455    -42.4 9.585e+03 8.106e-09
 15.60419    -43.1 9.601e+03 8.352e-09
 15.62384    -43.8 9.699e+03 8.877e-09
 15.64348    -44.4 9.826e+03 9.568e-09
 15.66313    -44.8 9.910e+03 1.016e-08
 15.68277    -45.0 9.931e+03 1.036e-08
 15.70241    -45.1 9.827e+03 9.975e-09
 15.72206    -45.5 9.774e+03 9.466e-09
 15.74170    -47.1 1.008e+04 9.967e-09
 15.76135    -50.3 1.133e+04 1.315e-08
 15.77752    -53.6 1.260e+04 2.246e-08
 15.78682    -51.4 1.207e+04 1.685e-08
 15.79030    -49.0 1.208e+04 1.867e-08
 15.80064    -51.6 1.306e+04 2.888e-08
 15.82028    -53.0 1.377e+04 4.356e-08
 15.83993    -54.7 1.516e+04 6.241e-08
 15.85957    -60.0 1.793e+04 9.209e-08
 15.87425    -67.7 1.949e+04 1.321e-07
 15.88403    -72.2 1.965e+04 2.024e-07
 15.89385    -76.6 1.932e+04 3.576e-07
 15.90157    -80.2 1.903e+04 5.976e-07
 15.90648    -82.0 1.840e+04 1.632e-06
 15.91349    -85.5 1.822e+04 2.079e-06
 15.92332    -89.0 1.811e+04 1.946e-06
 15.93093    -91.3 1.867e+04 8.807e-07
 15.93584    -90.2 1.864e+04 9.261e-07
 15.94296    -92.8 1.933e+04 3.631e-07
 15.95278    -95.9 1.904e+04 1.681e-07
 15.96261    -98.1 1.779e+04 1.099e-07
 15.97243    -99.0 1.694e+04 8.765e-08
 15.98225    -99.3 1.657e+04 7.364e-08
 15.99207    -99.5 1.622e+04 6.360e-08
 16.00190    -99.8 1.591e+04 5.760e-08
 16.01298   -100.1 1.559e+04 5.304e-08
 16.02285   -101.1 1.497e+04 3.916e-08
 16.03637   -100.6 1.422e+04 2.960e-08
 16.05602   -100.4 1.328e+04 2.124e-08
 16.07471   -100.1 1.285e+04 1.822e-08
 16.08454    -98.0 1.389e+04 2.482e-08
 16.09530    -97.5 1.374e+04 2.341e-08
 16.11495    -97.0 1.370e+04 2.315e-08
 16.13459    -96.7 1.370e+04 2.391e-08
 16.15424    -96.4 1.387e+04 2.697e-08
 16.17388    -96.0 1.402e+04 3.043e-08
 16.19353    -95.7 1.415e+04 3.273e-08
 16.21317    -95.6 1.420e+04 3.326e-08
 16.23282    -96.3 1.423e+04 3.309e-08
 16.24558    -97.5 1.408e+04 3.236e-08
 16.25541    -96.7 1.264e+04 1.764e-08
 16.27210    -98.0 1.283e+04 2.065e-08
 16.29175    -99.1 1.311e+04 2.578e-08
 16.31139    -99.9 1.338e+04 3.147e-08
 16.33104   -100.4 1.350e+04 3.414e-08
 16.35068   -100.8 1.354e+04 3.327e-08
 16.37033   -101.3 1.319e+04 2.762e-08
 16.38174   -101.8 1.281e+04 2.235e-08
 16.39156   -101.8 1.265e+04 1.832e-08
 16.40962   -102.7 1.209e+04 1.397e-08
 16.42926   -103.2 1.168e+04 1.218e-08
 16.44891   -103.4 1.150e+04 1.169e-08
 16.46832   -103.3 1.145e+04 1.159e-08
 16.47814   -102.2 1.170e+04 1.290e-08
 16.48819   -102.2 1.166e+04 1.296e-08
 16.50784   -102.2 1.168e+04 1.333e-08
 16.52748   -102.2 1.175e+04 1.373e-08
 16.54713   -102.7 1.200e+04 1.438e-08
 16.56677   -104.4 1.259e+04 1.731e-08
 16.58642   -106.9 1.333e+04 2.409e-08
 16.60606   -109.5 1.400e+04 3.370e-08
 16.62571   -112.4 1.437e+04 4.015e-08
 16.64535   -115.7 1.439e+04 4.083e-08
 16.66499   -119.2 1.388e+04 3.169e-08
 16.67893   -122.9 1.278e+04 1.739e-08
 16.68876   -123.9 1.248e+04 1.540e-08
 16.70087   -127.4 1.131e+04 8.470e-09
 16.71069   -128.3 1.150e+04 9.949e-09
 16.72393   -131.3 1.071e+04 6.248e-09
 16.74357   -133.0 1.047e+04 5.399e-09
 16.76322   -133.8 1.042e+04 5.274e-09
 16.78286   -134.3 1.043e+04 5.402e-09
 16.80251   -134.5 1.055e+04 5.865e-09
 16.82215   -134.7 1.064e+04 6.344e-09
 16.84180   -134.6 1.068e+04 6.682e-09
 16.86144   -134.2 1.072e+04 6.866e-09
 16.88108   -133.9 1.076e+04 6.919e-09
 16.90073   -133.5 1.078e+04 6.903e-09
 16.92037   -133.0 1.083e+04 6.808e-09
 16.93342   -132.4 1.087e+04 6.744e-09
 16.94325   -133.8 1.092e+04 6.863e-09
 16.95966   -133.1 1.092e+04 6.603e-09
 16.97613   -132.4 1.092e+04 6.310e-09
 16.98596   -132.0 1.082e+04 5.681e-09
 16.99895   -131.2 1.088e+04 5.663e-09
 17.01860   -130.5 1.094e+04 5.690e-09
 17.03824   -129.7 1.098e+04 5.692e-09
 17.05788   -129.0 1.109e+04 5.813e-09
 17.07753   -128.3 1.120e+04 6.073e-09
 17.09717   -127.7 1.134e+04 6.416e-09
 17.11682   -127.2 1.151e+04 6.861e-09
 17.13646   -126.8 1.170e+04 7.453e-09
 17.15611   -126.4 1.187e+04 8.194e-09
 17.17575   -127.5 1.214e+04 9.435e-09
 17.19540   -127.1 1.229e+04 1.060e-08
 17.21504   -126.7 1.243e+04 1.166e-08
 17.23469   -126.3 1.255e+04 1.249e-08
 17.25433   -126.0 1.265e+04 1.303e-08
 17.27333   -125.6 1.270e+04 1.330e-08
 17.28316   -125.7 1.305e+04 1.656e-08
 17.29362   -125.4 1.309e+04 1.704e-08
 17.31326   -125.2 1.310e+04 1.728e-08
 17.33291   -125.0 1.309e+04 1.738e-08
 17.35255   -124.8 1.291e+04 1.689e-08
 17.37220   -124.7 1.255e+04 1.529e-08
 17.38871   -124.7 1.212e+04 1.325e-08
 17.39853   -125.0 1.220e+04 1.389e-08
 17.41149   -125.0 1.173e+04 1.160e-08
 17.43113   -124.9 1.128e+04 9.490e-09
 17.45077   -124.6 1.088e+04 7.835e-09
 17.47042   -124.1 1.057e+04 6.555e-09
 17.49006   -123.5 1.030e+04 5.468e-09
 17.51963   -122.8 9.957e+03 4.259e-09
 17.55901   -120.6 9.202e+03 2.604e-09
 17.59830   -119.2 8.952e+03 2.072e-09
 17.62146   -117.6 8.707e+03 1.798e-09
 17.64111   -118.3 8.795e+03 2.026e-09
 17.67688   -117.0 8.617e+03 1.990e-09
 17.71617   -115.7 8.496e+03 1.983e-09
 17.75546   -114.5 8.349e+03 1.945e-09
 17.79475   -113.1 8.166e+03 1.829e-09
 17.83404   -111.4 7.992e+03 1.672e-09
 17.86793   -109.6 7.820e+03 1.550e-09
 17.88757   -108.9 8.016e+03 1.644e-09
 17.91262   -107.0 7.921e+03 1.585e-09
 17.95190   -105.1 7.887e+03 1.553e-09
 17.99119   -103.3 7.878e+03 1.545e-09
 18.03048   -101.6 7.864e+03 1.545e-09
 18.06693   -100.1 7.799e+03 1.566e-09
 18.08657   -101.0 7.790e+03 1.589e-09
 18.10906    -99.6 7.681e+03 1.644e-09
 18.14835    -98.2 7.638e+03 1.657e-09
 18.18764    -96.6 7.530e+03 1.645e-09
 18.22693    -94.9 7.358e+03 1.584e-09
 18.26622    -93.1 7.173e+03 1.433e-09
 18.30551    -91.1 7.028e+03 1.219e-09
 18.34479    -89.2 6.938e+03 1.032e-09
 18.38408    -87.4 6.947e+03 9.460e-10
 18.42337    -85.8 6.968e+03 9.309e-10
 18.46232    -84.4 7.115e+03 1.016e-09
 18.48197    -83.2 7.160e+03 1.002e-09
 18.50195    -81.9 7.376e+03 1.201e-09
 18.53203    -80.5 7.552e+03 1.468e-09
 18.55168    -81.6 7.657e+03 1.677e-09
 18.58053    -80.1 7.680e+03 1.693e-09
 18.61982    -78.6 7.671e+03 1.622e-09
 18.65911    -77.2 7.632e+03 1.511e-09
 18.69840    -76.0 7.632e+03 1.454e-09
 18.73768    -75.2 7.740e+03 1.514e-09
 18.77697    -74.7 7.925e+03 1.700e-09
 18.81626    -74.4 8.087e+03 1.983e-09
 18.85555    -74.1 8.255e+03 2.204e-09
 18.89484    -73.9 8.377e+03 2.273e-09
 18.93413    -73.7 8.412e+03 2.268e-09
 18.97342    -73.3 8.469e+03 2.032e-09
 18.99714    -72.7 8.479e+03 1.623e-09
 19.01679    -73.0 8.425e+03 1.654e-09
 19.05200    -72.3 8.451e+03 1.339e-09
 19.07637    -71.4 8.506e+03 1.179e-09
 19.09601    -70.9 8.510e+03 1.132e-09
 19.13057    -69.7 8.608e+03 1.058e-09
 19.16986    -68.4 8.672e+03 1.033e-09
 19.20915    -66.9 8.743e+03 1.024e-09
 19.24844    -65.3 8.859e+03 9.614e-10
 19.28773    -63.6 8.980e+03 8.807e-10
 19.32702    -62.0 9.049e+03 8.522e-10
 19.36631    -60.5 9.360e+03 8.712e-10
 19.40560    -59.2 9.512e+03 1.065e-09
 19.44261    -57.9 9.637e+03 1.311e-09
 19.46225    -58.0 9.644e+03 1.321e-09
 19.48418    -56.8 9.819e+03 1.504e-09
 19.52346    -55.5 1.002e+04 1.589e-09
 19.56275    -54.2 1.012e+04 1.602e-09
 19.60204    -52.8 1.023e+04 1.521e-09
 19.64133    -51.3 1.026e+04 1.204e-09
 19.67077    -49.9 1.025e+04 8.902e-10
 19.69041    -49.4 1.040e+04 9.214e-10
 19.71991    -48.2 1.043e+04 7.734e-10
 19.75920    -46.9 1.044e+04 7.489e-10
 19.79849    -45.3 1.042e+04 7.838e-10
 19.83778    -43.5 1.035e+04 8.126e-10
 19.87707    -41.6 1.032e+04 8.171e-10
 19.90772    -39.7 1.032e+04 7.778e-10
 19.92736    -40.2 1.033e+04 7.740e-10
 19.95564    -38.5 1.035e+04 7.520e-10
 19.99493    -36.8 1.055e+04 7.682e-10
 20.03422    -35.4 1.062e+04 9.425e-10
 20.07351    -33.8 1.065e+04 1.335e-09
 20.11280    -32.1 1.075e+04 2.004e-09
 20.15209    -30.5 1.098e+04 2.920e-09
 20.19138    -29.1 1.129e+04 3.579e-09
 20.23067    -28.2 1.153e+04 4.216e-09
 20.26516    -27.5 1.176e+04 5.140e-09
 20.28481    -27.0 1.170e+04 5.522e-09
 20.30924    -26.7 1.204e+04 6.425e-09
 20.33861    -26.6 1.225e+04 5.721e-09
 20.35816    -26.7 1.234e+04 5.667e-09
 20.37263    -27.2 1.269e+04 5.845e-09
 20.38245    -27.6 1.250e+04 5.261e-09
 20.39745    -28.6 1.270e+04 7.078e-09
 20.41709    -29.0 1.282e+04 1.067e-08
 20.43674    -28.7 1.308e+04 1.501e-08
 20.45638    -28.3 1.344e+04 1.717e-08
 20.47603    -28.3 1.362e+04 1.699e-08
 20.49567    -28.7 1.376e+04 1.428e-08
 20.51532    -29.1 1.374e+04 1.243e-08
 20.54488    -29.7 1.340e+04 1.048e-08
 20.58427    -29.0 1.304e+04 9.303e-09
 20.62356    -27.1 1.268e+04 6.547e-09
 20.66285    -25.3 1.246e+04 3.350e-09
 20.70213    -24.1 1.241e+04 2.278e-09
 20.74142    -22.3 1.250e+04 2.277e-09
 20.78071    -20.7 1.252e+04 2.649e-09
 20.81008    -18.8 1.248e+04 2.929e-09
 20.82792    -18.5 1.257e+04 2.941e-09
 20.83784    -18.4 1.240e+04 2.715e-09
 20.85929    -17.2 1.268e+04 2.612e-09
 20.87911    -16.9 1.280e+04 2.735e-09
 20.88883    -16.6 1.286e+04 3.133e-09
 20.90821    -16.5 1.290e+04 3.112e-09
 20.92785    -16.4 1.297e+04 3.051e-09
 20.94750    -16.6 1.309e+04 3.044e-09
 20.96714    -16.8 1.309e+04 3.623e-09
 20.98678    -17.2 1.330e+04 4.372e-09
 21.00643    -17.1 1.302e+04 6.410e-09
 21.02607    -16.4 1.330e+04 7.638e-09
 21.04572    -16.3 1.358e+04 7.671e-09
 21.06047    -16.1 1.364e+04 7.023e-09
 21.07029    -15.8 1.350e+04 6.692e-09
 21.08501    -15.8 1.387e+04 5.715e-09
 21.10465    -16.2 1.369e+04 5.398e-09
 21.12430    -16.4 1.365e+04 5.657e-09
 21.14394    -17.1 1.390e+04 6.648e-09
 21.16359    -18.2 1.401e+04 1.125e-08
 21.17621    -19.6 1.460e+04 2.037e-08
 21.18603    -19.3 1.448e+04 2.197e-08
 21.20287    -20.5 1.491e+04 3.539e-08
 21.22252    -21.1 1.513e+04 4.621e-08
 21.24216    -21.6 1.502e+04 4.831e-08
 21.26181    -21.2 1.465e+04 3.469e-08
 21.28145    -21.5 1.421e+04 1.713e-08
 21.29303    -22.7 1.352e+04 9.201e-09
 21.30285    -21.7 1.372e+04 1.117e-08
 21.33066    -21.9 1.325e+04 8.481e-09
 21.37005    -20.7 1.310e+04 7.137e-09
 21.39942    -20.0 1.313e+04 5.955e-09
 21.41896    -19.0 1.366e+04 8.018e-09
 21.43861    -18.2 1.449e+04 9.931e-09
 21.45825    -20.8 1.631e+04 2.819e-08
 21.47341    -22.5 1.759e+04 8.941e-08
 21.48323    -24.7 1.639e+04 6.018e-08
 21.49754    -26.5 1.740e+04 1.079e-07
 21.51576    -30.3 1.751e+04 1.128e-07
 21.52553    -30.3 1.791e+04 1.423e-07
 21.53678    -35.0 1.623e+04 6.060e-08
 21.55648    -37.7 1.456e+04 2.382e-08
 21.57612    -39.0 1.344e+04 1.235e-08
 21.59576    -39.4 1.268e+04 7.880e-09
 21.61541    -39.0 1.227e+04 5.896e-09
 21.63505    -38.2 1.200e+04 4.745e-09
 21.65470    -37.4 1.179e+04 3.966e-09
 21.67434    -36.5 1.165e+04 3.479e-09
 21.69399    -35.9 1.155e+04 3.193e-09
 21.72355    -35.0 1.145e+04 3.066e-09
 21.74851    -33.0 1.137e+04 3.081e-09
 21.76815    -33.5 1.169e+04 4.603e-09
 21.80223    -31.9 1.171e+04 5.593e-09
 21.84152    -30.0 1.172e+04 6.202e-09
 21.88080    -27.8 1.151e+04 5.298e-09
 21.92009    -25.6 1.141e+04 3.222e-09
 21.95938    -24.1 1.135e+04 1.932e-09
 21.99867    -22.6 1.139e+04 1.495e-09
 22.03796    -20.6 1.136e+04 1.539e-09
 22.06800    -18.6 1.131e+04 1.904e-09
 22.08765    -18.8 1.153e+04 2.741e-09
 22.11654    -16.7 1.144e+04 3.141e-09
 22.15583    -14.3 1.126e+04 3.050e-09
 22.19397    -11.5 1.123e+04 2.207e-09
 22.21362    -12.1 1.133e+04 1.690e-09
 22.23441    -10.1 1.147e+04 1.216e-09
 22.27369     -7.9 1.140e+04 1.192e-09
 22.31298     -5.8 1.162e+04 1.414e-09
 22.35227     -4.1 1.221e+04 1.988e-09
 22.37493     -3.3 1.231e+04 2.384e-09
 22.38465     -4.0 1.220e+04 3.774e-09
 22.40119     -3.0 1.214e+04 5.627e-09
 22.42083     -2.1 1.246e+04 7.973e-09
 22.43615     -1.6 1.276e+04 1.047e-08
 22.44598     -1.8 1.299e+04 1.186e-08
 22.46012     -2.1 1.320e+04 1.569e-08
 22.47977     -2.5 1.336e+04 2.045e-08
 22.49941     -3.1 1.371e+04 2.675e-08
 22.51906     -3.8 1.400e+04 3.634e-08
 22.53870     -4.8 1.423e+04 3.984e-08
 22.55834     -5.5 1.380e+04 3.545e-08
 22.57799     -5.7 1.300e+04 2.283e-08
 22.59763     -7.0 1.229e+04 1.268e-08
 22.62720     -9.1 1.162e+04 6.250e-09
 22.65908    -12.0 1.135e+04 5.252e-09
 22.67454    -13.1 1.177e+04 7.915e-09
 22.68195    -13.0 1.194e+04 8.154e-09
 22.69586    -14.2 1.212e+04 9.752e-09
 22.71550    -15.4 1.218e+04 1.211e-08
 22.73515    -15.8 1.206e+04 1.680e-08
 22.75479    -16.5 1.199e+04 1.683e-08
 22.77443    -17.3 1.197e+04 1.200e-08
 22.79408    -18.7 1.186e+04 9.698e-09
 22.81372    -20.2 1.199e+04 7.005e-09
 22.83337    -22.4 1.144e+04 7.276e-09
 22.85301    -23.1 1.107e+04 8.182e-09
 22.87266    -23.0 1.103e+04 8.550e-09
 22.89144    -23.0 1.085e+04 7.960e-09
 22.90126    -23.7 1.109e+04 9.190e-09
 22.91195    -24.1 1.110e+04 7.179e-09
 22.93159    -25.5 1.110e+04 5.839e-09
 22.95123    -26.6 1.063e+04 5.393e-09
 22.96923    -26.7 1.039e+04 5.280e-09
 22.97905    -27.1 1.053e+04 5.912e-09
 22.99052    -26.7 1.040e+04 4.963e-09
 23.01017    -26.7 1.028e+04 3.826e-09
 23.02981    -26.9 9.961e+03 3.085e-09
 23.05938    -26.0 9.787e+03 2.600e-09
 23.09876    -25.1 9.732e+03 2.287e-09
 23.12409    -24.4 9.877e+03 2.481e-09
 23.13382    -24.5 9.930e+03 2.476e-09
 23.14768    -24.9 1.003e+04 2.635e-09
 23.17724    -24.9 1.044e+04 4.095e-09
 23.21663    -25.0 1.114e+04 9.462e-09
 23.24600    -24.6 1.193e+04 1.700e-08
 23.26555    -24.0 1.222e+04 1.986e-08
 23.27635    -24.2 1.221e+04 1.486e-08
 23.28617    -23.6 1.220e+04 1.967e-08
 23.30484    -24.0 1.251e+04 1.374e-08
 23.32448    -25.9 1.234e+04 1.199e-08
 23.34412    -26.5 1.230e+04 1.165e-08
 23.35655    -27.3 1.219e+04 1.180e-08
 23.36637    -26.7 1.254e+04 1.448e-08
 23.38341    -26.9 1.257e+04 1.445e-08
 23.41298    -28.3 1.222e+04 1.235e-08
 23.45236    -29.6 1.196e+04 9.613e-09
 23.49165    -31.3 1.192e+04 9.088e-09
 23.53094    -32.2 1.194e+04 1.017e-08
 23.56965    -33.2 1.185e+04 1.028e-08
 23.58930    -30.8 1.189e+04 9.936e-09
 23.60952    -31.5 1.157e+04 7.095e-09
 23.64881    -32.1 1.114e+04 4.748e-09
 23.68810    -32.2 1.085e+04 3.939e-09
 23.72739    -31.8 1.076e+04 3.651e-09
 23.76668    -31.3 1.069e+04 3.398e-09
 23.80597    -30.9 1.063e+04 3.090e-09
 23.84525    -30.6 1.058e+04 2.899e-09
 23.87084    -30.2 1.060e+04 2.985e-09
 23.89049    -29.8 1.055e+04 2.716e-09
 23.92383    -29.2 1.056e+04 2.929e-09
 23.96312    -28.4 1.058e+04 3.022e-09
 24.00241    -27.4 1.052e+04 2.639e-09
 24.03476    -26.3 1.044e+04 1.983e-09
 24.05441    -25.2 1.055e+04 2.061e-09
 24.08099    -24.2 1.059e+04 1.536e-09
 24.12028    -23.2 1.065e+04 1.383e-09
 24.15957    -22.3 1.082e+04 1.476e-09
 24.19886    -21.6 1.089e+04 1.998e-09
 24.23814    -21.0 1.111e+04 2.671e-09
 24.27743    -20.6 1.130e+04 3.120e-09
 24.31672    -20.7 1.137e+04 3.100e-09
 24.35601    -20.7 1.146e+04 2.170e-09
 24.39530    -21.2 1.153e+04 1.499e-09
 24.43459    -21.8 1.152e+04 1.481e-09
 24.46524    -23.1 1.164e+04 2.452e-09
 24.48488    -23.0 1.171e+04 2.842e-09
 24.49987    -23.2 1.200e+04 5.498e-09
 24.51952    -22.8 1.200e+04 5.087e-09
 24.55246    -23.4 1.229e+04 5.823e-09
 24.59175    -24.9 1.268e+04 4.269e-09
 24.63103    -26.6 1.270e+04 3.937e-09
 24.67032    -27.4 1.267e+04 5.515e-09
 24.70961    -27.5 1.270e+04 6.546e-09
 24.74890    -27.9 1.256e+04 5.320e-09
 24.78819    -28.7 1.231e+04 3.836e-09
 24.82748    -29.0 1.214e+04 3.588e-09
 24.86677    -28.9 1.197e+04 4.235e-09
 24.90606    -28.8 1.189e+04 4.689e-09
 24.94534    -28.8 1.161e+04 4.447e-09
 24.98463    -27.9 1.159e+04 6.791e-09
 25.02392    -27.4 1.103e+04 4.602e-09
 25.05964    -26.3 1.047e+04 2.896e-09
 25.07928    -25.5 1.062e+04 2.505e-09
 25.10250    -24.4 1.029e+04 1.600e-09
 25.14179    -23.5 1.008e+04 1.398e-09
 25.18108    -22.3 9.915e+03 1.601e-09
 25.22037    -21.2 9.702e+03 2.329e-09
 25.25966    -19.6 9.644e+03 3.049e-09
 25.29895    -18.2 9.464e+03 3.064e-09
 25.33824    -17.2 9.303e+03 2.059e-09
 25.37753    -17.0 8.941e+03 1.463e-09
 25.41045    -16.5 8.686e+03 1.390e-09
 25.43009    -15.7 8.570e+03 1.297e-09
 25.45610    -14.8 8.469e+03 1.441e-09
 25.49539    -13.9 8.597e+03 1.629e-09
 25.53468    -13.2 8.692e+03 1.807e-09
 25.57397    -12.8 8.696e+03 2.093e-09
 25.61326    -12.6 8.813e+03 2.585e-09
 25.65255    -13.6 9.449e+03 3.652e-09
 25.67368    -15.6 1.036e+04 7.537e-09
 25.69333    -15.0 1.038e+04 7.593e-09
 25.73113    -16.4 1.149e+04 1.300e-08
 25.77042    -20.4 1.183e+04 1.310e-08
 25.80970    -23.0 1.132e+04 9.052e-09
 25.84899    -25.0 1.063e+04 3.740e-09
 25.87555    -27.2 1.018e+04 2.175e-09
 25.89520    -27.3 9.995e+03 2.085e-09
 25.92757    -28.4 1.024e+04 2.107e-09
 25.96686    -29.9 1.055e+04 3.398e-09
 26.00615    -30.3 1.105e+04 4.944e-09
 26.04544    -31.1 1.121e+04 4.997e-09
 26.08473    -31.7 1.115e+04 3.490e-09
 26.12402    -32.3 1.092e+04 2.803e-09
 26.16331    -32.6 1.103e+04 2.909e-09
 26.20259    -33.5 1.147e+04 4.983e-09
 26.24188    -33.8 1.203e+04 8.499e-09
 26.26808    -34.8 1.226e+04 9.892e-09
 26.28772    -34.7 1.294e+04 1.603e-08
 26.32046    -35.2 1.227e+04 1.029e-08
 26.34066    -34.9 1.140e+04 3.824e-09
 26.36031    -35.2 1.099e+04 2.815e-09
 26.39904    -34.2 1.058e+04 1.066e-09
 26.43833    -33.1 1.044e+04 6.249e-10
 26.47762    -31.3 1.041e+04 5.476e-10
 26.51691    -29.0 1.049e+04 5.428e-10
 26.55620    -27.6 1.069e+04 6.704e-10
 26.59548    -26.3 1.066e+04 1.199e-09
 26.63477    -24.4 1.085e+04 2.349e-09
 26.67406    -22.5 1.115e+04 3.921e-09
 26.71335    -20.8 1.142e+04 4.695e-09
 26.75264    -19.2 1.154e+04 3.988e-09
 26.78613    -17.8 1.143e+04 2.634e-09
 26.80577    -17.2 1.137e+04 2.811e-09
 26.83122    -15.9 1.140e+04 2.152e-09
 26.86248    -14.7 1.133e+04 1.726e-09
 26.88212    -14.2 1.143e+04 1.845e-09
 26.90980    -12.7 1.125e+04 1.643e-09
 26.94909    -10.7 1.096e+04 1.645e-09
 26.98837     -8.3 1.087e+04 1.371e-09
 27.02766     -6.2 1.082e+04 1.087e-09
 27.06695     -4.3 1.069e+04 9.905e-10
 27.10624     -2.0 1.061e+04 9.922e-10
 27.14553      0.3 1.059e+04 1.066e-09
 27.18482      2.4 1.062e+04 1.195e-09
 27.22411      4.4 1.070e+04 1.414e-09
 27.25124      5.9 1.084e+04 1.866e-09
 27.27088      6.0 1.105e+04 2.792e-09
 27.30269      7.3 1.136e+04 3.822e-09
 27.34198      8.1 1.167e+04 5.187e-09
 27.38126      8.6 1.190e+04 6.031e-09
 27.42055      9.0 1.200e+04 5.656e-09
 27.45688      9.4 1.206e+04 4.563e-09
 27.47652      9.2 1.222e+04 5.900e-09
 27.49913      9.7 1.222e+04 5.962e-09
 27.53842     10.2 1.232e+04 6.750e-09
 27.57771     10.5 1.215e+04 7.612e-09
 27.61700     11.2 1.192e+04 7.342e-09
 27.65629     11.9 1.155e+04 6.448e-09
 27.69558     12.4 1.125e+04 5.328e-09
 27.71634     13.1 1.100e+04 4.343e-09
 27.73599     12.3 1.131e+04 5.544e-09
 27.77415     13.6 1.108e+04 4.795e-09
 27.81344     15.3 1.080e+04 3.695e-09
 27.85273     16.9 1.066e+04 2.565e-09
 27.89202     18.3 1.052e+04 2.034e-09
 27.93131     19.7 1.047e+04 2.164e-09
 27.97060     21.1 1.043e+04 2.808e-09
 28.00989     22.7 1.072e+04 4.039e-09
 28.04918     23.0 1.128e+04 6.183e-09
 28.07082     22.2 1.229e+04 1.152e-08
 28.08055     22.5 1.288e+04 1.797e-08
 28.09809     22.2 1.363e+04 2.814e-08
 28.11774     21.8 1.430e+04 4.121e-08
 28.13738     21.4 1.485e+04 5.099e-08
 28.15703     20.8 1.487e+04 4.975e-08
 28.17144     20.5 1.461e+04 4.021e-08
 28.18126     19.7 1.563e+04 6.865e-08
 28.19632     18.8 1.519e+04 4.929e-08
 28.21596     17.4 1.462e+04 3.303e-08
 28.23560     16.4 1.386e+04 2.250e-08
 28.25525     15.9 1.318e+04 1.637e-08
 28.27489     16.1 1.268e+04 1.268e-08
 28.29454     16.4 1.232e+04 1.022e-08
 28.32410     17.0 1.203e+04 8.891e-09
 28.35357     18.0 1.162e+04 7.263e-09
 28.36792     18.5 1.157e+04 6.806e-09
 28.37774     18.7 1.152e+04 7.234e-09
 28.39276     19.7 1.140e+04 6.755e-09
 28.40399     20.6 1.135e+04 6.606e-09
 28.41381     20.4 1.132e+04 6.656e-09
 28.43205     21.2 1.118e+04 6.501e-09
 28.45169     22.1 1.107e+04 6.434e-09
 28.47134     23.1 1.093e+04 6.178e-09
 28.49098     24.1 1.085e+04 5.922e-09
 28.51063     25.1 1.075e+04 5.567e-09
 28.53027     26.1 1.067e+04 5.228e-09
 28.54992     27.1 1.043e+04 4.989e-09
 28.56956     28.2 1.023e+04 4.847e-09
 28.58921     29.3 1.020e+04 4.852e-09
 28.60885     30.2 1.019e+04 4.917e-09
 28.62672     31.2 1.021e+04 5.108e-09
 28.63655     31.0 1.007e+04 4.713e-09
 28.64814     32.0 1.015e+04 5.079e-09
 28.66512     32.9 1.028e+04 5.628e-09
 28.67494     33.5 1.020e+04 5.616e-09
 28.68743     34.3 1.033e+04 6.289e-09
 28.70707     35.2 1.050e+04 7.180e-09
 28.72672     35.9 1.075e+04 8.412e-09
 28.74636     36.5 1.103e+04 9.920e-09
 28.76601     37.1 1.127e+04 1.139e-08
 28.78565     37.5 1.144e+04 1.246e-08
 28.80530     37.8 1.152e+04 1.283e-08
 28.82494     37.9 1.154e+04 1.290e-08
 28.84458     37.8 1.153e+04 1.282e-08
 28.85928     37.5 1.146e+04 1.250e-08
 28.86910     37.2 1.186e+04 1.515e-08
 28.88387     37.2 1.167e+04 1.402e-08
 28.90352     37.0 1.145e+04 1.217e-08
 28.92316     35.9 1.184e+04 1.269e-08
 28.94281     31.1 1.438e+04 2.099e-08
 28.96232     26.5 1.610e+04 6.052e-08
 28.97214     30.1 1.510e+04 2.760e-08
 28.98210     26.4 1.590e+04 6.854e-08
 28.99678     24.2 1.650e+04 1.092e-07
 29.00655     23.2 1.675e+04 1.303e-07
 29.01638     21.1 1.799e+04 1.537e-07
 29.02620     18.2 1.889e+04 1.518e-07
 29.03602     13.4 1.886e+04 1.338e-07
 29.04584      8.7 1.731e+04 1.081e-07
 29.05567      4.6 1.641e+04 9.683e-08
 29.06549      2.0 1.623e+04 9.144e-08
 29.07531      0.4 1.569e+04 7.540e-08
 29.08513     -0.7 1.445e+04 5.842e-08
 29.09178     -0.9 1.321e+04 4.006e-08
 29.10165     -1.0 1.227e+04 2.854e-08
 29.11961     -2.4 1.087e+04 1.280e-08
 29.13925     -5.5 9.820e+03 5.944e-09
 29.15890     -8.3 8.907e+03 3.397e-09
 29.17854    -10.0 8.582e+03 2.870e-09
 29.19819    -11.1 8.759e+03 3.096e-09
 29.21783    -11.9 8.915e+03 4.540e-09
 29.23747    -12.4 9.542e+03 6.419e-09
 29.25712    -13.0 1.042e+04 1.055e-08
 29.26934    -14.3 1.170e+04 1.684e-08
 29.27916    -14.4 1.121e+04 1.517e-08
 29.29641    -15.1 1.237e+04 2.208e-08
 29.31456    -17.1 1.317e+04 2.808e-08
 29.32439    -16.5 1.316e+04 2.848e-08
 29.33570    -18.6 1.337e+04 3.106e-08
 29.35534    -20.3 1.325e+04 3.174e-08
 29.37499    -21.2 1.309e+04 2.932e-08
 29.39463    -21.9 1.288e+04 2.269e-08
 29.41427    -23.0 1.255e+04 1.559e-08
 29.43392    -24.3 1.226e+04 1.114e-08
 29.45356    -25.5 1.213e+04 8.750e-09
 29.47321    -26.4 1.206e+04 7.930e-09
 29.49285    -26.9 1.199e+04 7.927e-09
 29.51250    -27.1 1.178e+04 8.419e-09
 29.53214    -27.1 1.167e+04 8.625e-09
 29.54712    -27.0 1.156e+04 8.108e-09
 29.55694    -26.7 1.295e+04 1.802e-08
 29.56654    -26.8 1.303e+04 1.894e-08
 29.57636    -26.1 1.247e+04 1.525e-08
 29.59108    -25.9 1.184e+04 1.096e-08
 29.61072    -28.2 1.145e+04 5.294e-09
 29.63036    -31.5 1.222e+04 7.073e-09
 29.65001    -33.0 1.323e+04 1.760e-08
 29.66965    -32.7 1.376e+04 3.062e-08
 29.68930    -32.3 1.394e+04 3.706e-08
 29.70894    -31.8 1.409e+04 3.905e-08
 29.72859    -31.3 1.404e+04 3.618e-08
 29.74823    -30.9 1.399e+04 3.256e-08
 29.76788    -30.5 1.396e+04 2.578e-08
 29.77967    -30.5 1.385e+04 1.986e-08
 29.78949    -32.7 1.330e+04 1.275e-08
 29.80716    -32.7 1.324e+04 1.167e-08
 29.82681    -32.7 1.340e+04 1.162e-08
 29.84645    -33.0 1.362e+04 1.306e-08
 29.86374    -33.2 1.385e+04 1.595e-08
 29.87356    -33.8 1.478e+04 3.090e-08
 29.88574    -34.4 1.536e+04 4.567e-08
 29.90539    -35.3 1.563e+04 5.630e-08
 29.92007    -36.8 1.504e+04 4.409e-08
 29.92985    -37.2 1.504e+04 4.654e-08
 29.93967    -37.8 1.481e+04 4.916e-08
 29.94949    -37.8 1.481e+04 5.033e-08
 29.95931    -38.0 1.461e+04 5.243e-08
 29.96913    -38.0 1.461e+04 5.152e-08
 29.97896    -38.2 1.440e+04 4.971e-08
 29.98878    -38.2 1.444e+04 4.906e-08
 30.00236    -38.6 1.425e+04 4.392e-08
 30.01223    -38.6 1.340e+04 3.087e-08
 30.02325    -38.5 1.328e+04 2.743e-08
 30.04290    -38.5 1.315e+04 2.412e-08
 30.06254    -38.2 1.292e+04 2.132e-08
 30.08219    -37.4 1.266e+04 1.809e-08
 30.10183    -36.5 1.238e+04 1.413e-08
 30.12148    -35.7 1.214e+04 1.008e-08
 30.14112    -35.1 1.196e+04 6.873e-09
 30.16077    -34.7 1.187e+04 4.842e-09
 30.17076    -34.4 1.180e+04 3.724e-09
 30.18058    -34.4 1.170e+04 3.607e-09
 30.20005    -34.0 1.164e+04 3.161e-09
 30.21970    -33.3 1.164e+04 3.092e-09
 30.23496    -33.0 1.184e+04 3.315e-09
 30.24478    -33.2 1.197e+04 3.542e-09
 30.25899    -33.4 1.207e+04 4.879e-09
 30.27863    -34.3 1.289e+04 8.048e-09
 30.29828    -36.8 1.444e+04 1.681e-08
 30.31792    -39.7 1.545e+04 3.614e-08
 30.33757    -41.6 1.587e+04 6.151e-08
 30.35721    -42.9 1.588e+04 7.048e-08
 30.37686    -44.6 1.524e+04 5.262e-08
 30.39650    -46.9 1.474e+04 2.730e-08
 30.41614    -49.7 1.425e+04 1.805e-08
 30.43579    -51.3 1.392e+04 1.615e-08
 30.45543    -52.1 1.381e+04 1.603e-08
 30.46751    -52.5 1.366e+04 1.695e-08
 30.47022    -52.3 1.401e+04 2.252e-08
 30.47778    -52.0 1.367e+04 1.504e-08
 30.49472    -52.2 1.351e+04 1.486e-08
 30.51437    -52.2 1.336e+04 1.392e-08
 30.53401    -52.2 1.325e+04 1.241e-08
 30.55366    -52.1 1.321e+04 1.108e-08
 30.57330    -52.3 1.325e+04 1.050e-08
 30.59294    -52.9 1.345e+04 1.076e-08
 30.61259    -54.1 1.372e+04 1.387e-08
 30.63223    -55.4 1.386e+04 1.916e-08
 30.65188    -56.7 1.387e+04 2.497e-08
 30.67152    -57.7 1.381e+04 2.796e-08
 30.69025    -58.6 1.354e+04 2.732e-08
 30.70007    -58.3 1.345e+04 2.428e-08
 30.71081    -59.0 1.314e+04 2.130e-08
 30.73046    -59.8 1.276e+04 1.526e-08
 30.75010    -60.7 1.228e+04 9.671e-09
 30.76516    -61.6 1.178e+04 6.095e-09
 30.77498    -61.4 1.164e+04 7.265e-09
 30.78939    -61.7 1.131e+04 4.961e-09
 30.80903    -61.9 1.116e+04 3.451e-09
 30.83860    -62.3 1.098e+04 2.315e-09
 30.87799    -61.8 1.080e+04 1.892e-09
 30.91317    -61.1 1.076e+04 1.929e-09
 30.93282    -61.6 1.106e+04 2.841e-09
 30.95656    -61.5 1.132e+04 5.162e-09
 30.99585    -61.2 1.180e+04 9.596e-09
 31.03514    -60.9 1.220e+04 1.440e-08
 31.06255    -60.9 1.231e+04 1.661e-08
 31.08220    -61.2 1.149e+04 1.060e-08
 31.11372    -61.3 1.126e+04 8.803e-09
 31.15301    -61.1 1.112e+04 7.454e-09
 31.19230    -61.1 1.094e+04 6.410e-09
 31.23159    -60.4 1.078e+04 5.331e-09
 31.27088    -59.2 1.059e+04 4.184e-09
 31.31016    -58.0 1.038e+04 3.108e-09
 31.34945    -56.5 1.021e+04 2.304e-09
 31.37828    -54.9 1.014e+04 1.959e-09
 31.39793    -55.2 1.039e+04 1.993e-09
 31.42803    -53.4 1.039e+04 1.929e-09
 31.46732    -51.7 1.054e+04 1.986e-09
 31.50661    -50.0 1.069e+04 2.237e-09
 31.54590    -48.4 1.085e+04 2.504e-09
 31.58519    -46.9 1.103e+04 2.791e-09
 31.62448    -45.6 1.125e+04 3.278e-09
 31.65695    -44.5 1.153e+04 4.227e-09
 31.67660    -44.3 1.139e+04 3.678e-09
 31.70305    -43.3 1.173e+04 3.941e-09
 31.74234    -42.3 1.188e+04 4.025e-09
 31.78163    -41.3 1.188e+04 3.711e-09
 31.82092    -40.2 1.175e+04 3.598e-09
 31.84339    -38.9 1.167e+04 3.730e-09
 31.86304    -38.7 1.179e+04 4.006e-09
 31.89950    -37.3 1.185e+04 4.687e-09
 31.93879    -35.6 1.195e+04 5.068e-09
 31.97808    -34.0 1.203e+04 4.773e-09
 32.01737    -32.2 1.204e+04 3.607e-09
 32.05666    -30.7 1.205e+04 2.574e-09
 32.09594    -29.1 1.217e+04 2.030e-09
 32.13523    -27.2 1.230e+04 1.811e-09
 32.17452    -25.2 1.239e+04 1.644e-09
 32.21381    -22.9 1.253e+04 1.435e-09
 32.25135    -20.6 1.267e+04 1.195e-09
 32.27099    -20.1 1.240e+04 2.034e-09
 32.28886    -17.7 1.266e+04 1.677e-09
 32.30850    -17.7 1.286e+04 1.659e-09
 32.33168    -15.7 1.300e+04 1.521e-09
 32.37097    -13.9 1.306e+04 2.013e-09
 32.41026    -11.5 1.335e+04 2.974e-09
 32.44955     -9.1 1.377e+04 3.324e-09
 32.48883     -7.2 1.426e+04 2.965e-09
 32.52812     -5.4 1.466e+04 2.473e-09
 32.56741     -3.8 1.493e+04 2.143e-09
 32.59678     -2.8 1.518e+04 2.082e-09
 32.61633     -2.5 1.504e+04 2.467e-09
 32.63597     -1.5 1.490e+04 2.899e-09
 32.65562     -0.5 1.501e+04 3.106e-09
 32.67526      0.4 1.514e+04 3.190e-09
 32.69491      1.1 1.530e+04 3.173e-09
 32.71455      1.2 1.547e+04 3.471e-09
 32.73420      1.3 1.548e+04 4.602e-09
 32.75377      1.5 1.535e+04 6.680e-09
 32.77341      2.5 1.523e+04 7.926e-09
 32.79313      2.5 1.518e+04 9.714e-09
 32.81277      2.1 1.518e+04 1.098e-08
 32.83242      0.4 1.559e+04 1.293e-08
 32.85206     -6.1 1.745e+04 2.219e-08
 32.86520    -12.3 1.678e+04 7.571e-08
 32.87502    -11.6 1.656e+04 5.444e-08
 32.89135    -13.5 1.609e+04 1.096e-07
 32.91100    -17.0 1.667e+04 4.467e-08
 32.93064    -23.3 1.502e+04 2.228e-08
 32.95028    -25.4 1.422e+04 1.635e-08
 32.96993    -26.2 1.398e+04 1.141e-08
 32.98632    -26.8 1.380e+04 7.075e-09
 32.99615    -26.4 1.380e+04 6.570e-09
 33.00922    -27.2 1.351e+04 4.009e-09
 33.02886    -27.3 1.328e+04 2.961e-09
 33.04851    -26.8 1.322e+04 2.392e-09
 33.06815    -26.4 1.325e+04 2.066e-09
 33.08780    -26.0 1.319e+04 2.039e-09
 33.11736    -24.8 1.309e+04 2.417e-09
 33.15675    -23.1 1.290e+04 2.918e-09
 33.19604    -21.4 1.268e+04 2.792e-09
 33.21907    -19.4 1.247e+04 2.234e-09
 33.23872    -19.1 1.255e+04 3.102e-09
 33.27461    -17.0 1.233e+04 2.154e-09
 33.31390    -14.9 1.218e+04 1.196e-09
 33.35319    -13.0 1.234e+04 6.597e-10
 33.39248    -11.6 1.227e+04 5.319e-10
 33.43177     -9.4 1.198e+04 6.109e-10
 33.45979     -6.7 1.174e+04 7.198e-10
 33.47944     -6.4 1.178e+04 9.123e-10
 33.51035     -3.7 1.167e+04 8.544e-10
 33.54964     -1.3 1.172e+04 7.434e-10
 33.58893      0.6 1.177e+04 8.165e-10
 33.62822      2.2 1.158e+04 1.260e-09
 33.66454      4.1 1.132e+04 2.063e-09
 33.68418      4.5 1.131e+04 2.776e-09
 33.70679      6.1 1.143e+04 3.318e-09
 33.74608      6.8 1.153e+04 3.771e-09
 33.78537      7.1 1.156e+04 4.703e-09
 33.82466      7.4 1.144e+04 5.024e-09
 33.86395      8.2 1.126e+04 4.325e-09
 33.90324      8.9 1.107e+04 3.230e-09
 33.94253      9.6 1.088e+04 2.452e-09
 33.98182     10.6 1.073e+04 1.949e-09
 34.02111     11.8 1.064e+04 1.488e-09
 34.05419     12.8 1.060e+04 1.158e-09
 34.07383     12.4 1.050e+04 6.622e-10
 34.09968     13.7 1.044e+04 6.909e-10
 34.12965     15.1 1.038e+04 8.586e-10
 34.14929     14.7 1.035e+04 8.727e-10
 34.17826     16.3 1.029e+04 1.241e-09
 34.21755     18.0 1.029e+04 1.682e-09
 34.25684     19.6 1.031e+04 1.993e-09
 34.29613     21.0 1.032e+04 1.987e-09
 34.33542     22.4 1.029e+04 1.832e-09
 34.37471     24.0 1.023e+04 1.532e-09
 34.41400     25.4 1.011e+04 1.247e-09
 34.45328     27.0 9.990e+03 1.142e-09
 34.49257     28.7 1.001e+04 1.163e-09
 34.53186     30.2 1.008e+04 1.280e-09
 34.57115     31.7 1.018e+04 1.431e-09
 34.59476     32.9 1.025e+04 1.553e-09
 34.61440     32.7 1.014e+04 1.276e-09
 34.64859     33.9 1.016e+04 1.392e-09
 34.66823     34.6 1.014e+04 1.292e-09
 34.68902     35.7 1.020e+04 1.511e-09
 34.72831     36.8 1.026e+04 1.720e-09
 34.76760     37.6 1.036e+04 2.018e-09
 34.80689     38.2 1.054e+04 2.535e-09
 34.84617     38.2 1.083e+04 3.566e-09
 34.88546     38.1 1.126e+04 5.604e-09
 34.92475     37.7 1.177e+04 8.370e-09
 34.96404     37.2 1.204e+04 9.554e-09
 35.00333     36.7 1.205e+04 8.829e-09
 35.04022     36.7 1.201e+04 6.952e-09
 35.05986     37.7 1.210e+04 8.884e-09
 35.08191     37.9 1.209e+04 7.220e-09
 35.12120     38.4 1.207e+04 6.346e-09
 35.16049     39.4 1.212e+04 6.421e-09
 35.19978     40.5 1.231e+04 7.178e-09
 35.23906     41.7 1.263e+04 8.842e-09
 35.26263     42.9 1.299e+04 1.077e-08
 35.28227     43.7 1.269e+04 8.612e-09
 35.31764     44.8 1.300e+04 9.552e-09
 35.35693     45.8 1.304e+04 9.051e-09
 35.39622     47.2 1.311e+04 7.299e-09
 35.43551     48.8 1.318e+04 5.917e-09
 35.47480     51.1 1.320e+04 5.929e-09
 35.50533     54.0 1.332e+04 6.560e-09
 35.52497     54.9 1.346e+04 7.235e-09
 35.54346     55.8 1.369e+04 8.894e-09
 35.55963     56.7 1.390e+04 1.176e-08
 35.56946     57.6 1.361e+04 7.838e-09
 35.58265     58.6 1.390e+04 1.066e-08
 35.60229     59.0 1.431e+04 1.702e-08
 35.62194     59.3 1.499e+04 3.460e-08
 35.64158     59.6 1.605e+04 7.722e-08
 35.65627     59.0 1.673e+04 1.117e-07
 35.66604     58.5 1.738e+04 1.600e-07
 35.67586     57.9 1.795e+04 1.945e-07
 35.68568     56.8 1.810e+04 1.944e-07
 35.69551     55.3 1.793e+04 1.611e-07
 35.70533     54.4 1.764e+04 1.371e-07
 35.72011     53.9 1.709e+04 9.467e-08
 35.73769     52.0 1.638e+04 4.366e-08
 35.74751     49.4 1.642e+04 4.309e-08
 35.75945     47.4 1.562e+04 2.384e-08
 35.77909     46.9 1.514e+04 2.141e-08
 35.79874     47.2 1.489e+04 2.114e-08
 35.81838     47.7 1.486e+04 2.148e-08
 35.83803     47.7 1.489e+04 2.265e-08
 35.85683     47.0 1.519e+04 2.514e-08
 35.86666     48.1 1.495e+04 2.469e-08
 35.87732     47.3 1.531e+04 2.807e-08
 35.89696     45.8 1.561e+04 3.317e-08
 35.91660     44.3 1.554e+04 3.359e-08
 35.93625     43.5 1.516e+04 2.942e-08
 35.95589     43.1 1.458e+04 2.000e-08
 35.97024     42.5 1.425e+04 1.124e-08
 35.98006     43.0 1.448e+04 1.572e-08
 35.99518     42.1 1.425e+04 8.301e-09
 36.01483     41.0 1.389e+04 5.214e-09
 36.03447     40.5 1.337e+04 4.418e-09
 36.05412     39.7 1.375e+04 4.578e-09
 36.07376     34.3 1.723e+04 6.263e-09
 36.09340     27.2 1.889e+04 3.762e-08
 36.11305     25.1 1.815e+04 1.404e-07
 36.13269     24.9 1.793e+04 1.819e-07
 36.15234     25.4 1.758e+04 1.260e-07
 36.16385     24.6 1.696e+04 4.550e-08
 36.17368     27.0 1.725e+04 9.988e-08
 36.19163     25.6 1.650e+04 3.654e-08
 36.20280     22.0 1.505e+04 1.404e-08
 36.21262     19.3 1.469e+04 1.617e-08
 36.23092     19.0 1.399e+04 1.514e-08
 36.25056     20.0 1.401e+04 1.653e-08
 36.27021     21.1 1.427e+04 2.238e-08
 36.28985     22.6 1.482e+04 3.331e-08
 36.30949     23.6 1.598e+04 5.500e-08
 36.32914     24.5 1.755e+04 1.008e-07
 36.34382     23.9 1.870e+04 1.564e-07
 36.35360     22.5 1.954e+04 2.468e-07
 36.36342     20.4 1.965e+04 5.352e-07
 36.37324     18.8 1.867e+04 1.487e-06
 36.38306     17.3 1.790e+04 3.220e-06
 36.39289     15.3 1.804e+04 2.920e-06
 36.40271     12.4 1.867e+04 1.743e-06
 36.41253      8.2 1.953e+04 9.427e-07
 36.42235      4.4 1.965e+04 6.167e-07
 36.43034      2.0 1.936e+04 5.033e-07
 36.43525      1.4 1.923e+04 4.664e-07
 36.44200     -0.1 1.881e+04 3.721e-07
 36.45182     -0.8 1.841e+04 2.948e-07
 36.46096     -1.3 1.829e+04 2.045e-07
 36.46587     -0.9 1.841e+04 2.298e-07
 36.47146     -1.5 1.771e+04 1.696e-07
 36.48129     -1.9 1.702e+04 1.165e-07
 36.49111     -1.8 1.677e+04 1.119e-07
 36.50589     -1.1 1.549e+04 5.680e-08
 36.52558     -0.8 1.447e+04 2.986e-08
 36.54523     -1.4 1.406e+04 1.496e-08
 36.56487     -1.5 1.269e+04 1.306e-08
 36.58452     -0.2 1.227e+04 9.899e-09
 36.60416      0.3 1.290e+04 7.601e-09
 36.62381     -0.1 1.280e+04 8.449e-09
 36.64345     -0.3 1.293e+04 1.053e-08
 36.65808     -1.1 1.350e+04 1.614e-08
 36.66791     -1.9 1.326e+04 1.401e-08
 36.68274     -2.4 1.341e+04 2.013e-08
 36.70238     -2.3 1.336e+04 2.518e-08
 36.72203     -1.7 1.315e+04 2.288e-08
 36.74167     -1.2 1.295e+04 1.643e-08
 36.75825     -2.1 1.291e+04 1.158e-08
 36.76807     -0.9 1.275e+04 1.204e-08
 36.78096     -2.1 1.257e+04 1.028e-08
 36.80061     -3.1 1.252e+04 9.525e-09
 36.82025     -3.8 1.227e+04 1.136e-08
 36.83990     -2.9 1.191e+04 1.372e-08
 36.85954     -2.1 1.228e+04 1.156e-08
 36.87918     -2.0 1.205e+04 9.634e-09
 36.89064     -2.1 1.203e+04 7.205e-09
 36.90046     -2.4 1.202e+04 6.534e-09
 36.91847     -2.3 1.142e+04 5.661e-09
 36.93812     -1.7 1.154e+04 4.308e-09
 36.95776     -1.7 1.135e+04 3.787e-09
 36.97741     -1.2 1.113e+04 3.880e-09
 36.99705     -0.7 1.138e+04 4.186e-09
 37.01670      0.2 1.107e+04 5.258e-09
 37.03634      1.5 1.137e+04 5.157e-09
 37.05545      2.3 1.129e+04 6.049e-09
 37.06527      2.7 1.122e+04 5.757e-09
 37.07563      3.9 1.121e+04 5.640e-09
 37.09527      4.7 1.134e+04 5.900e-09
 37.11337      5.7 1.137e+04 6.552e-09
 37.12319      5.4 1.148e+04 6.705e-09
 37.13456      6.5 1.149e+04 7.693e-09
 37.15421      7.6 1.173e+04 8.660e-09
 37.17385      6.6 1.277e+04 1.158e-08
 37.19350      3.2 1.455e+04 2.555e-08
 37.21314      1.3 1.534e+04 6.394e-08
 37.23279      1.7 1.614e+04 1.165e-07
 37.25243      1.8 1.614e+04 1.086e-07
 37.27207     -0.2 1.659e+04 6.990e-08
 37.29172     -5.5 1.581e+04 4.605e-08
 37.31136     -8.6 1.419e+04 3.577e-08
 37.33101     -9.6 1.351e+04 2.261e-08
 37.34592    -10.8 1.282e+04 1.442e-08
 37.35575    -10.2 1.287e+04 1.527e-08
 37.36247    -11.0 1.224e+04 1.105e-08
 37.37230    -10.1 1.224e+04 1.129e-08
 37.38994    -10.4 1.180e+04 8.308e-09
 37.40959    -10.4 1.145e+04 6.271e-09
 37.42923    -10.1 1.114e+04 5.031e-09
 37.44888     -9.9 1.099e+04 4.254e-09
 37.46852     -9.6 1.090e+04 4.044e-09
 37.48816     -9.5 1.088e+04 4.312e-09
 37.50781     -8.8 1.081e+04 4.916e-09
 37.52745     -8.2 1.084e+04 5.145e-09
 37.54710     -7.4 1.065e+04 5.404e-09
 37.56674     -6.5 1.059e+04 4.658e-09
 37.59631     -6.2 1.039e+04 3.284e-09
 37.63569     -5.0 9.983e+03 2.375e-09
 37.65987     -3.7 9.629e+03 1.866e-09
 37.67951     -2.7 9.670e+03 1.943e-09
 37.71427     -1.2 9.558e+03 1.879e-09
 37.75356      0.3 9.584e+03 1.997e-09
 37.79158      1.5 9.771e+03 2.278e-09
 37.81123      1.6 1.000e+04 2.269e-09
 37.83214      2.9 1.004e+04 2.508e-09
 37.87143      4.2 1.009e+04 2.348e-09
 37.91072      5.3 1.006e+04 2.361e-09
 37.95001      6.1 1.032e+04 2.692e-09
 37.97937      6.7 1.060e+04 3.285e-09
 37.99892      7.4 1.060e+04 4.626e-09
 38.01857      9.0 1.049e+04 4.930e-09
 38.03377      9.8 1.057e+04 5.182e-09
 38.04359      9.1 1.081e+04 5.646e-09
 38.05785     10.0 1.091e+04 5.697e-09
 38.07750      9.0 1.144e+04 7.030e-09
 38.09714      9.0 1.173e+04 9.974e-09
 38.11679     10.0 1.183e+04 1.348e-08
 38.13643     11.6 1.204e+04 1.548e-08
 38.15608     12.7 1.224e+04 1.536e-08
 38.17572     13.2 1.236e+04 1.485e-08
 38.19537     13.4 1.249e+04 1.510e-08
 38.21501     13.7 1.257e+04 1.613e-08
 38.23466     14.4 1.263e+04 1.688e-08
 38.25407     15.1 1.265e+04 1.689e-08
 38.26389     15.2 1.267e+04 1.550e-08
 38.26632     15.7 1.273e+04 1.420e-08
 38.27614     15.1 1.245e+04 1.032e-08
 38.29359     15.7 1.254e+04 9.431e-09
 38.31323     16.3 1.257e+04 8.938e-09
 38.33288     17.0 1.270e+04 9.124e-09
 38.35252     17.7 1.285e+04 9.915e-09
 38.37217     18.5 1.295e+04 1.092e-08
 38.39181     19.2 1.308e+04 1.207e-08
 38.41146     19.7 1.320e+04 1.342e-08
 38.43110     20.0 1.341e+04 1.548e-08
 38.45074     20.0 1.380e+04 1.935e-08
 38.47039     18.8 1.505e+04 3.137e-08
 38.48507     15.5 1.652e+04 6.119e-08
 38.49387     15.0 1.669e+04 7.915e-08
 38.49878     15.3 1.623e+04 6.807e-08
 38.50467     11.8 1.812e+04 1.277e-07
 38.51449      6.1 2.089e+04 3.391e-07
 38.52431      0.2 1.874e+04 2.037e-06
 38.53414     -5.2 1.785e+04 4.204e-06
 38.54396    -10.6 1.882e+04 2.491e-06
 38.55378    -15.8 1.994e+04 1.065e-06
 38.56099    -20.3 2.033e+04 3.450e-07
 38.56591    -19.3 2.025e+04 5.872e-07
 38.57343    -22.1 1.974e+04 2.631e-07
 38.58325    -24.6 1.856e+04 1.554e-07
 38.59307    -25.6 1.786e+04 1.194e-07
 38.60289    -26.7 1.726e+04 9.554e-08
 38.61014    -26.9 1.725e+04 9.406e-08
 38.61505    -26.5 1.738e+04 9.977e-08
 38.62750    -28.4 1.704e+04 8.595e-08
 38.64719    -30.4 1.656e+04 7.093e-08
 38.66683    -31.9 1.613e+04 5.889e-08
 38.68648    -33.7 1.560e+04 4.742e-08
 38.70612    -35.3 1.513e+04 3.995e-08
 38.72161    -36.8 1.482e+04 3.557e-08
 38.73143    -36.0 1.483e+04 3.503e-08
 38.74541    -37.5 1.445e+04 2.843e-08
 38.76506    -39.0 1.409e+04 2.333e-08
 38.78470    -40.6 1.382e+04 1.976e-08
 38.80435    -42.1 1.356e+04 1.718e-08
 38.82399    -43.2 1.325e+04 1.528e-08
 38.84363    -44.0 1.294e+04 1.331e-08
 38.85829    -44.5 1.259e+04 1.077e-08
 38.86811    -44.1 1.236e+04 1.072e-08
 38.88292    -44.5 1.197e+04 8.642e-09
 38.90257    -45.0 1.164e+04 7.144e-09
 38.92221    -45.3 1.143e+04 6.263e-09
 38.94186    -45.5 1.134e+04 5.806e-09
 38.95416    -45.9 1.133e+04 5.650e-09
 38.96398    -44.7 1.141e+04 5.459e-09
 38.98115    -45.5 1.149e+04 5.574e-09
 39.00079    -47.0 1.178e+04 6.464e-09
 39.02044    -49.0 1.219e+04 9.098e-09
 39.04008    -50.7 1.274e+04 1.393e-08
 39.05972    -52.1 1.328e+04 1.908e-08
 39.07937    -53.7 1.354e+04 2.089e-08
 39.09901    -55.4 1.356e+04 1.886e-08
 39.11866    -57.1 1.342e+04 1.324e-08
 39.13830    -58.7 1.329e+04 9.515e-09
 39.15549    -59.5 1.326e+04 8.127e-09
 39.16531    -59.1 1.336e+04 9.007e-09
 39.17689    -59.4 1.336e+04 8.259e-09
 39.18672    -58.7 1.342e+04 8.130e-09
 39.19724    -58.6 1.347e+04 7.342e-09
 39.21688    -58.3 1.343e+04 6.309e-09
 39.23652    -58.0 1.333e+04 5.161e-09
 39.25617    -57.6 1.319e+04 4.189e-09
 39.27581    -57.2 1.309e+04 3.563e-09
 39.29546    -56.5 1.304e+04 3.308e-09
 39.31510    -55.7 1.302e+04 3.267e-09
 39.33475    -54.9 1.318e+04 3.349e-09
 39.35439    -54.2 1.324e+04 3.713e-09
 39.37404    -53.3 1.330e+04 4.265e-09
 39.39368    -52.4 1.338e+04 4.984e-09
 39.40945    -51.5 1.343e+04 5.829e-09
 39.41927    -50.8 1.347e+04 5.634e-09
 39.43297    -49.9 1.355e+04 6.717e-09
 39.45261    -49.0 1.367e+04 8.009e-09
 39.47226    -48.5 1.395e+04 1.194e-08
 39.49190    -47.8 1.405e+04 1.407e-08
 39.51155    -47.1 1.415e+04 1.623e-08
 39.53119    -46.4 1.421e+04 1.831e-08
 39.55084    -45.7 1.425e+04 2.007e-08
 39.57048    -45.0 1.426e+04 2.122e-08
 39.59013    -44.2 1.428e+04 2.166e-08
 39.60977    -43.2 1.423e+04 2.115e-08
 39.62941    -42.1 1.417e+04 1.934e-08
 39.64200    -41.1 1.410e+04 1.713e-08
 39.65182    -40.5 1.419e+04 1.987e-08
 39.66870    -39.4 1.407e+04 1.750e-08
 39.68835    -38.1 1.395e+04 1.526e-08
 39.70799    -36.9 1.386e+04 1.332e-08
 39.72764    -35.6 1.376e+04 1.152e-08
 39.74728    -34.2 1.368e+04 1.012e-08
 39.75971    -32.6 1.370e+04 9.244e-09
 39.76953    -33.6 1.370e+04 9.473e-09
 39.78657    -32.2 1.372e+04 8.963e-09
 39.80622    -30.9 1.371e+04 8.696e-09
 39.82586    -29.7 1.384e+04 9.668e-09
 39.84550    -28.6 1.409e+04 1.242e-08
 39.86473    -27.6 1.430e+04 1.643e-08
 39.87456    -27.6 1.425e+04 1.556e-08
 39.88479    -26.5 1.439e+04 1.880e-08
 39.90444    -25.4 1.443e+04 2.030e-08
 39.92408    -24.2 1.437e+04 2.090e-08
 39.94373    -22.9 1.426e+04 1.909e-08
 39.96337    -21.9 1.408e+04 1.510e-08
 39.98302    -21.3 1.390e+04 1.168e-08
 40.00266    -21.0 1.367e+04 1.117e-08
 40.02230    -21.0 1.383e+04 1.249e-08
 40.04195    -21.2 1.407e+04 1.617e-08
 40.05691    -21.5 1.447e+04 2.576e-08
 40.06673    -23.2 1.501e+04 4.221e-08
 40.08124    -22.5 1.576e+04 7.114e-08
 40.09729    -21.6 1.636e+04 9.134e-08
 40.10711    -21.6 1.598e+04 8.013e-08
 40.12053    -21.2 1.639e+04 8.775e-08
 40.14017    -21.3 1.632e+04 7.771e-08
 40.15982    -21.9 1.601e+04 5.843e-08
 40.17946    -23.2 1.590e+04 4.731e-08
 40.19911    -25.3 1.670e+04 4.826e-08
 40.21875    -30.0 1.815e+04 9.736e-08
 40.23343    -33.5 1.835e+04 2.094e-07
 40.24321    -34.7 1.853e+04 2.804e-07
 40.25303    -35.5 1.878e+04 3.510e-07
 40.26285    -37.4 1.859e+04 3.104e-07
 40.27267    -39.0 1.792e+04 1.743e-07
 40.28250    -39.3 1.771e+04 1.388e-07
 40.29728    -41.3 1.680e+04 6.645e-08
 40.31697    -44.9 1.479e+04 2.563e-08
 40.32984    -46.4 1.375e+04 1.746e-08
 40.33967    -47.6 1.331e+04 1.545e-08
 40.35411    -47.8 1.290e+04 1.341e-08
 40.36393    -47.8 1.286e+04 1.348e-08
 40.37591    -47.1 1.256e+04 1.205e-08
 40.39555    -46.6 1.235e+04 1.107e-08
 40.41519    -45.9 1.219e+04 1.037e-08
 40.43484    -45.1 1.215e+04 1.015e-08
 40.45448    -44.4 1.214e+04 1.012e-08
 40.47413    -43.7 1.219e+04 1.044e-08
 40.49377    -43.0 1.229e+04 1.085e-08
 40.51342    -42.2 1.239e+04 1.137e-08
 40.53306    -41.3 1.259e+04 1.218e-08
 40.55258    -40.7 1.298e+04 1.415e-08
 40.56240    -40.8 1.261e+04 1.080e-08
 40.57235    -40.5 1.297e+04 1.385e-08
 40.59200    -40.3 1.348e+04 2.000e-08
 40.61164    -40.0 1.414e+04 2.993e-08
 40.63128    -39.7 1.500e+04 4.154e-08
 40.65093    -39.5 1.600e+04 5.025e-08
 40.66113    -40.2 1.671e+04 5.231e-08
 40.67095    -41.6 1.455e+04 4.051e-08
 40.69022    -43.6 1.387e+04 2.956e-08
 40.70986    -46.4 1.363e+04 2.062e-08
 40.72951    -49.8 1.312e+04 1.314e-08
 40.74915    -54.3 1.252e+04 9.881e-09
 40.76880    -59.0 1.232e+04 8.161e-09
 40.78513    -63.5 1.227e+04 7.407e-09
 40.79495    -65.0 1.218e+04 7.193e-09
 40.80808    -67.5 1.199e+04 7.943e-09
 40.82773    -69.3 1.179e+04 1.058e-08
 40.84737    -70.7 1.185e+04 1.240e-08
 40.86702    -71.6 1.224e+04 1.247e-08
 40.88666    -72.1 1.236e+04 1.163e-08
 40.90631    -72.3 1.226e+04 1.053e-08
 40.92595    -72.1 1.217e+04 9.236e-09
 40.94560    -71.6 1.196e+04 7.864e-09
 40.95833    -70.8 1.165e+04 6.581e-09
 40.96815    -69.0 1.172e+04 7.737e-09
 40.98489    -68.3 1.151e+04 6.815e-09
 41.00453    -67.5 1.134e+04 5.886e-09
 41.01768    -66.7 1.119e+04 5.033e-09
 41.02751    -66.0 1.126e+04 5.324e-09
 41.04382    -65.1 1.111e+04 4.597e-09
 41.06346    -64.1 1.095e+04 4.058e-09
 41.08311    -63.1 1.084e+04 3.739e-09
 41.10275    -62.0 1.078e+04 3.570e-09
 41.12240    -60.9 1.072e+04 3.504e-09
 41.14204    -59.7 1.071e+04 3.496e-09
 41.16169    -58.5 1.071e+04 3.538e-09
 41.18133    -57.4 1.070e+04 3.605e-09
 41.20097    -56.3 1.070e+04 3.703e-09
 41.22062    -55.2 1.081e+04 3.886e-09
 41.24026    -54.3 1.092e+04 4.280e-09
 41.25024    -53.3 1.104e+04 4.964e-09
 41.25568    -53.2 1.124e+04 5.937e-09
 41.26535    -52.6 1.105e+04 5.156e-09
 41.27955    -51.6 1.124e+04 5.969e-09
 41.29920    -50.7 1.147e+04 7.271e-09
 41.31884    -49.8 1.168e+04 8.945e-09
 41.33849    -48.8 1.189e+04 1.081e-08
 41.35813    -47.8 1.209e+04 1.258e-08
 41.37778    -46.9 1.222e+04 1.378e-08
 41.39742    -46.1 1.224e+04 1.424e-08
 41.41706    -45.2 1.217e+04 1.391e-08
 41.44663    -44.0 1.210e+04 1.363e-08
 41.47307    -42.5 1.200e+04 1.316e-08
 41.48279    -42.4 1.188e+04 1.197e-08
 41.49564    -41.3 1.184e+04 1.146e-08
 41.51529    -40.1 1.176e+04 1.066e-08
 41.53493    -38.8 1.168e+04 9.720e-09
 41.55273    -37.4 1.170e+04 9.009e-09
 41.56255    -36.7 1.186e+04 1.083e-08
 41.57422    -35.5 1.186e+04 9.692e-09
 41.59386    -34.5 1.186e+04 8.905e-09
 41.61351    -33.3 1.189e+04 8.649e-09
 41.63315    -32.1 1.213e+04 9.390e-09
 41.65280    -31.4 1.257e+04 1.134e-08
 41.67244    -31.3 1.327e+04 1.563e-08
 41.69209    -31.8 1.430e+04 2.690e-08
 41.70553    -32.3 1.536e+04 5.154e-08
 41.71535    -30.5 1.470e+04 3.198e-08
 41.73138    -31.0 1.585e+04 6.700e-08
 41.75102    -30.9 1.668e+04 1.051e-07
 41.77067    -31.1 1.695e+04 1.168e-07
 41.79031    -31.3 1.685e+04 1.013e-07
 41.80995    -31.9 1.606e+04 5.226e-08
 41.82960    -33.1 1.495e+04 2.098e-08
 41.84924    -34.5 1.388e+04 1.023e-08
 41.85975    -35.1 1.254e+04 6.542e-09
 41.86957    -35.3 1.283e+04 7.821e-09
 41.88853    -35.3 1.206e+04 6.256e-09
 41.90818    -34.5 1.181e+04 5.468e-09
 41.92782    -33.4 1.176e+04 4.759e-09
 41.93808    -32.3 1.175e+04 3.901e-09
 41.94790    -31.2 1.186e+04 4.849e-09
 41.96711    -30.1 1.185e+04 4.059e-09
 41.98675    -29.2 1.189e+04 3.248e-09
 42.00640    -28.3 1.189e+04 2.659e-09
 42.02604    -27.0 1.197e+04 2.443e-09
 42.04569    -26.9 1.197e+04 2.425e-09
 42.07525    -25.5 1.190e+04 2.288e-09
 42.11464    -23.3 1.183e+04 2.325e-09
 42.15393    -21.2 1.188e+04 2.462e-09
 42.19322    -19.1 1.191e+04 2.549e-09
 42.23251    -17.0 1.187e+04 2.414e-09
 42.27180    -15.1 1.178e+04 2.202e-09
 42.31108    -13.2 1.168e+04 2.104e-09
 42.35037    -11.6 1.176e+04 2.330e-09
 42.38374    -10.5 1.183e+04 3.652e-09
 42.40338     -9.6 1.147e+04 3.259e-09
 42.42895     -8.3 1.168e+04 4.840e-09
 42.45424     -7.7 1.196e+04 6.638e-09
 42.46397     -8.5 1.207e+04 6.611e-09
 42.47787     -8.7 1.220e+04 7.487e-09
 42.49751     -8.5 1.242e+04 9.205e-09
 42.51716     -8.6 1.262e+04 1.043e-08
 42.53680     -8.4 1.291e+04 1.210e-08
 42.55645     -8.6 1.320e+04 1.350e-08
 42.57609     -9.2 1.360e+04 1.627e-08
 42.59573    -10.4 1.414e+04 2.211e-08
 42.61538    -11.4 1.469e+04 3.430e-08
 42.62592    -12.1 1.523e+04 5.065e-08
 42.63574    -11.4 1.481e+04 3.958e-08
 42.65467    -12.3 1.505e+04 4.733e-08
 42.67431    -13.3 1.506e+04 4.912e-08
 42.69396    -14.4 1.492e+04 4.623e-08
 42.71360    -15.7 1.464e+04 4.088e-08
 42.73325    -16.8 1.424e+04 3.562e-08
 42.75135    -17.4 1.376e+04 2.973e-08
 42.76117    -18.3 1.333e+04 2.352e-08
 42.77253    -18.6 1.275e+04 1.721e-08
 42.79218    -19.1 1.207e+04 1.159e-08
 42.82174    -19.2 1.162e+04 8.517e-09
 42.84885    -19.4 1.068e+04 4.192e-09
 42.86849    -19.1 1.073e+04 5.049e-09
 42.90042    -18.5 1.013e+04 2.679e-09
 42.93971    -17.9 9.828e+03 1.806e-09
 42.97900    -17.1 9.754e+03 1.684e-09
 43.01829    -15.8 9.806e+03 2.028e-09
 43.04874    -14.0 9.775e+03 2.325e-09
 43.06838    -15.1 1.038e+04 4.594e-09
 43.09686    -13.6 1.021e+04 4.553e-09
 43.13615    -11.9 1.044e+04 4.850e-09
 43.16552    -10.8 1.115e+04 7.082e-09
 43.18507    -11.2 1.131e+04 8.698e-09
 43.20471    -10.9 1.196e+04 1.388e-08
 43.22436    -10.7 1.250e+04 1.993e-08
 43.24400     -9.8 1.284e+04 2.485e-08
 43.26365     -9.5 1.278e+04 2.407e-08
 43.28329     -9.1 1.266e+04 2.168e-08
 43.30294     -9.5 1.240e+04 1.725e-08
 43.31376    -10.5 1.206e+04 1.443e-08
 43.32358    -11.5 1.151e+04 9.733e-09
 43.34223    -12.1 1.120e+04 9.322e-09
 43.35557    -11.9 1.111e+04 1.067e-08
 43.36539    -12.7 1.109e+04 9.916e-09
 43.38151    -11.9 1.128e+04 1.021e-08
 43.40116    -11.6 1.156e+04 9.654e-09
 43.42080    -11.8 1.176e+04 8.975e-09
 43.44045    -12.5 1.194e+04 9.021e-09
 43.46009    -13.5 1.188e+04 1.022e-08
 43.47974    -14.2 1.218e+04 1.411e-08
 43.49938    -15.1 1.245e+04 1.831e-08
 43.51903    -15.0 1.301e+04 2.327e-08
 43.53649    -15.6 1.341e+04 2.355e-08
 43.54632    -17.3 1.362e+04 2.236e-08
 43.55831    -21.9 1.421e+04 1.759e-08
 43.57796    -28.1 1.358e+04 1.848e-08
 43.59760    -30.7 1.311e+04 2.729e-08
 43.61725    -31.2 1.297e+04 3.060e-08
 43.63689    -31.1 1.245e+04 2.370e-08
 43.65277    -31.6 1.138e+04 9.616e-09
 43.66259    -32.1 1.110e+04 7.665e-09
 43.67618    -34.5 1.008e+04 2.912e-09
 43.69583    -36.1 9.402e+03 1.864e-09
 43.72539    -35.9 9.161e+03 1.671e-09
 43.75942    -35.0 8.911e+03 1.596e-09
 43.77907    -36.1 8.813e+03 1.528e-09
 43.80407    -35.0 8.746e+03 1.606e-09
 43.84336    -34.0 8.713e+03 1.667e-09
 43.88264    -33.0 8.702e+03 1.705e-09
 43.92193    -32.0 8.689e+03 1.725e-09
 43.96122    -30.9 8.699e+03 1.760e-09
 44.00051    -29.7 8.785e+03 1.936e-09
 44.03980    -28.4 8.859e+03 2.231e-09
 44.07909    -27.0 8.892e+03 2.545e-09
 44.11838    -25.6 9.294e+03 3.368e-09
 44.15767    -25.0 9.924e+03 4.731e-09
 44.19696    -25.0 1.091e+04 8.390e-09
 44.22443    -25.4 1.208e+04 1.633e-08
 44.23416    -26.3 1.241e+04 2.018e-08
 44.24587    -26.8 1.310e+04 3.228e-08
 44.25699    -25.8 1.386e+04 4.280e-08
 44.26681    -25.8 1.449e+04 5.330e-08
 44.28516    -25.7 1.468e+04 5.475e-08
 44.30481    -26.6 1.479e+04 5.006e-08
 44.32445    -28.2 1.490e+04 4.726e-08
 44.34409    -31.3 1.579e+04 5.775e-08
 44.36374    -34.4 1.689e+04 9.019e-08
 44.38338    -38.2 1.825e+04 8.300e-08
 44.40303    -44.3 1.860e+04 4.562e-08
 44.42267    -50.6 1.637e+04 3.604e-08
 44.44232    -55.2 1.407e+04 2.270e-08
 44.45689    -56.6 1.321e+04 1.660e-08
 44.46671    -57.2 1.341e+04 1.922e-08
 44.48161    -57.4 1.297e+04 1.505e-08
 44.50125    -57.2 1.261e+04 1.190e-08
 44.52090    -56.9 1.232e+04 9.006e-09
 44.54054    -56.5 1.205e+04 6.922e-09
 44.55419    -55.9 1.184e+04 5.588e-09
 44.56401    -55.8 1.202e+04 5.659e-09
 44.57983    -55.0 1.189e+04 4.804e-09
 44.59947    -54.2 1.187e+04 4.086e-09
 44.61912    -53.4 1.189e+04 3.546e-09
 44.63876    -52.7 1.190e+04 3.256e-09
 44.65841    -52.1 1.188e+04 3.174e-09
 44.67805    -51.4 1.187e+04 3.189e-09
 44.68944    -50.7 1.187e+04 3.362e-09
 44.69927    -51.1 1.178e+04 3.659e-09
 44.71734    -50.5 1.180e+04 3.684e-09
 44.73698    -49.7 1.177e+04 3.760e-09
 44.75663    -49.1 1.170e+04 3.702e-09
 44.78619    -48.0 1.139e+04 3.052e-09
 44.82558    -46.3 1.133e+04 2.751e-09
 44.85158    -44.3 1.127e+04 2.272e-09
 44.87122    -44.6 1.161e+04 2.725e-09
 44.90416    -42.6 1.159e+04 2.145e-09
 44.94345    -40.2 1.134e+04 1.498e-09
 44.98274    -37.9 1.136e+04 1.221e-09
 45.02203    -35.5 1.149e+04 1.131e-09
 45.06131    -33.0 1.162e+04 1.100e-09
 45.10060    -30.4 1.171e+04 1.071e-09
 45.13510    -27.9 1.179e+04 1.029e-09
 45.15475    -28.1 1.173e+04 9.589e-10
 45.17918    -25.7 1.188e+04 8.664e-10
 45.21847    -23.3 1.202e+04 7.689e-10
 45.25776    -21.0 1.207e+04 7.353e-10
 45.29705    -18.9 1.206e+04 8.026e-10
 45.33634    -16.7 1.205e+04 9.110e-10
 45.37563    -14.5 1.223e+04 1.035e-09
 45.41492    -12.9 1.249e+04 1.220e-09
 45.44598    -11.4 1.236e+04 1.732e-09
 45.46562    -11.5 1.257e+04 1.993e-09
 45.49349    -10.1 1.253e+04 2.678e-09
 45.53278     -8.9 1.271e+04 3.260e-09
 45.57207     -7.9 1.293e+04 3.563e-09
 45.60011     -7.0 1.295e+04 3.294e-09
 45.61976     -7.2 1.298e+04 2.755e-09
 45.65065     -6.2 1.318e+04 2.259e-09
 45.68002     -5.6 1.272e+04 2.219e-09
 45.69957     -5.5 1.263e+04 2.184e-09
 45.71921     -5.4 1.286e+04 2.244e-09
 45.73885     -7.5 1.328e+04 3.431e-09
 45.75280     -9.1 1.337e+04 7.308e-09
 45.76263     -9.7 1.369e+04 8.567e-09
 45.77814     -9.3 1.363e+04 2.274e-08
 45.79779     -8.7 1.397e+04 3.000e-08
 45.81743     -9.0 1.412e+04 2.436e-08
 45.83257    -10.1 1.395e+04 1.492e-08
 45.84239    -10.9 1.368e+04 1.123e-08
 45.85672    -11.8 1.327e+04 7.666e-09
 45.87637    -12.1 1.308e+04 5.782e-09
 45.89601    -12.1 1.295e+04 4.676e-09
 45.91565    -12.2 1.280e+04 4.158e-09
 45.93530    -12.0 1.266e+04 3.900e-09
 45.95494    -11.4 1.262e+04 3.839e-09
 45.97459    -11.0 1.249e+04 3.619e-09
 45.99423    -10.2 1.241e+04 3.619e-09
 46.01388     -9.9 1.236e+04 3.548e-09
 46.03352     -8.9 1.243e+04 3.370e-09
 46.05000     -8.6 1.236e+04 3.317e-09
 46.05983     -9.5 1.266e+04 3.297e-09
 46.06513     -8.7 1.276e+04 3.130e-09
 46.07495     -8.6 1.276e+04 3.047e-09
 46.09246     -8.5 1.274e+04 3.061e-09
 46.11210     -8.0 1.252e+04 3.473e-09
 46.13174     -7.4 1.265e+04 3.502e-09
 46.15139     -6.8 1.258e+04 3.528e-09
 46.17103     -6.3 1.255e+04 3.303e-09
 46.19068     -5.8 1.280e+04 2.792e-09
 46.21032     -5.6 1.282e+04 2.611e-09
 46.22997     -5.1 1.291e+04 2.522e-09
 46.24961     -4.7 1.261e+04 2.743e-09
 46.26926     -3.8 1.291e+04 2.580e-09
 46.28786     -3.3 1.279e+04 2.663e-09
 46.29768     -3.2 1.283e+04 2.448e-09
 46.30854     -1.9 1.294e+04 2.188e-09
 46.32819     -1.7 1.290e+04 2.242e-09
 46.34720     -0.9 1.293e+04 2.367e-09
 46.35702     -0.9 1.304e+04 2.289e-09
 46.36748     -0.7 1.317e+04 2.575e-09
 46.38712     -0.4 1.322e+04 3.398e-09
 46.40677     -0.1 1.341e+04 4.731e-09
 46.42641      0.5 1.339e+04 7.043e-09
 46.44606      1.3 1.355e+04 9.107e-09
 46.46570      1.9 1.361e+04 1.093e-08
 46.48535      2.3 1.367e+04 1.147e-08
 46.50499      2.7 1.373e+04 1.092e-08
 46.52041      2.8 1.372e+04 1.057e-08
 46.53023      2.9 1.374e+04 1.130e-08
 46.54428      3.3 1.369e+04 9.958e-09
 46.56392      3.4 1.368e+04 9.689e-09
 46.58357      4.0 1.357e+04 8.939e-09
 46.60321      4.5 1.352e+04 8.658e-09
 46.62286      5.6 1.339e+04 7.266e-09
 46.64250      6.1 1.342e+04 6.520e-09
 46.65422      7.6 1.330e+04 5.148e-09
 46.66405      7.5 1.333e+04 6.003e-09
 46.68179      8.0 1.344e+04 5.282e-09
 46.70143      9.2 1.325e+04 4.137e-09
 46.72108      9.9 1.321e+04 3.534e-09
 46.74072     11.1 1.302e+04 2.894e-09
 46.75297     11.5 1.315e+04 2.780e-09
 46.76279     11.5 1.309e+04 2.790e-09
 46.78001     13.1 1.286e+04 2.499e-09
 46.79966     13.4 1.296e+04 2.531e-09
 46.82922     14.9 1.281e+04 2.675e-09
 46.86861     16.8 1.266e+04 2.782e-09
 46.90790     18.6 1.254e+04 2.919e-09
 46.94719     20.7 1.255e+04 3.055e-09
 46.97589     22.5 1.259e+04 3.277e-09
 46.99554     22.7 1.238e+04 2.800e-09
 47.02576     24.8 1.242e+04 3.065e-09
 47.05513     26.4 1.237e+04 3.221e-09
 47.07468     27.0 1.247e+04 3.231e-09
 47.09432     28.2 1.249e+04 3.167e-09
 47.11397     28.9 1.254e+04 3.137e-09
 47.14353     30.3 1.257e+04 2.881e-09
 47.18292     32.2 1.261e+04 2.769e-09
 47.22221     34.2 1.260e+04 2.619e-09
 47.24872     35.7 1.255e+04 2.604e-09
 47.25844     36.0 1.244e+04 2.793e-09
 47.27113     37.0 1.243e+04 2.890e-09
 47.29077     38.0 1.239e+04 3.091e-09
 47.31041     38.8 1.236e+04 3.487e-09
 47.33006     39.6 1.233e+04 4.074e-09
 47.34970     40.5 1.231e+04 4.849e-09
 47.36935     41.4 1.239e+04 5.790e-09
 47.38899     42.1 1.243e+04 7.011e-09
 47.40864     42.9 1.242e+04 8.612e-09
 47.42828     43.6 1.255e+04 1.037e-08
 47.44081     44.1 1.269e+04 1.204e-08
 47.45063     43.9 1.247e+04 1.004e-08
 47.46757     44.5 1.243e+04 1.041e-08
 47.48721     45.2 1.234e+04 1.003e-08
 47.50686     46.0 1.220e+04 9.154e-09
 47.52650     46.9 1.202e+04 7.812e-09
 47.54582     47.8 1.185e+04 6.456e-09
 47.55564     47.8 1.177e+04 5.802e-09
 47.56579     48.8 1.165e+04 4.968e-09
 47.58544     49.8 1.160e+04 4.473e-09
 47.60508     50.8 1.144e+04 4.293e-09
 47.62473     51.9 1.139e+04 4.346e-09
 47.64437     53.1 1.135e+04 4.560e-09
 47.66354     54.2 1.136e+04 4.898e-09
 47.67336     54.3 1.117e+04 3.250e-09
 47.68366     55.6 1.113e+04 3.623e-09
 47.70330     56.7 1.113e+04 4.008e-09
 47.72295     57.9 1.116e+04 4.627e-09
 47.74259     59.1 1.122e+04 5.336e-09
 47.76224     60.2 1.131e+04 6.155e-09
 47.78188     61.2 1.144e+04 7.160e-09
 47.80153     62.1 1.164e+04 8.517e-09
 47.82117     62.7 1.193e+04 1.057e-08
 47.84082     63.0 1.229e+04 1.375e-08
 47.85284     63.0 1.276e+04 1.864e-08
 47.86266     62.6 1.317e+04 2.451e-08
 47.88010     62.1 1.384e+04 3.452e-08
 47.89609     61.3 1.434e+04 3.949e-08
 47.90592     62.0 1.384e+04 3.272e-08
 47.91939     61.3 1.403e+04 3.380e-08
 47.93904     60.0 1.405e+04 3.167e-08
 47.95868     58.5 1.387e+04 2.621e-08
 47.97833     56.9 1.345e+04 2.001e-08
 47.99797     55.5 1.297e+04 1.564e-08
 48.01762     54.6 1.263e+04 1.364e-08
 48.03726     54.0 1.259e+04 1.342e-08
 48.05691     53.5 1.282e+04 1.484e-08
 48.07655     52.9 1.332e+04 1.936e-08
 48.09619     52.3 1.392e+04 2.873e-08
 48.11584     51.9 1.450e+04 4.233e-08
 48.12865     51.7 1.485e+04 5.634e-08
 48.13847     52.7 1.334e+04 2.259e-08
 48.15004     52.6 1.363e+04 3.015e-08
 48.15986     52.6 1.343e+04 2.512e-08
 48.17477     52.7 1.377e+04 3.276e-08
 48.19442     52.9 1.388e+04 3.686e-08
 48.21406     53.2 1.394e+04 3.734e-08
 48.23371     53.7 1.381e+04 3.382e-08
 48.25335     54.0 1.355e+04 2.630e-08
 48.27299     54.2 1.313e+04 1.840e-08
 48.29264     54.3 1.279e+04 1.381e-08
 48.31228     54.6 1.245e+04 1.076e-08
 48.33193     55.2 1.224e+04 8.660e-09
 48.35138     55.8 1.208e+04 7.192e-09
 48.36120     56.4 1.208e+04 7.513e-09
 48.37122     57.2 1.194e+04 5.978e-09
 48.39086     58.0 1.190e+04 4.982e-09
 48.41051     58.7 1.186e+04 4.459e-09
 48.43015     59.6 1.181e+04 4.400e-09
 48.44724     60.7 1.184e+04 4.477e-09
 48.45706     60.9 1.178e+04 4.400e-09
 48.46944     61.9 1.191e+04 4.730e-09
 48.48908     62.6 1.212e+04 5.644e-09
 48.50873     63.2 1.240e+04 7.454e-09
 48.52837     63.7 1.272e+04 1.042e-08
 48.54802     64.0 1.309e+04 1.442e-08
 48.56766     64.2 1.335e+04 1.848e-08
 48.58394     64.2 1.340e+04 2.130e-08
 48.59376     64.6 1.311e+04 1.795e-08
 48.60695     64.5 1.316e+04 1.923e-08
 48.62660     64.1 1.326e+04 2.025e-08
 48.64624     63.1 1.349e+04 2.357e-08
 48.66588     61.6 1.403e+04 3.491e-08
 48.68553     60.3 1.488e+04 6.089e-08
 48.70517     59.2 1.556e+04 8.383e-08
 48.72482     57.8 1.557e+04 8.143e-08
 48.74444     56.9 1.511e+04 6.106e-08
 48.76408     54.9 1.565e+04 6.880e-08
 48.78375     53.3 1.463e+04 3.181e-08
 48.80340     50.6 1.373e+04 1.527e-08
 48.81649     48.2 1.289e+04 1.235e-08
 48.82631     48.8 1.281e+04 1.094e-08
 48.84269     47.9 1.264e+04 1.077e-08
 48.86233     47.5 1.268e+04 1.122e-08
 48.88197     47.0 1.281e+04 1.273e-08
 48.90162     46.5 1.297e+04 1.504e-08
 48.92126     46.2 1.313e+04 1.682e-08
 48.94091     45.7 1.323e+04 1.716e-08
 48.96055     45.1 1.329e+04 1.742e-08
 48.98020     44.3 1.342e+04 1.831e-08
 48.99984     43.6 1.364e+04 2.078e-08
 49.01949     43.2 1.386e+04 2.257e-08
 49.03913     42.6 1.389e+04 2.218e-08
 49.05146     42.5 1.364e+04 1.741e-08
 49.06128     42.0 1.392e+04 1.944e-08
 49.07842     41.6 1.375e+04 1.622e-08
 49.09806     41.6 1.348e+04 1.285e-08
 49.11771     41.9 1.325e+04 9.683e-09
 49.13735     42.2 1.308e+04 7.076e-09
 49.15700     42.4 1.293e+04 5.324e-09
 49.17664     42.6 1.275e+04 4.257e-09
 49.19629     42.8 1.257e+04 3.653e-09
 49.21593     43.3 1.240e+04 3.161e-09
 49.23558     43.6 1.242e+04 2.922e-09
 49.25522     44.1 1.229e+04 2.754e-09
 49.27178     44.3 1.229e+04 2.691e-09
 49.28170     45.0 1.236e+04 2.657e-09
 49.30453     46.3 1.225e+04 2.636e-09
 49.34382     47.3 1.223e+04 2.780e-09
 49.38310     48.1 1.224e+04 3.275e-09
 49.42239     48.9 1.227e+04 3.923e-09
 49.46168     49.9 1.211e+04 4.330e-09
 49.50097     50.7 1.202e+04 4.272e-09
 49.54026     52.0 1.183e+04 4.170e-09
 49.57955     53.4 1.189e+04 4.394e-09
 49.60892     54.2 1.190e+04 4.835e-09
 49.62847     54.9 1.193e+04 5.433e-09
 49.64586     55.5 1.200e+04 6.248e-09
 49.65568     55.4 1.215e+04 7.172e-09
 49.66775     55.8 1.244e+04 9.060e-09
 49.68740     55.6 1.303e+04 1.303e-08
 49.70704     54.8 1.391e+04 2.325e-08
 49.72669     54.0 1.476e+04 4.440e-08
 49.73689     53.4 1.543e+04 7.100e-08
 49.74671     54.1 1.560e+04 7.198e-08
 49.76598     53.3 1.610e+04 9.747e-08
 49.78562     52.3 1.599e+04 9.118e-08
 49.80527     51.2 1.542e+04 6.517e-08
 49.82491     49.5 1.450e+04 3.610e-08
 49.84455     47.7 1.334e+04 1.928e-08
 49.86420     46.2 1.236e+04 1.219e-08
 49.89376     45.1 1.173e+04 7.343e-09
 49.93315     44.7 1.123e+04 4.264e-09
 49.97244     44.6 1.106e+04 3.282e-09
 50.01173     45.2 1.104e+04 3.364e-09
 50.04110     45.3 1.109e+04 3.601e-09
 50.06064     45.5 1.112e+04 3.731e-09
 50.08029     45.9 1.109e+04 3.688e-09
 50.09993     46.3 1.107e+04 3.532e-09
 50.11958     46.6 1.100e+04 3.349e-09
 50.13922     47.0 1.096e+04 3.158e-09
 50.15887     47.3 1.096e+04 3.033e-09
 50.17851     47.6 1.101e+04 3.035e-09
 50.19217     47.8 1.110e+04 3.125e-09
 50.20199     47.0 1.113e+04 3.725e-09
 50.21780     47.3 1.120e+04 4.076e-09
 50.23744     47.6 1.124e+04 4.456e-09
 50.25008     48.1 1.129e+04 4.739e-09
 50.25990     48.0 1.120e+04 4.435e-09
 50.27673     48.5 1.120e+04 4.413e-09
 50.29638     48.9 1.120e+04 4.231e-09
 50.32594     49.4 1.106e+04 3.497e-09
 50.36533     50.8 1.083e+04 2.559e-09
 50.40462     52.3 1.061e+04 1.790e-09
 50.44391     53.8 1.055e+04 1.340e-09
 50.48320     55.6 1.059e+04 1.305e-09
 50.52249     57.7 1.081e+04 1.403e-09
 50.56177     59.4 1.128e+04 1.787e-09
 50.59114     59.7 1.154e+04 2.282e-09
 50.61069     59.8 1.179e+04 3.228e-09
 50.63033     59.7 1.214e+04 5.578e-09
 50.64746     59.4 1.267e+04 1.084e-08
 50.65728     60.3 1.268e+04 1.085e-08
 50.66962     60.3 1.326e+04 1.910e-08
 50.68927     60.2 1.379e+04 2.709e-08
 50.70891     59.5 1.404e+04 2.809e-08
 50.72856     58.4 1.397e+04 2.304e-08
 50.74820     56.3 1.368e+04 1.436e-08
 50.76785     53.3 1.294e+04 1.011e-08
 50.78749     51.0 1.261e+04 1.004e-08
 50.80714     49.5 1.257e+04 1.088e-08
 50.82678     48.6 1.277e+04 1.302e-08
 50.84448     47.9 1.308e+04 1.430e-08
 50.85440     47.0 1.251e+04 8.794e-09
 50.87609     45.1 1.261e+04 8.805e-09
 50.90546     44.5 1.283e+04 9.643e-09
 50.92500     43.8 1.283e+04 9.491e-09
 50.95457     41.9 1.263e+04 8.155e-09
 50.99395     41.3 1.250e+04 5.552e-09
 51.03324     40.2 1.278e+04 2.648e-09
 51.07253     38.3 1.282e+04 2.045e-09
 51.10294     36.8 1.270e+04 2.579e-09
 51.12249     35.5 1.310e+04 6.013e-09
 51.15101     35.6 1.298e+04 7.116e-09
 51.19040     36.3 1.286e+04 6.015e-09
 51.22969     36.7 1.273e+04 4.835e-09
 51.26898     37.4 1.251e+04 4.105e-09
 51.30827     38.2 1.236e+04 3.836e-09
 51.34755     39.2 1.231e+04 3.574e-09
 51.38684     40.1 1.232e+04 3.313e-09
 51.42613     40.9 1.241e+04 3.166e-09
 51.44889     41.0 1.252e+04 2.821e-09
 51.46854     40.3 1.245e+04 2.145e-09
 51.50471     39.8 1.207e+04 2.099e-09
 51.54400     38.4 1.187e+04 2.469e-09
 51.56805     36.5 1.156e+04 4.100e-09
 51.58769     35.9 1.186e+04 5.191e-09
 51.62258     33.5 1.164e+04 7.476e-09
 51.66187     31.7 1.141e+04 7.226e-09
 51.70116     31.4 1.083e+04 4.931e-09
 51.74044     30.5 1.047e+04 2.648e-09
 51.77973     29.8 9.962e+03 2.249e-09
 51.81902     30.1 9.798e+03 2.358e-09
 51.85831     31.3 9.511e+03 2.621e-09
 51.89760     32.7 9.392e+03 2.593e-09
 51.93689     34.5 9.140e+03 2.298e-09
 51.97618     36.3 8.914e+03 1.829e-09
 52.01351     38.2 8.828e+03 1.447e-09
 52.03316     37.8 8.849e+03 1.330e-09
 52.04329     39.8 8.567e+03 1.317e-09
 52.06294     40.1 8.633e+03 1.409e-09
 52.09405     42.0 8.500e+03 1.431e-09
 52.13333     43.9 8.494e+03 1.477e-09
 52.17262     45.6 8.517e+03 1.695e-09
 52.21191     47.0 8.646e+03 2.487e-09
 52.25120     47.2 9.297e+03 4.811e-09
 52.28057     46.9 9.826e+03 7.026e-09
 52.30012     45.9 1.041e+04 1.001e-08
 52.31976     44.7 1.140e+04 1.717e-08
 52.33941     44.0 1.192e+04 2.476e-08
 52.35012     43.2 1.190e+04 2.493e-08
 52.35994     42.7 1.149e+04 2.148e-08
 52.37870     41.2 1.135e+04 1.798e-08
 52.39834     38.3 1.118e+04 1.422e-08
 52.41798     35.1 1.074e+04 1.110e-08
 52.43763     32.1 1.014e+04 9.493e-09
 52.45727     30.2 9.759e+03 7.618e-09
 52.47853     27.6 8.110e+03 3.897e-09
 52.49817     26.0 8.803e+03 5.479e-09
 52.51621     20.0 9.788e+03 4.667e-09
 52.53585     15.2 1.007e+04 4.434e-09
 52.55550     13.1 1.017e+04 6.263e-09
 52.57514     13.0 1.011e+04 8.779e-09
 52.60470     15.2 1.043e+04 1.253e-08
 52.63769     17.6 1.026e+04 1.253e-08
 52.65733     15.9 1.042e+04 1.223e-08
 52.68338     18.4 9.378e+03 5.807e-09
 52.72267     20.1 8.427e+03 2.726e-09
 52.76196     21.8 7.933e+03 1.815e-09
 52.80125     24.3 7.848e+03 1.727e-09
 52.84054     26.9 7.860e+03 1.729e-09
 52.87983     29.2 7.936e+03 1.793e-09
 52.91911     31.3 8.147e+03 2.049e-09
 52.94373     33.1 8.433e+03 2.518e-09
 52.96338     33.2 8.476e+03 2.534e-09
 52.99769     34.8 8.787e+03 3.142e-09
 53.03698     36.1 9.089e+03 3.624e-09
 53.07627     37.4 9.222e+03 3.651e-09
 53.11556     38.5 9.407e+03 3.570e-09
 53.15485     39.4 9.563e+03 3.283e-09
 53.19414     40.1 9.734e+03 2.967e-09
 53.23209     41.0 9.788e+03 2.861e-09
 53.25173     40.7 1.033e+04 5.630e-09
 53.27272     41.7 1.035e+04 4.958e-09
 53.31200     42.9 1.027e+04 3.730e-09
 53.35129     44.1 1.022e+04 2.480e-09
 53.38920     45.1 1.016e+04 1.916e-09
 53.40884     45.0 1.069e+04 2.951e-09
 53.42987     46.2 1.066e+04 2.663e-09
 53.46916     47.4 1.067e+04 2.679e-09
 53.50845     48.5 1.081e+04 2.798e-09
 53.54774     49.0 1.115e+04 3.300e-09
 53.58703     49.1 1.152e+04 4.249e-09
 53.62632     49.1 1.191e+04 5.388e-09
 53.66561     48.9 1.226e+04 6.383e-09
 53.69497     48.0 1.269e+04 8.303e-09
 53.71452     47.4 1.291e+04 9.678e-09
 53.73417     46.5 1.310e+04 1.069e-08
 53.75381     45.6 1.321e+04 1.193e-08
 53.77345     44.2 1.355e+04 1.484e-08
 53.79310     43.1 1.371e+04 1.672e-08
 53.81274     41.6 1.378e+04 1.720e-08
 53.83239     40.5 1.371e+04 1.604e-08
 53.84594     39.4 1.344e+04 1.135e-08
 53.85793     38.5 1.306e+04 8.880e-09
 53.87395     37.9 1.325e+04 1.073e-08
 53.89142     37.0 1.294e+04 7.232e-09
 53.91097     35.8 1.275e+04 5.391e-09
 53.93061     34.8 1.247e+04 5.057e-09
 53.95026     34.3 1.243e+04 5.091e-09
 53.96990     33.4 1.253e+04 5.751e-09
 53.98954     32.5 1.255e+04 6.931e-09
 54.00919     31.5 1.262e+04 9.138e-09
 54.02883     30.6 1.273e+04 1.230e-08
 54.04848     29.6 1.270e+04 1.283e-08
 54.06812     29.1 1.246e+04 1.189e-08
 54.08666     28.4 1.218e+04 8.648e-09
 54.09649     27.6 1.287e+04 8.395e-09
 54.10741     19.3 1.580e+04 1.680e-08
 54.12706     12.8 1.666e+04 6.736e-08
 54.14174      9.9 1.726e+04 9.805e-08
 54.14795      5.9 1.868e+04 2.061e-07
 54.15286      5.9 1.824e+04 1.734e-07
 54.16134      1.0 1.923e+04 3.773e-07
 54.17116     -1.4 1.860e+04 7.063e-07
 54.18098     -3.3 1.813e+04 7.298e-07
 54.19080     -2.6 1.792e+04 4.425e-07
 54.20062     -4.3 1.799e+04 1.348e-07
 54.20775     -6.3 1.676e+04 9.774e-08
 54.21267     -6.7 1.661e+04 8.985e-08
 54.22523    -11.0 1.512e+04 1.741e-08
 54.24492    -18.5 1.234e+04 6.176e-09
 54.26457    -20.6 1.150e+04 4.827e-09
 54.28421    -21.1 1.128e+04 4.764e-09
 54.30386    -21.4 1.112e+04 4.492e-09
 54.31922    -21.9 1.105e+04 3.767e-09
 54.32904    -22.1 1.103e+04 3.593e-09
 54.34315    -23.2 1.090e+04 2.936e-09
 54.36279    -24.5 1.061e+04 2.655e-09
 54.38243    -24.8 1.053e+04 2.636e-09
 54.41200    -24.8 1.053e+04 2.840e-09
 54.44053    -24.5 1.024e+04 2.636e-09
 54.46017    -24.6 1.021e+04 2.634e-09
 54.49067    -23.4 9.952e+03 1.946e-09
 54.52996    -22.7 9.985e+03 1.341e-09
 54.56925    -21.9 9.955e+03 1.213e-09
 54.60854    -21.0 1.003e+04 1.319e-09
 54.64783    -19.8 1.013e+04 1.483e-09
 54.68712    -18.5 1.022e+04 1.388e-09
 54.72641    -17.4 1.036e+04 1.099e-09
 54.76488    -16.3 1.030e+04 1.028e-09
 54.78452    -16.3 1.031e+04 9.966e-10
 54.80499    -15.1 1.035e+04 9.461e-10
 54.84428    -14.1 1.042e+04 1.020e-09
 54.88356    -13.1 1.054e+04 1.305e-09
 54.92285    -12.1 1.066e+04 1.587e-09
 54.96214    -11.4 1.095e+04 1.677e-09
 55.00143    -11.3 1.132e+04 1.807e-09
 55.03493    -11.6 1.150e+04 2.471e-09
 55.05457    -12.4 1.158e+04 3.905e-09
 55.08001    -12.8 1.183e+04 4.635e-09
 55.10938    -12.9 1.196e+04 6.167e-09
 55.12893    -13.0 1.227e+04 6.542e-09
 55.14857    -13.2 1.241e+04 6.678e-09
 55.16821    -13.5 1.265e+04 5.945e-09
 55.18786    -14.8 1.323e+04 6.323e-09
 55.20750    -21.7 1.566e+04 1.288e-08
 55.22715    -26.0 1.545e+04 5.508e-08
 55.23961    -25.2 1.646e+04 1.229e-07
 55.24944    -25.7 1.735e+04 2.122e-07
 55.26644    -29.2 1.755e+04 1.151e-07
 55.28608    -35.2 1.614e+04 2.488e-08
 55.30573    -39.0 1.489e+04 1.140e-08
 55.32537    -40.1 1.460e+04 8.277e-09
 55.34175    -40.8 1.435e+04 6.483e-09
 55.35158    -39.7 1.472e+04 6.841e-09
 55.36466    -40.3 1.433e+04 5.501e-09
 55.38430    -40.3 1.443e+04 4.649e-09
 55.40395    -40.4 1.468e+04 3.810e-09
 55.42359    -40.9 1.478e+04 3.214e-09
 55.44324    -41.0 1.489e+04 3.010e-09
 55.46235    -41.2 1.500e+04 2.829e-09
 55.47217    -41.2 1.490e+04 2.871e-09
 55.48253    -41.1 1.500e+04 2.816e-09
 55.50217    -41.1 1.522e+04 2.776e-09
 55.52182    -41.2 1.539e+04 2.873e-09
 55.54146    -41.5 1.547e+04 3.273e-09
 55.56110    -42.0 1.546e+04 4.188e-09
 55.58075    -42.7 1.532e+04 6.082e-09
 55.60039    -43.3 1.515e+04 9.199e-09
 55.62004    -43.7 1.502e+04 1.298e-08
 55.63895    -44.4 1.496e+04 1.509e-08
 55.64877    -43.3 1.505e+04 1.461e-08
 55.65933    -43.9 1.493e+04 1.761e-08
 55.67897    -44.5 1.485e+04 1.936e-08
 55.69490    -44.9 1.469e+04 1.822e-08
 55.70472    -45.3 1.467e+04 1.563e-08
 55.71826    -46.5 1.481e+04 8.477e-09
 55.73790    -48.7 1.482e+04 5.806e-09
 55.75755    -51.1 1.477e+04 5.685e-09
 55.77719    -54.1 1.514e+04 7.773e-09
 55.79684    -56.1 1.478e+04 1.906e-08
 55.81648    -56.7 1.501e+04 3.499e-08
 55.83613    -57.7 1.522e+04 4.217e-08
 55.85577    -59.3 1.498e+04 3.125e-08
 55.87542    -61.2 1.432e+04 1.729e-08
 55.89506    -63.0 1.356e+04 9.868e-09
 55.91471    -64.0 1.305e+04 7.129e-09
 55.94427    -64.6 1.281e+04 5.512e-09
 55.97374    -65.3 1.242e+04 3.847e-09
 55.99328    -65.3 1.234e+04 3.689e-09
 56.01293    -65.1 1.217e+04 3.456e-09
 56.03257    -64.9 1.211e+04 3.276e-09
 56.05222    -64.7 1.206e+04 3.095e-09
 56.07186    -64.5 1.200e+04 3.030e-09
 56.09151    -64.2 1.194e+04 3.020e-09
 56.11115    -64.1 1.188e+04 3.004e-09
 56.13079    -63.8 1.177e+04 3.114e-09
 56.15019    -63.7 1.172e+04 3.137e-09
 56.16011    -64.3 1.171e+04 2.875e-09
 56.18010    -63.9 1.162e+04 3.062e-09
 56.21939    -63.6 1.147e+04 3.060e-09
 56.24337    -63.2 1.123e+04 2.610e-09
 56.26301    -62.2 1.151e+04 3.804e-09
 56.29797    -61.3 1.123e+04 2.468e-09
 56.33726    -60.4 1.098e+04 1.686e-09
 56.37655    -59.2 1.094e+04 1.522e-09
 56.41584    -58.0 1.096e+04 1.761e-09
 56.45512    -56.9 1.097e+04 2.955e-09
 56.49441    -55.7 1.109e+04 4.412e-09
 56.53370    -54.9 1.114e+04 5.225e-09
 56.57299    -54.4 1.105e+04 5.185e-09
 56.60567    -53.8 1.082e+04 4.601e-09
 56.62531    -53.9 1.102e+04 5.593e-09
 56.65157    -53.1 1.084e+04 5.036e-09
 56.69086    -52.1 1.061e+04 4.286e-09
 56.73015    -51.0 1.038e+04 3.332e-09
 56.76944    -50.0 1.019e+04 2.465e-09
 56.80873    -49.1 1.009e+04 2.050e-09
 56.83777    -48.4 1.011e+04 2.004e-09
 56.85741    -47.5 1.008e+04 1.988e-09
 56.88730    -47.0 9.963e+03 2.180e-09
 56.92659    -46.9 1.028e+04 3.705e-09
 56.96588    -46.5 1.085e+04 6.786e-09
 57.00517    -46.3 1.156e+04 1.125e-08
 57.03454    -48.5 1.221e+04 1.497e-08
 57.05409    -49.5 1.257e+04 1.750e-08
 57.07058    -50.6 1.279e+04 1.951e-08
 57.08041    -51.1 1.307e+04 2.335e-08
 57.09338    -52.7 1.344e+04 2.621e-08
 57.11302    -55.1 1.345e+04 2.365e-08
 57.13266    -58.4 1.250e+04 1.217e-08
 57.14459    -62.9 1.099e+04 5.772e-09
 57.15441    -61.0 1.279e+04 1.022e-08
 57.17195    -66.1 1.075e+04 4.898e-09
 57.20152    -68.4 1.008e+04 3.660e-09
 57.23098    -69.3 9.906e+03 3.477e-09
 57.25053    -69.7 9.820e+03 3.294e-09
 57.28010    -70.2 9.564e+03 2.825e-09
 57.31948    -70.4 9.397e+03 2.460e-09
 57.35877    -70.3 9.278e+03 2.138e-09
 57.39806    -69.9 9.244e+03 1.976e-09
 57.43216    -69.4 9.238e+03 1.946e-09
 57.45181    -69.1 9.059e+03 1.668e-09
 57.47664    -68.5 9.176e+03 1.723e-09
 57.51593    -68.0 9.276e+03 1.897e-09
 57.53589    -67.6 9.382e+03 2.074e-09
 57.55553    -67.0 9.369e+03 1.991e-09
 57.59451    -66.4 9.490e+03 2.120e-09
 57.63379    -66.1 9.651e+03 2.178e-09
 57.67308    -65.7 9.872e+03 2.337e-09
 57.71237    -65.4 1.010e+04 2.664e-09
 57.75166    -65.1 1.020e+04 2.919e-09
 57.79095    -64.7 1.020e+04 2.953e-09
 57.83024    -64.1 1.016e+04 2.366e-09
 57.86953    -63.0 1.010e+04 1.591e-09
 57.90882    -61.7 1.013e+04 1.141e-09
 57.94811    -60.1 1.020e+04 1.010e-09
 57.98135    -58.4 1.037e+04 9.898e-10
 58.00100    -57.8 1.030e+04 8.074e-10
 58.02656    -56.4 1.060e+04 8.545e-10
 58.06585    -54.9 1.068e+04 1.005e-09
 58.10526    -54.2 1.074e+04 1.889e-09
 58.14455    -53.3 1.103e+04 3.414e-09
 58.18384    -52.8 1.144e+04 4.519e-09
 58.22313    -53.1 1.158e+04 4.646e-09
 58.25250    -53.8 1.172e+04 4.315e-09
 58.27205    -53.9 1.178e+04 4.271e-09
 58.29169    -54.8 1.186e+04 4.148e-09
 58.31133    -55.2 1.210e+04 4.345e-09
 58.33098    -56.8 1.245e+04 5.137e-09
 58.34321    -57.8 1.251e+04 6.386e-09
 58.35303    -57.1 1.257e+04 6.478e-09
 58.37027    -58.2 1.266e+04 7.589e-09
 58.38991    -59.2 1.280e+04 8.633e-09
 58.40956    -60.3 1.296e+04 9.863e-09
 58.42920    -61.2 1.312e+04 1.106e-08
 58.44626    -62.1 1.325e+04 1.155e-08
 58.45609    -61.6 1.310e+04 9.508e-09
 58.46849    -62.4 1.320e+04 9.726e-09
 58.48813    -63.4 1.334e+04 9.396e-09
 58.50778    -64.5 1.344e+04 9.125e-09
 58.52742    -65.6 1.355e+04 9.112e-09
 58.54707    -66.7 1.368e+04 9.328e-09
 58.56671    -67.7 1.371e+04 9.490e-09
 58.58636    -68.7 1.371e+04 9.230e-09
 58.60600    -69.6 1.376e+04 7.919e-09
 58.62565    -70.4 1.386e+04 6.501e-09
 58.64041    -71.4 1.407e+04 5.555e-09
 58.65023    -72.1 1.399e+04 7.191e-09
 58.66494    -73.2 1.420e+04 7.276e-09
 58.67882    -74.5 1.432e+04 9.068e-09
 58.68864    -72.9 1.415e+04 6.525e-09
 58.70422    -74.0 1.427e+04 8.347e-09
 58.72387    -74.6 1.434e+04 1.047e-08
 58.74351    -74.8 1.443e+04 1.145e-08
 58.76316    -75.0 1.447e+04 9.513e-09
 58.78280    -75.4 1.450e+04 6.787e-09
 58.80245    -75.9 1.449e+04 4.607e-09
 58.82209    -76.4 1.439e+04 3.337e-09
 58.85166    -77.1 1.415e+04 2.518e-09
 58.89104    -76.9 1.395e+04 2.214e-09
 58.91157    -76.5 1.380e+04 1.934e-09
 58.93121    -75.3 1.370e+04 1.568e-09
 58.96962    -74.8 1.370e+04 1.189e-09
 59.00891    -74.3 1.366e+04 1.071e-09
 59.04820    -73.5 1.356e+04 1.057e-09
 59.08749    -72.5 1.347e+04 1.105e-09
 59.12678    -71.4 1.339e+04 1.200e-09
 59.16607    -70.1 1.325e+04 1.355e-09
 59.20535    -68.7 1.310e+04 1.492e-09
 59.23500    -67.5 1.299e+04 1.628e-09
 59.25465    -67.3 1.294e+04 1.334e-09
 59.28393    -66.1 1.296e+04 1.274e-09
 59.32322    -65.2 1.305e+04 1.428e-09
 59.35703    -64.5 1.290e+04 2.179e-09
 59.37668    -63.8 1.290e+04 1.212e-09
 59.40180    -63.1 1.281e+04 1.728e-09
 59.44109    -62.3 1.277e+04 2.328e-09
 59.48038    -61.6 1.274e+04 2.787e-09
 59.51967    -61.0 1.274e+04 2.984e-09
 59.55896    -60.3 1.273e+04 2.737e-09
 59.59824    -59.5 1.279e+04 2.272e-09
 59.63753    -58.6 1.283e+04 1.850e-09
 59.67682    -57.5 1.285e+04 1.598e-09
 59.71611    -56.1 1.284e+04 1.385e-09
 59.75540    -54.5 1.282e+04 1.281e-09
 59.79469    -52.7 1.277e+04 1.220e-09
 59.82214    -50.7 1.266e+04 1.134e-09
 59.83721    -50.0 1.272e+04 1.049e-09
 59.84905    -49.4 1.268e+04 1.194e-09
 59.87327    -47.4 1.251e+04 1.191e-09
 59.91256    -45.4 1.230e+04 1.124e-09
 59.95185    -43.5 1.218e+04 1.014e-09
 59.99113    -41.6 1.206e+04 9.352e-10
 60.03042    -39.8 1.200e+04 9.004e-10
 60.06971    -38.1 1.187e+04 9.268e-10
 60.10900    -36.6 1.173e+04 1.102e-09
 60.14829    -35.2 1.158e+04 1.514e-09
 60.18758    -33.8 1.157e+04 2.151e-09
 60.22687    -32.6 1.168e+04 2.559e-09
 60.26616    -31.8 1.174e+04 2.513e-09
 60.28725    -31.2 1.170e+04 2.046e-09
 60.30690    -30.1 1.179e+04 3.368e-09
 60.34474    -29.6 1.161e+04 2.770e-09
 60.38402    -28.9 1.133e+04 2.071e-09
 60.42331    -27.7 1.110e+04 1.324e-09
 60.44344    -26.3 1.092e+04 7.732e-10
 60.46309    -25.6 1.079e+04 9.525e-10
 60.50189    -24.1 1.061e+04 7.435e-10
 60.54118    -22.4 1.053e+04 7.047e-10
 60.58047    -20.7 1.058e+04 7.615e-10
 60.61976    -19.6 1.068e+04 1.029e-09
 60.65905    -18.7 1.081e+04 1.718e-09
 60.69834    -17.7 1.108e+04 2.746e-09
 60.73272    -17.0 1.137e+04 3.426e-09
 60.75236    -16.3 1.134e+04 3.102e-09
 60.77691    -16.1 1.142e+04 2.801e-09
 60.81620    -15.4 1.130e+04 2.062e-09
 60.85549    -14.4 1.119e+04 1.438e-09
 60.89478    -13.0 1.115e+04 9.430e-10
 60.93407    -11.9 1.110e+04 7.145e-10
 60.97336    -10.6 1.103e+04 6.731e-10
 61.01265     -9.4 1.120e+04 7.439e-10
 61.03784     -8.1 1.130e+04 1.014e-09
 61.05749     -7.4 1.117e+04 8.487e-10
 61.09123     -6.8 1.143e+04 1.153e-09
 61.13052     -6.2 1.121e+04 1.943e-09
 61.16980     -5.5 1.111e+04 3.040e-09
 61.19782     -4.8 1.116e+04 3.449e-09
 61.21747     -4.6 1.111e+04 3.488e-09
 61.24838     -4.1 1.090e+04 2.468e-09
 61.28767     -4.2 1.086e+04 1.885e-09
 61.32696     -3.9 1.084e+04 2.003e-09
 61.36625     -3.9 1.089e+04 2.769e-09
 61.40554     -3.3 1.094e+04 3.427e-09
 61.44483     -3.2 1.101e+04 3.349e-09
 61.48412     -3.7 1.101e+04 3.092e-09
 61.52341     -4.6 1.113e+04 2.857e-09
 61.56269     -5.6 1.097e+04 3.440e-09
 61.60198     -5.5 1.059e+04 4.068e-09
 61.63224     -4.8 1.063e+04 2.254e-09
 61.65189     -4.6 1.056e+04 2.313e-09
 61.66293     -5.5 1.042e+04 1.560e-09
 61.68258     -6.3 1.034e+04 1.427e-09
 61.71985     -6.4 1.039e+04 1.517e-09
 61.75914     -6.5 1.047e+04 1.975e-09
 61.79843     -5.9 1.046e+04 2.431e-09
 61.83772     -5.4 1.032e+04 2.176e-09
 61.87701     -4.8 1.027e+04 1.393e-09
 61.91630     -5.0 1.029e+04 9.751e-10
 61.95558     -5.0 1.034e+04 1.132e-09
 61.99487     -5.2 1.056e+04 1.926e-09
 62.03416     -4.6 1.073e+04 3.350e-09
 62.07345     -4.1 1.068e+04 3.697e-09
 62.10840     -3.7 1.079e+04 2.194e-09
 62.12804     -3.2 1.091e+04 2.389e-09
 62.15203     -4.3 1.065e+04 1.656e-09
 62.19132     -4.7 1.061e+04 1.523e-09
 62.22664     -5.7 1.096e+04 1.736e-09
 62.24628     -7.4 1.097e+04 2.381e-09
 62.26990     -8.3 1.109e+04 4.514e-09
 62.30919     -8.6 1.111e+04 5.784e-09
 62.34847     -8.4 1.101e+04 2.755e-09
 62.38776    -10.0 1.106e+04 7.741e-10
 62.42705    -11.4 1.078e+04 5.666e-10
 62.46634    -10.9 1.067e+04 5.915e-10
 62.50563     -9.6 1.048e+04 7.827e-10
 62.54492     -7.8 1.048e+04 8.287e-10
 62.57351     -6.1 1.078e+04 6.748e-10
 62.59315     -6.1 1.080e+04 7.210e-10
 62.62350     -4.8 1.087e+04 6.296e-10
 62.66279     -3.2 1.085e+04 5.920e-10
 62.70208     -1.3 1.093e+04 6.144e-10
 62.74136      0.3 1.106e+04 7.370e-10
 62.78065      1.8 1.111e+04 1.068e-09
 62.81994      3.3 1.124e+04 1.893e-09
 62.84068      4.8 1.150e+04 3.225e-09
 62.86033      3.4 1.169e+04 4.187e-09
 62.89852      4.3 1.212e+04 7.543e-09
 62.93781      4.8 1.272e+04 1.071e-08
 62.96718      5.1 1.318e+04 1.300e-08
 62.98672      5.0 1.351e+04 1.582e-08
 63.00637      4.7 1.376e+04 2.186e-08
 63.02601      5.1 1.419e+04 2.987e-08
 63.03842      5.4 1.465e+04 3.622e-08
 63.04824      5.1 1.501e+04 4.331e-08
 63.06530      4.8 1.528e+04 4.307e-08
 63.08495      4.1 1.543e+04 4.039e-08
 63.10459      2.9 1.541e+04 3.648e-08
 63.12424      1.5 1.544e+04 3.483e-08
 63.13769     -0.1 1.550e+04 3.515e-08
 63.14751     -1.6 1.503e+04 2.825e-08
 63.16353     -2.3 1.485e+04 3.057e-08
 63.18317     -2.5 1.479e+04 2.352e-08
 63.20281     -3.8 1.474e+04 1.645e-08
 63.22246     -6.1 1.459e+04 1.362e-08
 63.24210     -7.7 1.435e+04 1.547e-08
 63.26115     -8.8 1.410e+04 1.873e-08
 63.27097     -9.9 1.413e+04 2.160e-08
 63.28139     -9.6 1.419e+04 2.793e-08
 63.30104     -9.9 1.436e+04 2.591e-08
 63.32068    -10.0 1.429e+04 1.744e-08
 63.34033    -10.9 1.410e+04 1.135e-08
 63.36989    -11.9 1.381e+04 7.183e-09
 63.40928    -12.1 1.344e+04 3.588e-09
 63.43508    -12.0 1.320e+04 2.478e-09
 63.45472    -11.0 1.308e+04 2.344e-09
 63.48408    -10.2 1.298e+04 2.167e-09
 63.50372    -11.1 1.294e+04 2.580e-09
 63.52714     -9.7 1.294e+04 2.617e-09
 63.56643     -8.4 1.313e+04 2.307e-09
 63.60572     -7.8 1.332e+04 2.282e-09
 63.64501     -7.0 1.323e+04 2.566e-09
 63.67438     -6.2 1.317e+04 2.385e-09
 63.69393     -5.7 1.326e+04 2.274e-09
 63.71357     -5.4 1.389e+04 2.130e-09
 63.72626     -5.9 1.415e+04 2.506e-09
 63.73495     -5.7 1.389e+04 3.808e-09
 63.74191     -4.7 1.386e+04 2.244e-09
 63.75286     -5.0 1.375e+04 3.054e-09
 63.77250     -5.0 1.410e+04 4.378e-09
 63.79215     -4.5 1.365e+04 8.170e-09
 63.81179     -3.5 1.383e+04 1.362e-08
 63.83144     -4.1 1.516e+04 2.092e-08
 63.85108     -7.9 1.753e+04 4.953e-08
 63.87073    -11.2 1.785e+04 1.561e-07
 63.88541    -11.8 1.777e+04 4.762e-07
 63.89041    -11.6 1.771e+04 4.802e-07
 63.89532    -11.3 1.760e+04 4.243e-07
 63.90997    -12.2 1.739e+04 1.941e-07
 63.92966    -13.6 1.650e+04 6.054e-08
 63.94899    -15.3 1.490e+04 1.849e-08
 63.95882    -15.4 1.531e+04 2.310e-08
 63.96895    -15.9 1.431e+04 1.212e-08
 63.98859    -14.2 1.381e+04 9.124e-09
 64.00824    -12.9 1.349e+04 6.084e-09
 64.02938    -11.0 1.375e+04 4.233e-09
 64.04912    -11.1 1.361e+04 5.196e-09
 64.06727    -10.6 1.297e+04 3.361e-09
 64.08682    -10.7 1.320e+04 3.502e-09
 64.10646    -10.2 1.325e+04 4.352e-09
 64.12611    -13.2 1.447e+04 6.642e-09
 64.14575    -22.5 1.928e+04 2.293e-08
 64.16043    -26.3 1.749e+04 1.946e-07
 64.17021    -25.7 1.736e+04 3.008e-07
 64.18003    -24.5 1.769e+04 3.832e-07
 64.18636    -24.5 1.761e+04 2.958e-07
 64.18903    -24.3 1.820e+04 2.839e-07
 64.19252    -23.9 1.821e+04 3.538e-07
 64.20464    -28.7 1.751e+04 6.300e-08
 64.22433    -33.2 1.505e+04 9.694e-09
 64.24397    -34.6 1.384e+04 3.494e-09
 64.26362    -33.8 1.348e+04 2.586e-09
 64.28326    -32.5 1.334e+04 2.155e-09
 64.30291    -31.4 1.327e+04 1.821e-09
 64.32255    -30.7 1.323e+04 1.748e-09
 64.35212    -29.5 1.326e+04 1.791e-09
 64.39150    -27.7 1.296e+04 1.674e-09
 64.41430    -26.1 1.273e+04 1.535e-09
 64.43394    -25.8 1.263e+04 1.441e-09
 64.47008    -24.2 1.254e+04 1.363e-09
 64.50937    -22.8 1.247e+04 1.480e-09
 64.54866    -21.6 1.242e+04 1.995e-09
 64.58795    -20.1 1.246e+04 2.448e-09
 64.62388    -18.9 1.248e+04 2.503e-09
 64.64352    -19.0 1.246e+04 2.318e-09
 64.66652    -17.9 1.240e+04 1.724e-09
 64.70581    -16.7 1.231e+04 1.148e-09
 64.74510    -15.6 1.243e+04 7.189e-10
 64.78439    -15.2 1.274e+04 5.476e-10
 64.82368    -17.3 1.321e+04 7.903e-10
 64.85976    -19.9 1.252e+04 5.335e-09
 64.87941    -20.1 1.292e+04 9.131e-09
 64.90226    -20.5 1.353e+04 2.045e-08
 64.94155    -23.4 1.318e+04 9.607e-09
 64.98084    -27.9 1.241e+04 3.051e-09
 65.01021    -29.0 1.220e+04 2.707e-09
 65.02975    -29.4 1.225e+04 2.716e-09
 65.05932    -30.2 1.217e+04 2.675e-09
 65.09870    -30.8 1.206e+04 2.563e-09
 65.13799    -31.4 1.191e+04 2.210e-09
 65.17728    -32.1 1.188e+04 2.151e-09
 65.21657    -32.9 1.207e+04 2.752e-09
 65.23792    -33.4 1.229e+04 3.624e-09
 65.24764    -33.0 1.220e+04 3.812e-09
 65.26549    -33.4 1.226e+04 4.046e-09
 65.29505    -34.0 1.236e+04 4.349e-09
 65.32487    -34.8 1.251e+04 3.300e-09
 65.34452    -35.1 1.248e+04 4.214e-09
 65.37373    -35.7 1.262e+04 2.824e-09
 65.41302    -36.2 1.267e+04 1.905e-09
 65.45230    -36.5 1.277e+04 1.482e-09
 65.49159    -36.3 1.287e+04 1.387e-09
 65.53088    -36.2 1.310e+04 1.503e-09
 65.57017    -35.9 1.300e+04 1.837e-09
 65.60946    -35.6 1.293e+04 1.980e-09
 65.64875    -35.0 1.257e+04 1.927e-09
 65.68804    -33.6 1.241e+04 1.425e-09
 65.72733    -32.0 1.246e+04 9.060e-10
 65.76662    -30.4 1.250e+04 6.285e-10
 65.78998    -28.6 1.249e+04 5.237e-10
 65.80962    -29.2 1.254e+04 6.625e-10
 65.83232    -27.1 1.259e+04 6.529e-10
 65.85196    -27.5 1.264e+04 9.204e-10
 65.88448    -26.2 1.258e+04 1.361e-09
 65.92377    -24.6 1.255e+04 2.432e-09
 65.96306    -23.0 1.275e+04 4.058e-09
 66.00235    -22.2 1.297e+04 5.168e-09
 66.04164    -22.1 1.313e+04 5.226e-09
 66.08093    -22.2 1.336e+04 4.944e-09
 66.12022    -22.0 1.357e+04 4.098e-09
 66.15951    -21.1 1.356e+04 2.568e-09
 66.19880    -19.8 1.345e+04 1.503e-09
 66.23544    -18.5 1.356e+04 1.051e-09
 66.25509    -19.3 1.382e+04 1.292e-09
 66.27737    -17.8 1.390e+04 1.141e-09
 66.31666    -16.1 1.400e+04 1.090e-09
 66.35595    -14.7 1.402e+04 1.217e-09
 66.39524    -13.2 1.386e+04 1.471e-09
 66.42672    -11.9 1.403e+04 1.605e-09
 66.44636    -11.8 1.403e+04 2.170e-09
 66.47382    -10.7 1.389e+04 2.559e-09
 66.51311     -9.2 1.359e+04 2.963e-09
 66.55240     -7.4 1.352e+04 2.640e-09
 66.59169     -5.7 1.352e+04 1.957e-09
 66.63097     -4.1 1.342e+04 1.691e-09
 66.67026     -2.1 1.338e+04 1.780e-09
 66.70055      0.1 1.318e+04 1.986e-09
 66.72020     -1.0 1.301e+04 1.981e-09
 66.74884      1.2 1.282e+04 2.090e-09
 66.78813      3.8 1.270e+04 1.841e-09
 66.82742      6.2 1.275e+04 1.430e-09
 66.86671      8.2 1.282e+04 1.149e-09
 66.90600     10.3 1.269e+04 1.071e-09
 66.94529     12.7 1.258e+04 1.080e-09
 66.98458     15.0 1.247e+04 1.128e-09
 67.02111     17.5 1.232e+04 1.159e-09
 67.04076     18.2 1.234e+04 1.051e-09
 67.06315     20.7 1.229e+04 1.022e-09
 67.10244     23.3 1.225e+04 9.689e-10
 67.14173     25.8 1.220e+04 9.202e-10
 67.16566     28.3 1.216e+04 9.003e-10
 67.18531     28.2 1.212e+04 5.336e-10
 67.22031     30.8 1.206e+04 5.870e-10
 67.25960     33.4 1.200e+04 6.678e-10
 67.29889     36.1 1.195e+04 7.437e-10
 67.33818     38.6 1.191e+04 7.899e-10
 67.37747     41.2 1.188e+04 8.148e-10
 67.41675     43.8 1.184e+04 8.392e-10
 67.45604     46.3 1.177e+04 9.011e-10
 67.49533     48.9 1.171e+04 1.047e-09
 67.53462     51.5 1.165e+04 1.286e-09
 67.57391     54.2 1.157e+04 1.585e-09
 67.61113     56.9 1.157e+04 1.950e-09
 67.63077     56.3 1.137e+04 1.369e-09
 67.63516     59.1 1.143e+04 1.752e-09
 67.65480     59.6 1.129e+04 1.442e-09
 67.69178     62.4 1.147e+04 1.902e-09
 67.73107     64.3 1.165e+04 2.166e-09
 67.76044     64.9 1.196e+04 3.392e-09
 67.77998     65.4 1.216e+04 5.070e-09
 67.79963     65.9 1.247e+04 8.380e-09
 67.81927     66.2 1.290e+04 1.434e-08
 67.83892     66.6 1.339e+04 2.304e-08
 67.85331     67.0 1.381e+04 3.136e-08
 67.86313     67.4 1.350e+04 2.727e-08
 67.87821     67.7 1.380e+04 3.171e-08
 67.89785     67.8 1.378e+04 2.886e-08
 67.91749     67.7 1.355e+04 2.045e-08
 67.93216     67.1 1.312e+04 1.199e-08
 67.94198     68.3 1.371e+04 2.187e-08
 67.95678     67.2 1.320e+04 1.290e-08
 67.97643     66.0 1.252e+04 8.638e-09
 67.99607     65.4 1.198e+04 8.353e-09
 68.01572     65.4 1.199e+04 8.541e-09
 68.04528     65.6 1.204e+04 9.622e-09
 68.07475     65.4 1.224e+04 1.134e-08
 68.08586     65.2 1.249e+04 1.340e-08
 68.09568     65.8 1.251e+04 1.377e-08
 68.11394     65.3 1.283e+04 1.762e-08
 68.13358     64.6 1.324e+04 2.325e-08
 68.15323     63.9 1.358e+04 2.884e-08
 68.17287     62.8 1.373e+04 2.996e-08
 68.19252     61.6 1.368e+04 2.865e-08
 68.21216     60.5 1.336e+04 2.247e-08
 68.22936     59.7 1.286e+04 1.521e-08
 68.23918     59.3 1.258e+04 1.223e-08
 68.25145     58.3 1.224e+04 8.484e-09
 68.27110     57.2 1.200e+04 6.084e-09
 68.29074     56.6 1.188e+04 5.277e-09
 68.32030     56.1 1.174e+04 4.584e-09
 68.35969     56.1 1.177e+04 4.609e-09
 68.39898     56.5 1.185e+04 4.915e-09
 68.43827     57.1 1.195e+04 5.427e-09
 68.47756     58.0 1.199e+04 5.792e-09
 68.51685     59.2 1.202e+04 5.652e-09
 68.54134     60.3 1.203e+04 5.441e-09
 68.56099     59.6 1.188e+04 6.132e-09
 68.59542     61.0 1.175e+04 5.941e-09
 68.63471     62.2 1.161e+04 5.935e-09
 68.67400     63.3 1.147e+04 5.864e-09
 68.71329     64.2 1.127e+04 5.559e-09
 68.75258     64.9 1.104e+04 4.951e-09
 68.79187     65.3 1.080e+04 4.358e-09
 68.82395     65.6 1.053e+04 3.965e-09
 68.84360     66.3 1.053e+04 3.994e-09
 68.87045     66.7 1.026e+04 3.727e-09
 68.90974     67.2 9.970e+03 3.410e-09
 68.94903     67.7 9.610e+03 3.230e-09
 68.98681     68.3 9.528e+03 3.274e-09
 69.00645     68.9 9.481e+03 3.323e-09
 69.02760     69.1 9.398e+03 3.611e-09
 69.06689     69.1 9.285e+03 4.297e-09
 69.10618     68.7 9.229e+03 4.411e-09
 69.14547     68.5 9.029e+03 4.038e-09
 69.18476     68.3 8.613e+03 2.906e-09
 69.22405     67.9 8.134e+03 2.031e-09
 69.26334     67.8 8.023e+03 1.963e-09
 69.30263     67.8 8.073e+03 2.172e-09
 69.34192     67.9 8.598e+03 3.044e-09
 69.37128     67.8 9.017e+03 4.211e-09
 69.39083     67.5 9.377e+03 5.672e-09
 69.41048     67.4 9.643e+03 7.003e-09
 69.42798     67.2 9.897e+03 7.917e-09
 69.43780     68.1 9.897e+03 8.652e-09
 69.44977     67.7 1.026e+04 9.660e-09
 69.46154     65.8 1.103e+04 1.238e-08
 69.47137     64.3 1.176e+04 1.495e-08
 69.48905     61.1 1.308e+04 2.669e-08
 69.50870     58.6 1.362e+04 3.714e-08
 69.52834     56.9 1.353e+04 3.516e-08
 69.54799     55.4 1.319e+04 2.472e-08
 69.56763     52.4 1.286e+04 1.360e-08
 69.58728     48.5 1.284e+04 1.286e-08
 69.60692     44.4 1.333e+04 1.719e-08
 69.62161     40.7 1.455e+04 2.756e-08
 69.63138     37.7 1.558e+04 4.886e-08
 69.64120     35.6 1.630e+04 9.215e-08
 69.65102     34.6 1.689e+04 1.536e-07
 69.66085     33.8 1.747e+04 2.129e-07
 69.67067     33.0 1.759e+04 2.331e-07
 69.68049     32.1 1.751e+04 2.073e-07
 69.68909     31.0 1.719e+04 1.625e-07
 69.69400     31.1 1.645e+04 1.089e-07
 69.70510     29.6 1.612e+04 7.938e-08
 69.72479     26.7 1.495e+04 3.545e-08
 69.73500     23.2 1.367e+04 2.415e-08
 69.74482     21.9 1.301e+04 1.860e-08
 69.76408     20.7 1.368e+04 2.783e-08
 69.78372     20.0 1.550e+04 6.191e-08
 69.80337     20.2 1.720e+04 1.430e-07
 69.81805     20.0 1.824e+04 2.440e-07
 69.82782     19.5 1.881e+04 3.777e-07
 69.83765     17.4 1.936e+04 6.160e-07
 69.84747     11.3 1.905e+04 1.683e-06
 69.85729      5.8 1.772e+04 4.300e-06
 69.86711      2.7 1.956e+04 2.130e-06
 69.87694      0.9 1.885e+04 1.374e-06
 69.88350     -2.1 2.165e+04 2.818e-07
 69.88841     -3.0 2.043e+04 1.944e-07
 69.90154     -9.3 1.964e+04 5.648e-08
 69.91683    -17.2 1.357e+04 1.920e-08
 69.92665    -17.4 1.362e+04 1.854e-08
 69.94088    -17.8 1.262e+04 1.491e-08
 69.96052    -17.2 1.241e+04 1.421e-08
 69.98017    -16.5 1.230e+04 1.381e-08
 69.99981    -15.9 1.226e+04 1.290e-08
 70.01946    -15.8 1.198e+04 1.147e-08
 70.03230    -15.3 1.191e+04 1.151e-08
 70.04212    -15.1 1.157e+04 9.092e-09
 70.05874    -14.9 1.152e+04 8.983e-09
 70.07839    -13.9 1.119e+04 8.050e-09
 70.09803    -13.8 1.112e+04 7.815e-09
 70.12760    -12.1 1.061e+04 5.449e-09
 70.16698    -10.1 1.020e+04 3.762e-09
 70.19635     -8.5 1.011e+04 2.753e-09
 70.21590     -8.4 1.007e+04 2.699e-09
 70.23555     -7.0 1.009e+04 2.575e-09
 70.25519     -6.9 1.008e+04 2.607e-09
 70.27483     -5.3 9.982e+03 3.208e-09
 70.29448     -4.9 1.007e+04 3.318e-09
 70.31412     -3.3 1.008e+04 3.911e-09
 70.32940     -2.6 1.012e+04 3.966e-09
 70.33922     -2.4 1.008e+04 4.093e-09
 70.35341     -1.3 1.019e+04 3.914e-09
 70.37212     -0.8 1.015e+04 3.870e-09
 70.38194     -0.2 1.007e+04 3.470e-09
 70.39270      0.7 1.017e+04 3.483e-09
 70.41235      0.9 1.038e+04 3.665e-09
 70.43199      1.2 1.040e+04 4.951e-09
 70.45163      1.5 1.079e+04 5.791e-09
 70.47128      2.1 1.088e+04 8.056e-09
 70.49092      3.0 1.112e+04 9.367e-09
 70.51057      3.3 1.131e+04 9.666e-09
 70.53021      3.4 1.125e+04 9.543e-09
 70.54986      3.7 1.111e+04 8.636e-09
 70.56950      4.1 1.079e+04 7.787e-09
 70.58915      4.6 1.069e+04 6.170e-09
 70.60467      4.5 1.053e+04 5.345e-09
 70.61449      5.2 1.055e+04 5.251e-09
 70.62660      5.0 1.054e+04 4.618e-09
 70.63642      5.1 1.034e+04 3.936e-09
 70.64808      4.9 1.032e+04 4.012e-09
 70.66772      4.9 1.042e+04 4.245e-09
 70.68737      4.9 1.055e+04 4.904e-09
 70.70701      5.1 1.060e+04 5.561e-09
 70.72666      5.6 1.061e+04 6.191e-09
 70.74630      5.9 1.080e+04 5.983e-09
 70.76595      5.9 1.103e+04 5.593e-09
 70.78559      5.5 1.110e+04 5.752e-09
 70.80524      5.4 1.107e+04 5.926e-09
 70.82488      3.2 1.232e+04 6.635e-09
 70.83723     -3.2 1.478e+04 1.642e-08
 70.84705      1.8 1.236e+04 6.031e-09
 70.86417     -2.1 1.358e+04 1.012e-08
 70.88381     -5.8 1.397e+04 2.459e-08
 70.90346     -5.8 1.389e+04 5.089e-08
 70.92310     -5.6 1.451e+04 3.844e-08
 70.93362     -7.5 1.491e+04 1.763e-08
 70.94344     -7.8 1.486e+04 1.511e-08
 70.96239    -11.5 1.238e+04 7.963e-09
 70.99196    -10.0 1.203e+04 7.526e-09
 71.03134    -10.1 1.110e+04 4.544e-09
 71.07063     -9.1 1.064e+04 3.242e-09
 71.10992     -7.8 1.025e+04 2.502e-09
 71.14921     -6.2 9.998e+03 1.891e-09
 71.18850     -4.7 9.803e+03 1.501e-09
 71.22119     -3.6 9.644e+03 1.377e-09
 71.24083     -3.7 9.627e+03 1.391e-09
 71.26708     -2.4 9.569e+03 1.449e-09
 71.29271     -1.4 9.465e+03 1.869e-09
 71.31235      0.5 9.484e+03 1.993e-09
 71.34565      0.9 9.587e+03 2.239e-09
 71.38494     -0.0 9.968e+03 2.934e-09
 71.42423     -1.4 1.047e+04 4.816e-09
 71.46352     -1.8 1.077e+04 7.322e-09
 71.50281     -2.7 1.064e+04 5.457e-09
 71.54210     -3.6 1.025e+04 2.750e-09
 71.58139     -3.9 9.782e+03 1.901e-09
 71.62068     -3.1 9.555e+03 1.344e-09
 71.65997     -2.3 9.492e+03 1.082e-09
 71.69926     -1.3 9.477e+03 9.738e-10
 71.73817      0.2 9.520e+03 9.113e-10
 71.75782      0.8 9.443e+03 1.154e-09
 71.77783      2.3 9.533e+03 8.325e-10
 71.81559      3.3 9.719e+03 6.836e-10
 71.83523      3.8 9.658e+03 6.822e-10
 71.85641      4.9 9.580e+03 8.148e-10
 71.89570      6.5 9.592e+03 1.032e-09
 71.93499      7.7 9.991e+03 1.166e-09
 71.97428      6.3 1.123e+04 1.872e-09
 72.00365      2.3 1.290e+04 6.082e-09
 72.02319      0.8 1.271e+04 2.372e-08
 72.04284      0.9 1.388e+04 4.388e-08
 72.06248      0.1 1.495e+04 5.127e-08
 72.08213     -4.4 1.605e+04 3.900e-08
 72.10177    -10.9 1.522e+04 3.047e-08
 72.12142    -14.5 1.412e+04 2.752e-08
 72.13224    -16.4 1.345e+04 1.817e-08
 72.14206    -15.3 1.333e+04 1.917e-08
 72.16071    -17.0 1.291e+04 1.115e-08
 72.18035    -19.4 1.241e+04 6.430e-09
 72.20000    -21.2 1.195e+04 5.434e-09
 72.21291    -21.8 1.181e+04 5.306e-09
 72.22273    -22.7 1.179e+04 5.589e-09
 72.23928    -23.3 1.173e+04 5.382e-09
 72.25893    -23.8 1.167e+04 5.218e-09
 72.27857    -24.1 1.156e+04 5.119e-09
 72.29822    -24.3 1.140e+04 5.051e-09
 72.31786    -24.1 1.124e+04 4.864e-09
 72.33751    -23.6 1.114e+04 4.345e-09
 72.35715    -23.1 1.102e+04 3.696e-09
 72.37680    -22.6 1.088e+04 3.094e-09
 72.39644    -21.9 1.073e+04 2.613e-09
 72.41608    -21.2 1.065e+04 2.351e-09
 72.42953    -20.3 1.065e+04 2.283e-09
 72.44928    -19.6 1.067e+04 2.324e-09
 72.48504    -17.5 1.055e+04 2.049e-09
 72.52432    -15.2 1.052e+04 1.803e-09
 72.56361    -12.9 1.057e+04 1.657e-09
 72.60290    -10.6 1.057e+04 1.585e-09
 72.64219     -8.1 1.055e+04 1.577e-09
 72.66839     -5.5 1.058e+04 1.644e-09
 72.68803     -7.2 1.077e+04 2.545e-09
 72.72077     -4.4 1.087e+04 2.872e-09
 72.75014     -2.2 1.096e+04 2.955e-09
 72.76969     -1.3 1.109e+04 3.506e-09
 72.78933      1.2 1.041e+04 5.126e-09
 72.80897      3.2 1.130e+04 4.516e-09
 72.82862      3.3 1.190e+04 4.687e-09
 72.84826      5.1 1.104e+04 8.079e-09
 72.86791      7.1 1.174e+04 8.180e-09
 72.88755      7.9 1.234e+04 9.052e-09
 72.90075      8.6 1.240e+04 1.190e-08
 72.91057      8.1 1.239e+04 1.342e-08
 72.92684      9.3 1.262e+04 1.562e-08
 72.94649     10.4 1.311e+04 1.934e-08
 72.96613     11.4 1.355e+04 2.431e-08
 72.98578     12.7 1.380e+04 2.896e-08
 73.00542     13.8 1.425e+04 3.339e-08
 73.02383     14.0 1.486e+04 3.930e-08
 73.03366     14.6 1.500e+04 4.062e-08
 73.04471     14.6 1.651e+04 6.600e-08
 73.05939     14.2 1.760e+04 1.082e-07
 73.06917     13.8 1.835e+04 1.594e-07
 73.07899     11.1 2.006e+04 3.485e-07
 73.08881      8.1 1.898e+04 1.256e-06
 73.09863      8.1 1.733e+04 3.916e-06
 73.10846      7.4 1.760e+04 2.859e-06
 73.11828      7.6 1.847e+04 9.445e-07
 73.12810      5.9 1.908e+04 3.035e-07
 73.13326      2.7 1.801e+04 1.099e-07
 73.14313      3.6 1.840e+04 9.152e-08
 73.16258      0.3 1.567e+04 3.364e-08
 73.18222      1.1 1.374e+04 2.837e-08
 73.20186      3.6 1.327e+04 2.062e-08
 73.22151      4.6 1.335e+04 1.528e-08
 73.24115      5.2 1.293e+04 1.622e-08
 73.26080      6.4 1.285e+04 1.380e-08
 73.28044      7.3 1.260e+04 1.355e-08
 73.30009      8.5 1.237e+04 1.189e-08
 73.31973      9.4 1.227e+04 9.739e-09
 73.33086      9.4 1.232e+04 7.835e-09
 73.34068      9.2 1.234e+04 9.237e-09
 73.35604      9.0 1.219e+04 9.795e-09
 73.36586      7.2 1.253e+04 1.871e-08
 73.37867      6.0 1.359e+04 2.383e-08
 73.39831      1.2 1.778e+04 3.697e-08
 73.41795     -5.4 2.075e+04 8.559e-08
 73.43264     -8.8 2.109e+04 1.311e-07
 73.44241    -12.0 2.120e+04 1.917e-07
 73.45223    -13.7 2.142e+04 2.566e-07
 73.46206    -17.2 2.115e+04 2.946e-07
 73.47188    -20.1 2.107e+04 2.879e-07
 73.47713    -23.2 2.032e+04 2.799e-07
 73.47969    -26.9 1.904e+04 2.078e-07
 73.48427    -26.3 1.918e+04 2.303e-07
 73.49152    -29.0 1.776e+04 1.380e-07
 73.50135    -29.1 1.729e+04 1.010e-07
 73.51117    -33.0 1.501e+04 4.104e-08
 73.52099    -32.8 1.479e+04 3.705e-08
 73.53577    -32.4 1.451e+04 2.496e-08
 73.55547    -34.0 1.242e+04 9.930e-09
 73.57511    -35.2 1.119e+04 5.214e-09
 73.58859    -36.4 9.974e+03 3.360e-09
 73.59841    -37.7 9.465e+03 2.649e-09
 73.61440    -36.7 9.503e+03 2.696e-09
 73.62805    -36.1 9.550e+03 2.760e-09
 73.63788    -36.1 9.547e+03 3.007e-09
 73.65369    -35.4 9.612e+03 3.364e-09
 73.67333    -34.9 9.614e+03 3.772e-09
 73.69298    -33.9 9.724e+03 4.260e-09
 73.71262    -33.2 9.779e+03 4.360e-09
 73.73227    -32.8 9.820e+03 4.283e-09
 73.75191    -32.6 9.831e+03 4.053e-09
 73.77156    -32.6 9.816e+03 3.858e-09
 73.79120    -32.8 9.812e+03 3.777e-09
 73.81084    -33.0 9.846e+03 3.777e-09
 73.82114    -33.2 9.913e+03 3.829e-09
 73.83097    -34.0 9.912e+03 3.824e-09
 73.85013    -34.3 9.944e+03 3.752e-09
 73.86978    -34.6 9.971e+03 3.677e-09
 73.88942    -35.1 1.005e+04 3.693e-09
 73.90907    -36.0 1.024e+04 4.097e-09
 73.92525    -37.4 1.057e+04 5.194e-09
 73.93508    -38.1 1.071e+04 5.882e-09
 73.94836    -39.8 1.114e+04 8.526e-09
 73.96800    -41.3 1.160e+04 1.286e-08
 73.98764    -42.4 1.206e+04 1.721e-08
 74.00729    -43.5 1.237e+04 1.876e-08
 74.02693    -45.2 1.245e+04 1.834e-08
 74.04388    -47.1 1.251e+04 1.682e-08
 74.05370    -49.0 1.251e+04 1.651e-08
 74.06622    -51.1 1.263e+04 1.644e-08
 74.08587    -53.2 1.300e+04 1.935e-08
 74.10551    -54.6 1.317e+04 2.327e-08
 74.12516    -55.5 1.319e+04 2.382e-08
 74.14480    -56.3 1.297e+04 1.995e-08
 74.16445    -57.0 1.254e+04 1.367e-08
 74.18409    -57.9 1.214e+04 8.948e-09
 74.20373    -58.9 1.193e+04 6.668e-09
 74.22245    -59.6 1.191e+04 6.090e-09
 74.23227    -59.6 1.205e+04 7.369e-09
 74.24302    -60.4 1.219e+04 7.468e-09
 74.26267    -61.4 1.244e+04 9.000e-09
 74.27643    -62.0 1.256e+04 1.244e-08
 74.28625    -62.6 1.212e+04 8.932e-09
 74.30196    -62.8 1.238e+04 1.292e-08
 74.32160    -62.7 1.272e+04 1.680e-08
 74.34125    -62.6 1.296e+04 1.889e-08
 74.36089    -62.7 1.300e+04 1.934e-08
 74.38053    -62.7 1.296e+04 1.810e-08
 74.40018    -62.6 1.282e+04 1.526e-08
 74.41982    -62.6 1.265e+04 1.267e-08
 74.43947    -62.4 1.243e+04 1.064e-08
 74.45911    -61.9 1.219e+04 9.260e-09
 74.47876    -61.1 1.200e+04 8.349e-09
 74.49840    -60.1 1.187e+04 7.689e-09
 74.50899    -59.1 1.173e+04 7.036e-09
 74.51881    -58.9 1.166e+04 6.345e-09
 74.52947    -57.7 1.151e+04 5.651e-09
 74.53930    -57.8 1.142e+04 5.335e-09
 74.55734    -56.7 1.137e+04 4.595e-09
 74.57698    -56.0 1.124e+04 4.150e-09
 74.60654    -54.0 1.115e+04 3.386e-09
 74.64593    -51.1 1.092e+04 2.617e-09
 74.68522    -48.4 1.078e+04 2.181e-09
 74.72451    -45.7 1.069e+04 1.961e-09
 74.76380    -43.0 1.068e+04 1.903e-09
 74.80309    -40.3 1.071e+04 1.901e-09
 74.82687    -38.1 1.081e+04 2.039e-09
 74.84651    -37.8 1.071e+04 1.686e-09
 74.88166    -35.8 1.083e+04 2.199e-09
 74.92095    -33.9 1.102e+04 3.167e-09
 74.95465    -32.1 1.128e+04 4.515e-09
 74.97429    -32.1 1.136e+04 4.572e-09
 74.99953    -30.6 1.159e+04 5.641e-09
 75.03882    -29.4 1.170e+04 5.949e-09
 75.07811    -28.0 1.170e+04 5.353e-09
 75.11740    -26.1 1.158e+04 3.836e-09
 75.15669    -24.2 1.161e+04 2.744e-09
 75.19598    -22.4 1.160e+04 2.300e-09
 75.23527    -20.0 1.179e+04 2.339e-09
 75.26463    -18.3 1.198e+04 2.693e-09
 75.28418    -18.3 1.190e+04 2.936e-09
 75.30383    -16.4 1.180e+04 4.212e-09
 75.32347    -15.7 1.221e+04 4.475e-09
 75.34312    -15.4 1.248e+04 5.469e-09
 75.36276    -16.7 1.339e+04 7.872e-09
 75.38240    -17.9 1.379e+04 1.925e-08
 75.40205    -18.1 1.452e+04 3.749e-08
 75.41956    -18.2 1.499e+04 4.681e-08
 75.42876    -17.4 1.482e+04 4.536e-08
 75.43089    -17.9 1.414e+04 2.778e-08
 75.44134    -18.4 1.443e+04 3.097e-08
 75.46098    -19.3 1.423e+04 2.402e-08
 75.48063    -20.2 1.368e+04 1.431e-08
 75.50027    -21.2 1.326e+04 7.518e-09
 75.51992    -22.2 1.278e+04 4.486e-09
 75.53956    -22.8 1.223e+04 3.459e-09
 75.55920    -22.2 1.199e+04 3.094e-09
 75.57885    -21.7 1.169e+04 2.353e-09
 75.59849    -21.7 1.164e+04 2.304e-09
 75.62806    -20.1 1.145e+04 2.146e-09
 75.66744    -18.3 1.134e+04 1.713e-09
 75.70673    -16.7 1.131e+04 1.454e-09
 75.74602    -15.3 1.128e+04 1.350e-09
 75.78531    -14.1 1.123e+04 1.390e-09
 75.82460    -12.9 1.108e+04 1.788e-09
 75.86389    -11.4 1.099e+04 2.243e-09
 75.88486    -10.2 1.099e+04 2.472e-09
 75.90451     -9.9 1.107e+04 2.880e-09
 75.94247     -8.4 1.099e+04 2.791e-09
 75.98176     -6.9 1.085e+04 2.624e-09
 76.01566     -5.3 1.082e+04 2.418e-09
 76.03531     -5.6 1.095e+04 2.816e-09
 76.06033     -4.0 1.087e+04 3.014e-09
 76.08970     -2.4 1.079e+04 2.863e-09
 76.10740     -2.3 1.082e+04 2.927e-09
 76.11722     -2.0 1.082e+04 2.914e-09
 76.12890     -0.7 1.082e+04 2.889e-09
 76.14854     -0.5 1.089e+04 2.981e-09
 76.16818      0.5 1.087e+04 3.204e-09
 76.18783      0.8 1.101e+04 3.460e-09
 76.20747      1.2 1.098e+04 4.158e-09
 76.22712      1.9 1.111e+04 4.793e-09
 76.24676      2.3 1.140e+04 5.879e-09
 76.26641      2.8 1.161e+04 6.948e-09
 76.28605      3.2 1.188e+04 8.030e-09
 76.30570      3.6 1.207e+04 8.723e-09
 76.32249      3.7 1.223e+04 9.402e-09
 76.33231      2.6 1.230e+04 9.050e-09
 76.33995      1.7 1.280e+04 1.107e-08
 76.34978      3.1 1.264e+04 9.362e-09
 76.36463      2.4 1.284e+04 1.284e-08
 76.38427      2.4 1.294e+04 1.782e-08
 76.40392      2.6 1.325e+04 2.040e-08
 76.42356      2.3 1.359e+04 1.968e-08
 76.44321      1.8 1.382e+04 1.699e-08
 76.46285      0.9 1.384e+04 1.535e-08
 76.49242      1.3 1.383e+04 1.336e-08
 76.52188     -0.2 1.380e+04 1.075e-08
 76.54143     -0.7 1.363e+04 9.692e-09
 76.56107     -0.9 1.361e+04 7.930e-09
 76.57251     -1.0 1.345e+04 7.027e-09
 76.58233      0.1 1.361e+04 9.332e-09
 76.60036     -0.0 1.370e+04 7.152e-09
 76.61969     -0.4 1.355e+04 5.804e-09
 76.62951     -0.4 1.359e+04 5.656e-09
 76.63965     -0.6 1.369e+04 4.596e-09
 76.65930     -0.8 1.342e+04 4.534e-09
 76.67894     -0.7 1.343e+04 4.267e-09
 76.69859     -0.8 1.344e+04 4.449e-09
 76.71823     -0.6 1.333e+04 5.091e-09
 76.73787     -0.8 1.355e+04 5.681e-09
 76.75752     -1.3 1.372e+04 8.495e-09
 76.77716     -1.9 1.405e+04 1.028e-08
 76.79524     -2.6 1.383e+04 1.784e-08
 76.80506     -1.5 1.378e+04 1.282e-08
 76.81645     -0.9 1.344e+04 2.051e-08
 76.83610     -0.5 1.370e+04 1.609e-08
 76.85574     -0.5 1.358e+04 1.441e-08
 76.88531     -0.1 1.339e+04 9.208e-09
 76.92469      0.1 1.296e+04 5.662e-09
 76.96398      1.5 1.269e+04 3.645e-09
 77.00327      3.0 1.258e+04 2.661e-09
 77.04256      5.0 1.249e+04 2.671e-09
 77.08185      6.3 1.260e+04 3.664e-09
 77.12114      7.5 1.306e+04 7.104e-09
 77.16043      8.4 1.357e+04 1.284e-08
 77.19972      8.3 1.363e+04 1.462e-08
 77.22411      8.7 1.338e+04 1.213e-08
 77.24375      7.7 1.319e+04 9.584e-09
 77.26055      8.3 1.288e+04 6.870e-09
 77.28019      9.5 1.303e+04 8.785e-09
 77.31758     10.2 1.273e+04 6.991e-09
 77.35687     11.3 1.245e+04 6.257e-09
 77.39616     12.7 1.219e+04 5.627e-09
 77.43545     14.1 1.196e+04 4.661e-09
 77.47474     15.4 1.175e+04 3.775e-09
 77.51403     16.4 1.159e+04 3.057e-09
 77.55332     17.6 1.138e+04 2.344e-09
 77.59261     19.0 1.126e+04 1.668e-09
 77.63189     20.3 1.124e+04 1.225e-09
 77.67118     21.8 1.103e+04 1.144e-09
 77.70601     23.6 1.100e+04 1.193e-09
 77.72565     24.0 1.087e+04 1.389e-09
 77.74976     25.5 1.082e+04 1.547e-09
 77.78905     26.9 1.073e+04 2.147e-09
 77.81850     28.3 1.080e+04 3.061e-09
 77.83815     27.9 1.081e+04 3.118e-09
 77.86763     29.1 1.097e+04 4.041e-09
 77.90692     30.1 1.110e+04 4.725e-09
 77.94621     30.8 1.129e+04 5.482e-09
 77.97558     30.8 1.141e+04 5.820e-09
 77.99512     30.5 1.161e+04 6.677e-09
 78.01477     30.1 1.182e+04 8.281e-09
 78.03441     29.5 1.213e+04 1.097e-08
 78.05406     28.7 1.263e+04 1.585e-08
 78.07370     27.8 1.327e+04 2.446e-08
 78.09335     27.2 1.374e+04 3.347e-08
 78.11299     26.8 1.379e+04 3.443e-08
 78.12533     26.7 1.359e+04 2.838e-08
 78.13515     26.8 1.342e+04 2.495e-08
 78.15228     26.1 1.303e+04 1.649e-08
 78.17092     25.0 1.271e+04 1.060e-08
 78.18075     26.0 1.271e+04 1.235e-08
 78.19157     25.2 1.240e+04 9.000e-09
 78.21121     24.9 1.209e+04 7.024e-09
 78.23086     24.7 1.190e+04 5.867e-09
 78.25050     24.5 1.175e+04 5.341e-09
 78.27015     24.4 1.170e+04 5.409e-09
 78.28979     24.2 1.173e+04 5.751e-09
 78.30943     23.7 1.183e+04 6.469e-09
 78.32908     22.8 1.197e+04 7.803e-09
 78.34872     21.8 1.205e+04 9.676e-09
 78.36837     20.9 1.199e+04 9.863e-09
 78.38801     20.1 1.182e+04 8.381e-09
 78.40348     18.8 1.160e+04 5.905e-09
 78.41330     19.4 1.187e+04 7.946e-09
 78.42253     17.4 1.177e+04 4.767e-09
 78.43235     18.8 1.183e+04 5.952e-09
 78.44695     15.8 1.173e+04 3.930e-09
 78.46659     13.2 1.126e+04 3.208e-09
 78.48624     11.5 1.087e+04 3.041e-09
 78.50588     10.3 1.078e+04 2.903e-09
 78.52552      9.0 1.079e+04 2.951e-09
 78.54517      7.5 1.100e+04 3.175e-09
 78.56481      5.1 1.140e+04 4.728e-09
 78.58446      4.9 1.141e+04 4.876e-09
 78.61402      3.1 1.160e+04 6.846e-09
 78.63623      1.3 1.211e+04 9.673e-09
 78.64595      1.6 1.229e+04 1.188e-08
 78.66304      0.6 1.269e+04 1.466e-08
 78.68268     -0.0 1.295e+04 1.797e-08
 78.70232     -0.2 1.315e+04 2.013e-08
 78.71973     -0.5 1.316e+04 1.965e-08
 78.72955     -1.6 1.335e+04 2.104e-08
 78.74161     -1.7 1.319e+04 1.929e-08
 78.76126     -1.6 1.291e+04 1.536e-08
 78.78090     -1.3 1.257e+04 1.330e-08
 78.80055     -1.3 1.277e+04 1.052e-08
 78.82019     -1.5 1.278e+04 1.113e-08
 78.83984     -2.1 1.317e+04 1.363e-08
 78.85876     -3.1 1.369e+04 1.938e-08
 78.86859     -4.1 1.394e+04 2.443e-08
 78.87913     -4.1 1.431e+04 3.859e-08
 78.89877     -3.4 1.458e+04 4.800e-08
 78.91841     -3.2 1.496e+04 4.253e-08
 78.93806     -5.0 1.577e+04 3.204e-08
 78.95770     -8.5 1.583e+04 3.271e-08
 78.97735    -11.0 1.516e+04 4.203e-08
 78.99699    -11.4 1.489e+04 4.890e-08
 79.01664    -11.2 1.440e+04 3.673e-08
 79.02675    -11.8 1.349e+04 2.063e-08
 79.03657    -13.0 1.293e+04 1.531e-08
 79.05593    -13.3 1.253e+04 1.077e-08
 79.07557    -13.6 1.226e+04 8.569e-09
 79.09132    -13.5 1.212e+04 8.138e-09
 79.10124    -13.6 1.218e+04 8.788e-09
 79.12488    -12.7 1.184e+04 7.930e-09
 79.15425    -11.7 1.185e+04 8.007e-09
 79.17379    -11.0 1.192e+04 7.942e-09
 79.19344    -10.1 1.165e+04 8.022e-09
 79.21308     -9.0 1.155e+04 7.557e-09
 79.23273     -8.4 1.152e+04 6.902e-09
 79.25237     -7.8 1.130e+04 6.557e-09
 79.28194     -6.7 1.102e+04 5.028e-09
 79.32132     -4.5 1.066e+04 3.433e-09
 79.36061     -2.4 1.052e+04 2.346e-09
 79.39990     -0.4 1.042e+04 1.933e-09
 79.43919      1.8 1.042e+04 1.806e-09
 79.47848      4.1 1.049e+04 1.845e-09
 79.51777      6.2 1.069e+04 1.979e-09
 79.54680      8.0 1.091e+04 2.296e-09
 79.56645      7.7 1.081e+04 1.990e-09
 79.59634      9.4 1.113e+04 2.945e-09
 79.62134      9.9 1.173e+04 4.861e-09
 79.64099     11.4 1.140e+04 3.171e-09
 79.67492     11.4 1.202e+04 4.864e-09
 79.70429     10.6 1.235e+04 7.457e-09
 79.72384     10.4 1.258e+04 1.055e-08
 79.74348     10.3 1.319e+04 1.463e-08
 79.76313      9.5 1.449e+04 2.198e-08
 79.77916      8.2 1.557e+04 3.069e-08
 79.78898      6.4 1.575e+04 3.429e-08
 79.80242      4.9 1.594e+04 3.841e-08
 79.82206      3.6 1.556e+04 3.762e-08
 79.84171      2.6 1.519e+04 3.268e-08
 79.86135      1.7 1.469e+04 2.836e-08
 79.88099      1.2 1.384e+04 2.308e-08
 79.90064      0.9 1.335e+04 1.658e-08
 79.91835      0.3 1.294e+04 1.279e-08
 79.92817      2.9 1.361e+04 2.026e-08
 79.93993      2.4 1.324e+04 1.649e-08
 79.95957      1.7 1.309e+04 1.323e-08
 79.97922      0.8 1.281e+04 1.210e-08
 79.99886     -0.1 1.280e+04 1.242e-08
 80.01171     -1.9 1.327e+04 1.542e-08
 80.02154     -2.9 1.298e+04 1.318e-08
 80.03815     -4.7 1.353e+04 2.027e-08
 80.05780     -5.7 1.379e+04 3.122e-08
 80.07744     -6.6 1.402e+04 3.713e-08
 80.09708     -7.3 1.349e+04 3.531e-08
 80.11673     -7.5 1.286e+04 2.385e-08
 80.13637     -8.4 1.218e+04 1.328e-08
 80.15602     -9.5 1.134e+04 8.102e-09
 80.17566    -10.1 1.078e+04 5.959e-09
 80.19531    -10.2 1.052e+04 5.009e-09
 80.21495    -10.0 1.041e+04 4.746e-09
 80.22537    -10.0 1.042e+04 5.152e-09
 80.23504     -9.5 1.047e+04 5.667e-09
 80.24427    -10.1 1.048e+04 5.658e-09
 80.25424    -11.9 1.135e+04 7.244e-09
 80.27388    -15.3 1.241e+04 1.451e-08
 80.29353    -16.9 1.297e+04 3.069e-08
 80.31317    -16.8 1.380e+04 4.722e-08
 80.33282    -18.2 1.422e+04 4.857e-08
 80.35246    -22.2 1.412e+04 3.490e-08
 80.37211    -27.1 1.314e+04 2.890e-08
 80.39175    -29.8 1.247e+04 2.675e-08
 80.41140    -30.3 1.243e+04 3.059e-08
 80.43104    -30.2 1.225e+04 2.959e-08
 80.45069    -30.5 1.177e+04 2.319e-08
 80.46700    -30.9 1.125e+04 1.840e-08
 80.47682    -31.0 1.115e+04 1.758e-08
 80.48997    -31.3 1.068e+04 1.369e-08
 80.50962    -31.8 1.021e+04 1.122e-08
 80.53918    -31.5 9.839e+03 9.494e-09
 80.57857    -29.8 9.767e+03 9.324e-09
 80.61786    -28.6 9.988e+03 9.990e-09
 80.65715    -27.5 1.035e+04 1.173e-08
 80.69644    -26.2 1.059e+04 1.318e-08
 80.73573    -25.2 1.053e+04 1.262e-08
 80.77501    -24.1 1.020e+04 1.024e-08
 80.80438    -23.6 9.136e+03 6.222e-09
 80.81977    -23.4 9.060e+03 6.030e-09
 80.82969    -22.8 8.790e+03 4.745e-09
 80.85359    -22.5 8.560e+03 4.335e-09
 80.89288    -22.6 8.856e+03 4.692e-09
 80.92248    -23.3 9.678e+03 7.875e-09
 80.94203    -24.2 1.004e+04 1.102e-08
 80.96144    -24.6 1.116e+04 1.603e-08
 80.98109    -25.4 1.182e+04 2.042e-08
 81.00073    -25.5 1.219e+04 2.295e-08
 81.02038    -25.6 1.216e+04 2.134e-08
 81.04002    -25.8 1.190e+04 1.680e-08
 81.05966    -26.4 1.147e+04 1.295e-08
 81.07931    -26.6 1.121e+04 1.116e-08
 81.09895    -26.3 1.111e+04 1.051e-08
 81.11697    -25.7 1.111e+04 1.036e-08
 81.12679    -24.5 1.095e+04 9.770e-09
 81.13824    -23.9 1.109e+04 1.042e-08
 81.15484    -23.2 1.116e+04 1.131e-08
 81.16466    -23.2 1.117e+04 1.128e-08
 81.17753    -22.2 1.131e+04 1.229e-08
 81.19718    -21.2 1.146e+04 1.277e-08
 81.21682    -20.5 1.151e+04 1.245e-08
 81.23647    -19.9 1.164e+04 1.232e-08
 81.25611    -19.5 1.182e+04 1.263e-08
 81.27575    -19.2 1.199e+04 1.320e-08
 81.29540    -19.1 1.235e+04 1.520e-08
 81.31504    -18.9 1.283e+04 1.900e-08
 81.33469    -19.4 1.345e+04 2.439e-08
 81.35433    -20.5 1.436e+04 3.484e-08
 81.37398    -22.7 1.543e+04 5.402e-08
 81.38740    -24.7 1.635e+04 9.234e-08
 81.39722    -24.6 1.645e+04 9.316e-08
 81.41327    -25.6 1.709e+04 1.502e-07
 81.42399    -26.1 1.730e+04 1.785e-07
 81.43381    -25.1 1.757e+04 1.833e-07
 81.45255    -26.1 1.689e+04 1.435e-07
 81.47220    -26.3 1.526e+04 6.296e-08
 81.49184    -27.5 1.343e+04 2.393e-08
 81.51149    -29.0 1.209e+04 1.194e-08
 81.53113    -29.3 1.113e+04 7.943e-09
 81.55078    -28.5 1.057e+04 6.405e-09
 81.57042    -27.6 1.031e+04 5.725e-09
 81.59007    -26.5 1.015e+04 5.115e-09
 81.60971    -25.7 9.952e+03 4.443e-09
 81.61995    -25.0 9.836e+03 3.985e-09
 81.62977    -25.0 9.955e+03 4.349e-09
 81.64900    -24.3 9.772e+03 3.858e-09
 81.66864    -23.4 9.629e+03 3.339e-09
 81.68829    -23.0 9.491e+03 3.108e-09
 81.71785    -21.2 9.330e+03 2.879e-09
 81.75724    -19.2 9.029e+03 2.498e-09
 81.79653    -17.5 8.818e+03 2.265e-09
 81.83306    -16.0 8.761e+03 2.220e-09
 81.85270    -16.5 8.953e+03 2.545e-09
 81.87511    -14.8 8.954e+03 2.663e-09
 81.91440    -13.0 8.762e+03 2.575e-09
 81.95368    -11.1 8.666e+03 2.494e-09
 81.99297     -9.1 8.606e+03 2.276e-09
 82.01858     -7.6 8.321e+03 1.627e-09
 82.03822     -8.1 7.776e+03 1.199e-09
 82.07155     -6.6 7.768e+03 1.171e-09
 82.11084     -4.6 7.766e+03 1.205e-09
 82.15013     -2.5 7.793e+03 1.172e-09
 82.18942     -0.7 7.777e+03 1.086e-09
 82.22871      1.0 8.048e+03 1.108e-09
 82.25808      1.9 8.646e+03 1.484e-09
 82.27762      1.2 9.047e+03 1.796e-09
 82.29727     -0.4 9.633e+03 3.071e-09
 82.30779     -1.1 1.010e+04 6.235e-09
 82.31629     -1.2 1.030e+04 7.850e-09
 82.32541     -1.7 1.045e+04 9.798e-09
 82.33656     -1.0 1.098e+04 1.386e-08
 82.35620     -0.6 1.141e+04 1.574e-08
 82.37585     -1.0 1.166e+04 1.580e-08
 82.39549     -2.0 1.191e+04 1.589e-08
 82.41514     -3.5 1.222e+04 1.784e-08
 82.43478     -5.0 1.282e+04 2.246e-08
 82.45442     -6.6 1.338e+04 2.843e-08
 82.47407     -7.8 1.372e+04 3.461e-08
 82.49371     -8.7 1.386e+04 3.218e-08
 82.51336     -9.2 1.346e+04 2.630e-08
 82.53052     -9.5 1.326e+04 1.674e-08
 82.54035    -10.5 1.335e+04 1.102e-08
 82.55265    -12.1 1.269e+04 5.842e-09
 82.57229    -13.1 1.171e+04 3.896e-09
 82.59194    -13.3 1.158e+04 3.095e-09
 82.61158    -12.6 1.129e+04 3.493e-09
 82.62261    -11.9 1.144e+04 4.321e-09
 82.63243    -12.6 1.103e+04 4.009e-09
 82.65087    -11.0 1.100e+04 5.902e-09
 82.67051    -10.3 1.185e+04 7.587e-09
 82.69016    -10.1 1.278e+04 1.489e-08
 82.70980    -11.0 1.430e+04 2.800e-08
 82.72945    -11.7 1.533e+04 5.778e-08
 82.74909    -10.1 1.611e+04 1.026e-07
 82.76308    -10.4 1.643e+04 1.029e-07
 82.77290    -10.5 1.560e+04 6.858e-08
 82.78838    -11.1 1.530e+04 3.793e-08
 82.80803    -13.6 1.438e+04 1.828e-08
 82.82767    -16.0 1.318e+04 1.049e-08
 82.84731    -17.4 1.239e+04 8.082e-09
 82.86696    -18.2 1.218e+04 7.188e-09
 82.88660    -18.7 1.208e+04 6.377e-09
 82.90625    -19.2 1.207e+04 5.763e-09
 82.91980    -19.7 1.203e+04 5.100e-09
 82.92963    -19.6 1.203e+04 5.129e-09
 82.94554    -19.9 1.199e+04 4.507e-09
 82.96518    -20.2 1.195e+04 3.802e-09
 82.98483    -20.6 1.185e+04 3.242e-09
 82.99563    -20.8 1.174e+04 2.858e-09
 83.00546    -21.0 1.173e+04 2.823e-09
 83.02411    -21.2 1.169e+04 2.540e-09
 83.05368    -21.1 1.165e+04 2.245e-09
 83.09307    -20.7 1.171e+04 2.131e-09
 83.13235    -20.2 1.165e+04 2.349e-09
 83.16172    -19.4 1.166e+04 2.764e-09
 83.18127    -19.1 1.166e+04 2.813e-09
 83.20092    -18.3 1.171e+04 2.919e-09
 83.21700    -17.9 1.175e+04 2.862e-09
 83.22463    -17.8 1.184e+04 3.116e-09
 83.22819    -17.7 1.184e+04 3.080e-09
 83.24020    -17.2 1.184e+04 3.196e-09
 83.25985    -16.9 1.198e+04 3.317e-09
 83.27949    -16.6 1.203e+04 3.767e-09
 83.29914    -16.1 1.198e+04 4.172e-09
 83.31878    -14.9 1.198e+04 4.659e-09
 83.33843    -14.1 1.220e+04 4.355e-09
 83.35807    -13.4 1.223e+04 4.112e-09
 83.37772    -13.1 1.238e+04 3.719e-09
 83.39736    -13.0 1.246e+04 3.529e-09
 83.41700    -12.9 1.250e+04 3.693e-09
 83.43665    -12.8 1.259e+04 4.169e-09
 83.45092    -12.8 1.270e+04 4.934e-09
 83.46074    -12.9 1.264e+04 5.181e-09
 83.47594    -12.5 1.269e+04 6.841e-09
 83.49558    -12.4 1.294e+04 7.526e-09
 83.51420    -12.2 1.290e+04 8.185e-09
 83.52403    -12.3 1.294e+04 8.119e-09
 83.53487    -12.4 1.299e+04 8.075e-09
 83.55452    -12.6 1.298e+04 7.420e-09
 83.57416    -12.7 1.295e+04 6.507e-09
 83.59381    -12.8 1.291e+04 5.682e-09
 83.61345    -12.6 1.289e+04 4.868e-09
 83.63309    -12.4 1.296e+04 3.869e-09
 83.65274    -12.1 1.293e+04 3.054e-09
 83.67238    -12.0 1.319e+04 2.330e-09
 83.68347    -11.9 1.320e+04 2.081e-09
 83.69330    -12.2 1.321e+04 2.153e-09
 83.71167    -11.9 1.329e+04 2.044e-09
 83.73132    -11.8 1.325e+04 2.109e-09
 83.75096    -11.2 1.300e+04 2.722e-09
 83.77061    -11.1 1.337e+04 3.139e-09
 83.79025    -10.5 1.297e+04 4.947e-09
 83.80989    -10.4 1.360e+04 5.408e-09
 83.82122    -10.5 1.338e+04 7.640e-09
 83.83105    -10.4 1.345e+04 7.902e-09
 83.84918    -10.5 1.366e+04 8.338e-09
 83.86883    -10.3 1.339e+04 8.955e-09
 83.88847     -9.9 1.364e+04 7.071e-09
 83.90621     -9.8 1.359e+04 5.462e-09
 83.91603    -10.0 1.364e+04 4.701e-09
 83.92776    -10.3 1.368e+04 3.690e-09
 83.94741    -10.0 1.314e+04 3.685e-09
 83.96705    -10.2 1.362e+04 2.698e-09
 83.99662    -10.1 1.311e+04 2.806e-09
 84.03600     -9.3 1.317e+04 3.283e-09
 84.07529     -8.7 1.311e+04 3.321e-09
 84.11458     -7.9 1.294e+04 3.145e-09
 84.13896     -6.4 1.261e+04 3.277e-09
 84.15860     -6.1 1.277e+04 3.040e-09
 84.19316     -4.1 1.282e+04 2.231e-09
 84.23245     -2.8 1.277e+04 1.961e-09
 84.27174     -1.2 1.272e+04 2.070e-09
 84.31102      0.5 1.278e+04 2.259e-09
 84.35031      1.9 1.287e+04 2.458e-09
 84.38960      3.3 1.289e+04 2.676e-09
 84.41582      4.6 1.292e+04 2.868e-09
 84.43546      4.4 1.276e+04 2.692e-09
 84.46818      5.7 1.269e+04 2.765e-09
 84.50747      6.8 1.254e+04 3.010e-09
 84.54676      8.1 1.243e+04 3.126e-09
 84.58442      9.7 1.244e+04 2.946e-09
 84.60406     10.4 1.252e+04 3.086e-09
 84.62534     12.1 1.254e+04 2.676e-09
 84.66463     14.0 1.255e+04 2.149e-09
 84.70391     15.9 1.256e+04 1.764e-09
 84.74320     17.9 1.268e+04 1.528e-09
 84.78249     20.1 1.279e+04 1.436e-09
 84.82178     22.4 1.273e+04 1.462e-09
 84.86107     24.7 1.264e+04 1.589e-09
 84.90036     27.1 1.254e+04 1.915e-09
 84.93965     29.4 1.271e+04 2.435e-09
 84.97894     30.9 1.303e+04 3.224e-09
 85.00831     31.2 1.321e+04 4.159e-09
 85.01984     31.2 1.342e+04 6.899e-09
 85.02967     31.3 1.317e+04 4.886e-09
 85.04750     31.5 1.342e+04 8.628e-09
 85.05916     31.6 1.385e+04 1.551e-08
 85.06898     31.5 1.429e+04 1.927e-08
 85.08679     31.4 1.494e+04 3.423e-08
 85.10643     30.9 1.528e+04 4.207e-08
 85.12608     30.2 1.507e+04 3.816e-08
 85.14572     29.9 1.462e+04 2.968e-08
 85.16537     29.5 1.417e+04 1.935e-08
 85.18501     28.7 1.389e+04 1.398e-08
 85.20465     28.4 1.382e+04 1.301e-08
 85.22430     28.3 1.384e+04 1.309e-08
 85.24394     28.1 1.388e+04 1.329e-08
 85.26359     27.9 1.391e+04 1.354e-08
 85.28189     27.2 1.408e+04 1.437e-08
 85.29171     27.0 1.406e+04 1.403e-08
 85.30288     25.2 1.432e+04 1.626e-08
 85.31704     22.0 1.483e+04 2.848e-08
 85.32686     22.2 1.502e+04 3.230e-08
 85.33721     20.2 1.522e+04 4.386e-08
 85.34698     19.6 1.521e+04 4.808e-08
 85.35680     17.9 1.568e+04 5.537e-08
 85.36662     16.3 1.587e+04 5.631e-08
 85.38141     12.2 1.645e+04 6.569e-08
 85.40110      6.6 1.643e+04 8.557e-08
 85.42074      4.6 1.547e+04 7.078e-08
 85.44039      4.0 1.450e+04 3.810e-08
 85.46003      2.2 1.389e+04 1.822e-08
 85.47968      0.3 1.327e+04 8.215e-09
 85.49932     -0.9 1.219e+04 5.772e-09
 85.51444     -0.8 1.196e+04 4.320e-09
 85.52427      1.1 1.211e+04 4.944e-09
 85.53861      1.2 1.179e+04 4.236e-09
 85.55826      1.7 1.174e+04 3.537e-09
 85.57790      2.0 1.151e+04 3.035e-09
 85.60452      4.0 1.129e+04 2.561e-09
 85.62426      3.4 1.151e+04 2.630e-09
 85.64685      4.8 1.116e+04 2.230e-09
 85.68614      6.4 1.119e+04 2.313e-09
 85.72543      8.0 1.130e+04 2.843e-09
 85.76472      9.6 1.151e+04 3.919e-09
 85.80401     11.1 1.176e+04 5.142e-09
 85.84330     12.2 1.210e+04 6.579e-09
 85.88258     12.5 1.234e+04 7.721e-09
 85.92187     12.1 1.246e+04 7.434e-09
 85.96010     11.3 1.228e+04 8.286e-09
 85.97965     13.5 1.257e+04 9.628e-09
 85.99043     13.2 1.253e+04 9.707e-09
 86.01008     12.7 1.247e+04 9.163e-09
 86.03964     12.8 1.266e+04 9.306e-09
 86.07903     12.5 1.264e+04 8.509e-09
 86.11832     12.4 1.259e+04 8.054e-09
 86.14769     12.6 1.244e+04 7.140e-09
 86.16723     12.6 1.247e+04 7.127e-09
 86.18688     12.9 1.245e+04 6.769e-09
 86.20228     12.9 1.262e+04 6.606e-09
 86.21211     13.7 1.265e+04 6.785e-09
 86.21856     13.7 1.258e+04 5.622e-09
 86.23830     14.3 1.275e+04 7.139e-09
 86.27547     15.2 1.260e+04 5.643e-09
 86.31476     16.2 1.252e+04 3.757e-09
 86.35405     17.1 1.254e+04 2.596e-09
 86.39334     18.3 1.253e+04 2.327e-09
 86.42521     19.6 1.258e+04 2.401e-09
 86.44486     21.3 1.263e+04 3.102e-09
 86.47192     22.5 1.270e+04 3.639e-09
 86.51121     23.7 1.274e+04 3.990e-09
 86.55050     24.8 1.268e+04 4.121e-09
 86.58979     25.5 1.255e+04 4.730e-09
 86.62908     26.1 1.255e+04 6.373e-09
 86.66836     26.7 1.222e+04 7.837e-09
 86.70765     27.3 1.199e+04 7.653e-09
 86.74694     27.9 1.159e+04 6.533e-09
 86.78623     28.5 1.128e+04 5.930e-09
 86.81306     28.3 1.133e+04 6.460e-09
 86.83270     27.4 1.108e+04 5.957e-09
 86.86481     27.4 1.097e+04 5.794e-09
 86.89032     27.1 1.075e+04 4.959e-09
 86.90996     27.8 1.030e+04 3.987e-09
 86.94339     26.5 1.061e+04 4.468e-09
 86.97276     25.8 1.099e+04 5.761e-09
 86.99230     25.0 1.127e+04 6.681e-09
 87.01195     24.2 1.155e+04 8.361e-09
 87.03159     23.4 1.185e+04 1.100e-08
 87.05124     23.1 1.223e+04 1.277e-08
 87.07088     22.8 1.227e+04 1.224e-08
 87.09053     23.0 1.215e+04 9.785e-09
 87.11006     23.2 1.189e+04 6.498e-09
 87.11988     23.3 1.210e+04 9.058e-09
 87.12268     23.4 1.175e+04 5.397e-09
 87.13250     23.6 1.185e+04 6.918e-09
 87.14946     23.0 1.176e+04 4.313e-09
 87.16910     22.9 1.150e+04 2.720e-09
 87.18875     22.5 1.155e+04 2.288e-09
 87.21831     23.5 1.109e+04 1.766e-09
 87.25770     24.9 1.084e+04 1.494e-09
 87.29699     26.5 1.078e+04 1.361e-09
 87.33578     28.1 1.078e+04 1.286e-09
 87.35543     28.1 1.076e+04 1.505e-09
 87.37557     29.7 1.077e+04 1.421e-09
 87.40745     31.4 1.080e+04 1.385e-09
 87.42710     30.9 1.096e+04 1.599e-09
 87.45414     32.5 1.100e+04 1.577e-09
 87.49343     33.9 1.109e+04 1.652e-09
 87.53272     35.2 1.124e+04 1.817e-09
 87.57201     36.3 1.136e+04 2.029e-09
 87.61130     37.2 1.158e+04 2.144e-09
 87.65059     38.0 1.166e+04 2.091e-09
 87.68988     38.7 1.180e+04 2.113e-09
 87.72917     38.5 1.199e+04 2.568e-09
 87.76846     38.2 1.220e+04 4.414e-09
 87.80089     37.6 1.240e+04 6.615e-09
 87.82054     38.2 1.251e+04 7.116e-09
 87.84703     37.0 1.246e+04 6.698e-09
 87.88632     36.6 1.209e+04 4.459e-09
 87.92561     36.5 1.181e+04 2.219e-09
 87.96490     36.2 1.172e+04 1.184e-09
 88.00185     36.5 1.144e+04 9.553e-10
 88.02150     36.4 1.136e+04 9.537e-10
 88.04348     37.7 1.133e+04 9.644e-10
 88.08277     39.1 1.132e+04 1.046e-09
 88.12206     40.4 1.135e+04 1.273e-09
 88.16135     41.5 1.139e+04 1.721e-09
 88.20064     42.4 1.144e+04 2.355e-09
 88.23992     43.1 1.141e+04 2.776e-09
 88.26600     43.2 1.138e+04 2.750e-09
 88.28565     43.6 1.157e+04 3.144e-09
 88.31850     43.7 1.152e+04 2.973e-09
 88.35779     43.7 1.139e+04 2.553e-09
 88.39708     44.0 1.121e+04 2.010e-09
 88.43637     44.5 1.115e+04 1.928e-09
 88.47566     45.1 1.117e+04 2.175e-09
 88.51495     45.9 1.125e+04 2.845e-09
 88.55424     46.6 1.145e+04 3.110e-09
 88.59353     47.2 1.150e+04 2.882e-09
 88.61589     47.9 1.153e+04 2.389e-09
 88.63554     48.0 1.155e+04 2.419e-09
 88.67210     48.9 1.151e+04 2.104e-09
 88.71139     49.9 1.152e+04 2.157e-09
 88.75068     51.7 1.169e+04 2.219e-09
 88.78997     52.7 1.186e+04 2.999e-09
 88.82926     53.5 1.208e+04 4.710e-09
 88.86855     54.4 1.243e+04 7.522e-09
 88.89792     54.5 1.261e+04 8.157e-09
 88.91290     54.4 1.291e+04 9.453e-09
 88.92272     54.1 1.301e+04 1.091e-08
 88.93711     53.6 1.337e+04 1.288e-08
 88.95365     52.8 1.369e+04 1.532e-08
 88.96347     52.3 1.400e+04 2.003e-08
 88.97640     51.1 1.432e+04 2.431e-08
 88.99604     49.6 1.466e+04 2.962e-08
 89.01569     48.0 1.500e+04 3.744e-08
 89.03533     46.3 1.531e+04 4.275e-08
 89.05498     45.1 1.508e+04 3.554e-08
 89.07462     44.3 1.449e+04 2.121e-08
 89.09427     43.7 1.390e+04 1.033e-08
 89.11391     42.8 1.364e+04 5.157e-09
 89.13355     42.2 1.350e+04 3.243e-09
 89.15320     42.3 1.345e+04 2.539e-09
 89.17284     42.9 1.358e+04 2.300e-09
 89.18620     42.8 1.388e+04 2.720e-09
 89.19602     43.6 1.349e+04 1.902e-09
 89.21010     43.0 1.399e+04 2.520e-09
 89.21992     43.7 1.360e+04 1.648e-09
 89.23178     42.5 1.414e+04 2.627e-09
 89.25142     41.4 1.460e+04 8.861e-09
 89.27107     41.0 1.522e+04 2.822e-08
 89.29071     40.8 1.582e+04 5.086e-08
 89.31035     40.3 1.596e+04 5.099e-08
 89.33000     40.5 1.576e+04 3.938e-08
 89.34964     40.3 1.552e+04 2.638e-08
 89.36929     40.3 1.526e+04 1.879e-08
 89.38893     40.2 1.517e+04 1.557e-08
 89.41850     41.3 1.466e+04 1.171e-08
 89.45788     42.6 1.419e+04 8.771e-09
 89.49717     44.4 1.387e+04 7.423e-09
 89.53646     46.5 1.362e+04 6.869e-09
 89.57575     48.5 1.343e+04 6.610e-09
 89.61504     50.7 1.327e+04 6.098e-09
 89.64168     53.0 1.310e+04 5.552e-09
 89.66133     53.1 1.328e+04 5.058e-09
 89.69362     55.3 1.321e+04 3.883e-09
 89.73291     57.9 1.314e+04 3.315e-09
 89.77220     60.4 1.314e+04 3.330e-09
 89.80156     61.6 1.315e+04 3.536e-09
 89.81432     62.5 1.316e+04 3.559e-09
 89.82424     62.0 1.319e+04 3.067e-09
 89.84085     63.4 1.318e+04 3.344e-09
 89.86040     64.3 1.323e+04 3.537e-09
 89.87404     65.2 1.326e+04 3.761e-09
 89.88387     65.4 1.341e+04 2.630e-09
 89.89969     66.0 1.347e+04 2.706e-09
 89.91933     66.9 1.354e+04 2.756e-09
 89.93898     67.5 1.360e+04 2.760e-09
 89.95862     68.3 1.366e+04 2.685e-09
 89.97827     68.8 1.374e+04 2.518e-09
 89.99791     69.3 1.377e+04 2.272e-09
 90.01756     69.6 1.378e+04 2.095e-09
 90.03720     69.9 1.369e+04 2.087e-09
 90.05685     69.9 1.368e+04 2.174e-09
 90.07649     69.8 1.370e+04 2.515e-09
 90.09613     69.6 1.373e+04 3.147e-09
 90.10660     69.3 1.375e+04 4.183e-09
 90.11216     69.7 1.381e+04 4.219e-09
 90.12134     69.9 1.347e+04 4.072e-09
 90.13542     69.5 1.357e+04 5.094e-09
 90.15507     69.0 1.356e+04 6.530e-09
 90.17471     68.5 1.352e+04 8.052e-09
 90.19436     67.9 1.348e+04 9.180e-09
 90.21400     67.4 1.345e+04 9.492e-09
 90.23365     67.0 1.340e+04 9.294e-09
 90.25329     67.0 1.326e+04 8.846e-09
 90.27294     67.1 1.312e+04 8.281e-09
 90.29258     67.2 1.307e+04 7.471e-09
 90.31222     67.3 1.298e+04 6.980e-09
 90.32933     67.5 1.279e+04 6.758e-09
 90.33915     68.1 1.300e+04 7.496e-09
 90.35151     68.4 1.299e+04 7.797e-09
 90.37116     68.5 1.296e+04 8.283e-09
 90.39080     68.8 1.292e+04 9.642e-09
 90.40872     69.0 1.289e+04 1.108e-08
 90.41854     69.6 1.311e+04 1.313e-08
 90.43009     69.5 1.293e+04 1.402e-08
 90.44974     69.3 1.289e+04 1.389e-08
 90.47930     69.4 1.280e+04 1.407e-08
 90.51869     69.6 1.216e+04 1.070e-08
 90.55226     70.3 1.148e+04 5.991e-09
 90.57190     70.6 1.138e+04 5.775e-09
 90.59726     71.6 1.061e+04 2.737e-09
 90.63655     73.4 1.045e+04 2.264e-09
 90.67584     75.9 1.050e+04 2.346e-09
 90.71513     78.2 1.055e+04 2.714e-09
 90.74450     79.6 1.048e+04 3.053e-09
 90.76405     81.0 1.043e+04 3.577e-09
 90.78369     82.4 1.050e+04 4.397e-09
 90.79444     83.8 1.058e+04 5.315e-09
 90.80426     83.8 1.059e+04 5.421e-09
 90.82298     85.2 1.068e+04 6.358e-09
 90.84263     86.5 1.077e+04 7.422e-09
 90.86227     87.6 1.085e+04 8.457e-09
 90.88191     88.7 1.092e+04 9.475e-09
 90.90156     89.7 1.118e+04 1.069e-08
 90.92120     90.1 1.163e+04 1.385e-08
 90.94085     90.2 1.236e+04 2.025e-08
 90.96049     90.2 1.336e+04 3.293e-08
 90.98014     90.3 1.448e+04 5.551e-08
 90.99978     90.6 1.548e+04 8.578e-08
 91.01294     90.6 1.608e+04 1.013e-07
 91.02050     90.7 1.559e+04 8.458e-08
 91.02699     91.0 1.521e+04 7.686e-08
 91.03907     90.6 1.542e+04 8.029e-08
 91.05872     90.2 1.517e+04 7.256e-08
 91.07836     90.2 1.438e+04 5.316e-08
 91.09800     90.3 1.326e+04 3.283e-08
 91.11765     90.2 1.202e+04 1.848e-08
 91.13729     89.6 1.089e+04 1.082e-08
 91.15694     89.0 1.052e+04 8.918e-09
 91.17658     88.8 1.056e+04 9.163e-09
 91.19623     89.1 1.098e+04 1.130e-08
 91.21091     89.5 1.103e+04 1.184e-08
 91.22068     89.5 1.123e+04 1.263e-08
 91.23051     88.5 1.234e+04 1.577e-08
 91.24033     82.5 1.656e+04 3.692e-08
 91.24963     74.5 1.931e+04 2.580e-07
 91.25454     77.4 1.923e+04 1.350e-07
 91.25997     72.5 1.871e+04 8.707e-07
 91.26980     71.1 1.790e+04 2.047e-06
 91.27962     68.3 1.850e+04 2.316e-06
 91.28944     58.7 1.988e+04 1.946e-06
 91.29926     44.3 2.311e+04 7.758e-07
 91.30908     35.5 2.041e+04 2.548e-07
 91.31495     30.1 1.635e+04 1.415e-07
 91.31986     30.9 1.664e+04 1.419e-07
 91.33369     28.8 1.457e+04 6.233e-08
 91.35338     24.2 1.228e+04 1.574e-08
 91.37303     18.6 1.009e+04 5.101e-09
 91.39267     17.2 8.940e+03 3.864e-09
 91.41232     17.7 8.852e+03 3.794e-09
 91.43196     17.9 8.952e+03 3.964e-09
 91.45161     17.9 9.063e+03 4.447e-09
 91.47125     17.9 9.204e+03 5.035e-09
 91.48228     17.9 9.322e+03 6.140e-09
 91.49210     18.4 9.233e+03 6.034e-09
 91.51054     18.8 9.291e+03 6.910e-09
 91.54010     19.7 9.219e+03 6.797e-09
 91.57949     21.4 8.747e+03 5.445e-09
 91.60753     22.9 8.213e+03 3.432e-09
 91.62717     23.1 8.451e+03 4.166e-09
 91.65807     23.1 7.949e+03 2.203e-09
 91.69736     23.6 7.921e+03 1.968e-09
 91.73665     23.1 8.233e+03 2.530e-09
 91.77593     23.7 8.691e+03 4.009e-09
 91.81522     24.6 8.700e+03 3.977e-09
 91.85451     26.3 8.543e+03 2.792e-09
 91.89380     26.8 8.500e+03 1.613e-09
 91.92794     27.4 8.311e+03 1.375e-09
 91.94758     28.9 8.349e+03 1.594e-09
 91.97238     29.8 8.344e+03 1.528e-09
 92.01167     30.7 8.507e+03 1.661e-09
 92.05096     31.3 8.905e+03 2.367e-09
 92.09025     31.5 9.421e+03 4.620e-09
 92.12954     32.1 1.009e+04 7.842e-09
 92.16882     32.4 1.042e+04 8.182e-09
 92.20193     33.2 1.036e+04 6.024e-09
 92.22157     32.4 1.046e+04 5.920e-09
 92.24740     32.0 1.027e+04 3.140e-09
 92.28669     31.8 1.014e+04 2.897e-09
 92.31606     31.9 1.024e+04 3.245e-09
 92.33561     32.1 1.027e+04 3.697e-09
 92.35525     32.3 1.062e+04 5.423e-09
 92.37490     32.4 1.064e+04 5.624e-09
 92.39295     32.5 1.093e+04 5.914e-09
 92.40277     33.8 1.052e+04 4.977e-09
 92.41419     34.0 1.069e+04 5.262e-09
 92.44375     34.3 1.073e+04 4.433e-09
 92.48314     34.0 1.100e+04 3.003e-09
 92.52243     33.1 1.103e+04 2.754e-09
 92.56171     32.4 1.102e+04 2.974e-09
 92.60100     31.5 1.116e+04 3.932e-09
 92.64029     30.2 1.161e+04 6.257e-09
 92.67958     28.3 1.201e+04 1.016e-08
 92.70895     26.7 1.208e+04 1.222e-08
 92.72850     26.0 1.184e+04 1.192e-08
 92.74814     25.2 1.147e+04 9.800e-09
 92.76779     24.1 1.107e+04 8.261e-09
 92.79623     23.4 1.045e+04 4.244e-09
 92.81597     22.9 1.028e+04 3.329e-09
 92.83674     21.7 9.912e+03 1.372e-09
 92.85816     20.4 9.686e+03 8.954e-10
 92.87780     21.2 9.520e+03 7.339e-10
 92.91532     21.5 9.435e+03 7.856e-10
 92.95460     21.5 9.435e+03 1.071e-09
 92.99389     21.5 9.594e+03 1.696e-09
 93.03318     21.4 9.708e+03 2.497e-09
 93.07247     20.7 9.973e+03 3.199e-09
 93.10184     19.7 1.008e+04 4.043e-09
 93.11297     18.5 1.005e+04 4.556e-09
 93.12280     18.1 1.010e+04 4.658e-09
 93.14103     16.6 1.002e+04 4.964e-09
 93.16068     14.6 1.021e+04 4.864e-09
 93.18032     12.2 9.991e+03 5.548e-09
 93.19997     10.8 9.765e+03 6.072e-09
 93.21961      9.6 9.680e+03 5.964e-09
 93.23925      8.5 9.608e+03 5.399e-09
 93.25890      6.5 9.641e+03 4.795e-09
 93.27854      4.1 9.722e+03 5.036e-09
 93.29819      2.1 9.807e+03 6.283e-09
 93.31325      1.2 9.868e+03 8.160e-09
 93.32307      1.3 9.885e+03 8.107e-09
 93.33748      1.2 9.941e+03 9.462e-09
 93.35712      1.4 1.000e+04 9.072e-09
 93.37677      1.1 9.659e+03 6.222e-09
 93.39641      0.9 9.511e+03 5.352e-09
 93.41027      0.7 9.129e+03 3.841e-09
 93.43001     -1.9 9.096e+03 2.951e-09
 93.46536     -2.3 8.864e+03 2.181e-09
 93.50465     -1.7 8.882e+03 2.022e-09
 93.54394     -1.0 8.883e+03 1.954e-09
 93.58323     -0.1 8.945e+03 1.763e-09
 93.62252      0.7 8.987e+03 1.585e-09
 93.66181      1.8 9.059e+03 1.566e-09
 93.70110      2.7 9.269e+03 1.770e-09
 93.74038      3.0 9.704e+03 2.219e-09
 93.76873      2.5 1.007e+04 3.609e-09
 93.78838      3.6 1.024e+04 3.857e-09
 93.81896      3.7 1.090e+04 7.631e-09
 93.85825      3.9 1.153e+04 1.009e-08
 93.89754      2.3 1.182e+04 8.963e-09
 93.92691     -0.1 1.177e+04 8.527e-09
 93.94646     -1.2 1.198e+04 1.065e-08
 93.96610     -2.4 1.251e+04 1.894e-08
 93.98575     -3.4 1.306e+04 2.793e-08
 94.00109     -4.0 1.369e+04 3.699e-08
 94.01009     -4.1 1.424e+04 4.883e-08
 94.01439     -4.1 1.400e+04 4.153e-08
 94.02503     -5.3 1.423e+04 4.765e-08
 94.04468     -6.0 1.416e+04 4.921e-08
 94.06432     -6.0 1.362e+04 4.022e-08
 94.08397     -6.4 1.293e+04 2.498e-08
 94.10361     -7.7 1.226e+04 1.571e-08
 94.13318     -8.8 1.155e+04 1.182e-08
 94.17256     -8.8 1.135e+04 1.140e-08
 94.21185     -8.6 1.133e+04 1.145e-08
 94.23384     -8.1 1.102e+04 1.011e-08
 94.25348     -7.5 1.133e+04 1.211e-08
 94.29043     -6.7 1.077e+04 8.645e-09
 94.31169     -6.6 1.019e+04 4.322e-09
 94.32142     -6.6 1.033e+04 4.853e-09
 94.33935     -6.3 1.029e+04 4.514e-09
 94.35899     -6.3 1.010e+04 3.201e-09
 94.37864     -6.0 1.006e+04 2.938e-09
 94.40820     -5.7 9.988e+03 2.610e-09
 94.44759     -5.0 1.005e+04 2.702e-09
 94.48688     -4.4 1.001e+04 2.804e-09
 94.52616     -3.7 9.863e+03 3.112e-09
 94.56545     -3.0 9.999e+03 3.552e-09
 94.59917     -2.7 1.024e+04 3.787e-09
 94.61881     -3.4 1.056e+04 4.880e-09
 94.64403     -3.8 1.077e+04 5.291e-09
 94.67930     -4.4 1.107e+04 6.457e-09
 94.69895     -4.3 1.105e+04 5.779e-09
 94.72261     -4.7 1.131e+04 7.135e-09
 94.76190     -5.3 1.143e+04 6.748e-09
 94.80119     -5.8 1.147e+04 5.489e-09
 94.83056     -6.1 1.155e+04 4.318e-09
 94.85010     -6.1 1.159e+04 4.250e-09
 94.86975     -6.3 1.171e+04 3.840e-09
 94.88939     -6.2 1.174e+04 3.814e-09
 94.91896     -6.5 1.190e+04 4.056e-09
 94.95834     -6.8 1.214e+04 6.116e-09
 94.99763     -7.2 1.259e+04 9.730e-09
 95.03692     -8.1 1.301e+04 1.293e-08
 95.07621     -9.1 1.321e+04 1.372e-08
 95.11550     -9.7 1.323e+04 1.028e-08
 95.14441    -10.1 1.316e+04 5.222e-09
 95.16406     -9.2 1.321e+04 8.783e-09
 95.19356     -9.5 1.304e+04 3.751e-09
 95.21321    -10.3 1.305e+04 1.794e-09
 95.23337    -10.4 1.301e+04 1.305e-09
 95.27266     -9.8 1.313e+04 1.247e-09
 95.31194     -9.9 1.332e+04 1.405e-09
 95.35123    -10.7 1.356e+04 1.868e-09
 95.39052    -12.1 1.370e+04 2.723e-09
 95.42981    -13.5 1.381e+04 3.693e-09
 95.46910    -14.6 1.395e+04 4.134e-09
 95.50839    -15.6 1.434e+04 3.462e-09
 95.54768    -16.3 1.459e+04 2.568e-09
 95.58697    -16.6 1.460e+04 2.369e-09
 95.60952    -16.8 1.437e+04 2.450e-09
 95.62917    -16.5 1.448e+04 2.694e-09
 95.66555    -16.7 1.405e+04 2.798e-09
 95.70483    -16.8 1.370e+04 2.404e-09
 95.74412    -16.9 1.355e+04 1.803e-09
 95.78341    -16.8 1.348e+04 1.308e-09
 95.80761    -16.5 1.338e+04 1.003e-09
 95.82725    -15.6 1.336e+04 9.615e-10
 95.86199    -14.9 1.316e+04 8.942e-10
 95.90128    -14.1 1.305e+04 8.879e-10
 95.94057    -13.2 1.285e+04 9.259e-10
 95.97986    -12.1 1.271e+04 9.410e-10
 96.01915    -10.7 1.257e+04 8.513e-10
 96.05499     -9.6 1.258e+04 6.907e-10
 96.07463     -9.9 1.254e+04 6.711e-10
 96.09772     -8.9 1.250e+04 5.885e-10
 96.13701     -7.8 1.240e+04 5.975e-10
 96.17630     -6.5 1.221e+04 6.935e-10
 96.21559     -5.0 1.205e+04 7.250e-10
 96.25488     -3.1 1.186e+04 6.283e-10
 96.29417     -1.3 1.187e+04 4.504e-10
 96.33346      0.6 1.185e+04 3.333e-10
 96.37275      2.5 1.176e+04 2.786e-10
 96.40200      4.5 1.167e+04 2.658e-10
 96.42165      5.5 1.171e+04 2.779e-10
 96.45133      7.7 1.157e+04 2.950e-10
 96.49061     10.0 1.135e+04 3.541e-10
 96.52010     12.4 1.134e+04 3.738e-10
 96.53974     12.4 1.133e+04 4.534e-10
 96.56919     14.5 1.130e+04 4.622e-10
 96.60848     16.5 1.122e+04 4.942e-10
 96.64777     18.3 1.114e+04 5.472e-10
 96.68706     20.1 1.103e+04 6.387e-10
 96.72635     22.0 1.090e+04 7.584e-10
 96.76564     23.9 1.084e+04 8.122e-10
 96.80493     25.8 1.082e+04 8.018e-10
 96.84422     27.5 1.078e+04 7.855e-10
 96.88350     29.2 1.077e+04 8.012e-10
 96.92279     30.7 1.079e+04 8.983e-10
 96.96208     31.8 1.074e+04 1.339e-09
 96.98520     33.2 1.071e+04 2.334e-09
 96.99988     32.4 1.072e+04 2.495e-09
 97.01605     33.8 1.080e+04 2.321e-09
 97.04066     34.9 1.082e+04 3.039e-09
 97.07995     35.9 1.067e+04 2.890e-09
 97.11924     36.8 1.044e+04 2.029e-09
 97.15853     37.2 1.026e+04 1.401e-09
 97.19782     37.8 1.020e+04 1.482e-09
 97.23711     38.0 1.025e+04 2.004e-09
 97.27639     37.8 1.037e+04 3.158e-09
 97.30333     36.2 1.105e+04 6.274e-09
 97.31305     36.6 1.107e+04 6.171e-09
 97.32531     36.8 1.116e+04 7.637e-09
 97.34495     35.4 1.190e+04 1.179e-08
 97.36460     35.0 1.210e+04 1.581e-08
 97.38424     34.2 1.239e+04 1.850e-08
 97.40389     33.4 1.231e+04 1.817e-08
 97.42353     32.9 1.200e+04 1.605e-08
 97.44030     32.0 1.184e+04 1.373e-08
 97.45012     32.0 1.201e+04 1.535e-08
 97.46282     30.9 1.185e+04 1.376e-08
 97.48247     30.4 1.176e+04 1.346e-08
 97.50211     29.7 1.185e+04 1.378e-08
 97.52176     29.3 1.185e+04 1.401e-08
 97.54140     28.6 1.198e+04 1.523e-08
 97.56104     28.4 1.190e+04 1.521e-08
 97.58069     28.4 1.177e+04 1.449e-08
 97.60033     28.3 1.168e+04 1.385e-08
 97.61998     28.4 1.131e+04 1.164e-08
 97.63962     28.7 1.108e+04 1.061e-08
 97.65927     29.1 1.080e+04 9.255e-09
 97.67285     29.2 1.059e+04 8.148e-09
 97.68267     29.6 1.054e+04 8.057e-09
 97.69856     29.9 1.059e+04 7.436e-09
 97.71820     30.0 1.057e+04 7.266e-09
 97.74776     30.4 1.041e+04 7.158e-09
 97.78715     31.0 1.044e+04 7.435e-09
 97.82644     30.9 1.056e+04 7.000e-09
 97.85581     30.6 1.096e+04 7.451e-09
 97.87536     28.5 1.148e+04 8.304e-09
 97.89500     24.8 1.249e+04 9.464e-09
 97.90540     21.1 1.225e+04 1.441e-08
 97.90803     22.5 1.315e+04 1.614e-08
 97.91727     21.6 1.183e+04 9.397e-09
 97.93429     19.6 1.141e+04 1.466e-08
 97.95393     18.8 1.127e+04 1.515e-08
 97.97358     17.7 1.146e+04 1.126e-08
 97.99322     15.5 1.137e+04 8.820e-09
 98.01287     13.0 1.104e+04 7.514e-09
 98.03251     12.3 1.085e+04 7.470e-09
 98.05216     11.6 1.063e+04 8.298e-09
 98.07180     11.5 1.064e+04 8.139e-09
 98.09145     10.7 1.068e+04 6.965e-09
 98.11109     10.5 1.062e+04 6.839e-09
 98.12814      9.9 1.052e+04 6.104e-09
 98.13796     10.1 1.036e+04 4.953e-09
 98.15038      9.7 1.037e+04 4.845e-09
 98.17002      9.3 1.044e+04 4.736e-09
 98.18967      8.9 1.046e+04 4.784e-09
 98.20465      8.3 1.045e+04 4.721e-09
 98.21447      9.7 1.045e+04 4.520e-09
 98.22896      9.1 1.051e+04 4.672e-09
 98.24860      8.3 1.065e+04 4.956e-09
 98.26825      7.5 1.072e+04 5.757e-09
 98.28789      6.9 1.079e+04 6.879e-09
 98.30754      6.8 1.078e+04 8.075e-09
 98.32718      6.9 1.081e+04 8.880e-09
 98.34682      6.6 1.088e+04 8.664e-09
 98.36069      6.2 1.088e+04 8.322e-09
 98.37051      5.9 1.082e+04 7.754e-09
 98.38611      5.5 1.082e+04 7.509e-09
 98.40576      4.7 1.072e+04 7.119e-09
 98.42540      4.1 1.067e+04 7.081e-09
 98.44505      3.7 1.059e+04 6.983e-09
 98.46469      3.5 1.066e+04 6.718e-09
 98.48434      2.4 1.098e+04 6.608e-09
 98.50185      0.0 1.159e+04 7.986e-09
 98.51167      0.9 1.139e+04 5.958e-09
 98.52362     -2.0 1.181e+04 8.800e-09
 98.54327     -3.6 1.204e+04 1.399e-08
 98.56291     -4.0 1.237e+04 1.709e-08
 98.58256     -5.1 1.227e+04 1.441e-08
 98.59325     -6.6 1.168e+04 8.836e-09
 98.60307     -7.5 1.160e+04 7.963e-09
 98.62185     -9.1 1.095e+04 5.442e-09
 98.64149    -10.0 1.048e+04 4.345e-09
 98.66114    -10.1 1.034e+04 4.033e-09
 98.69070    -10.1 9.903e+03 3.252e-09
 98.73009    -10.2 9.523e+03 2.325e-09
 98.76938    -10.7 9.248e+03 1.661e-09
 98.79924    -11.0 8.980e+03 1.344e-09
 98.81657    -10.4 8.955e+03 1.392e-09
 98.82599    -11.1 8.956e+03 1.429e-09
 98.84795    -11.0 8.814e+03 1.303e-09
 98.88724    -11.1 8.702e+03 1.191e-09
 98.92653    -11.7 8.680e+03 1.157e-09
 98.96582    -12.8 8.674e+03 1.158e-09
 99.00511    -14.3 8.607e+03 1.271e-09
 99.04440    -15.8 8.454e+03 1.598e-09
 99.08369    -16.9 8.410e+03 1.823e-09
 99.12298    -18.4 8.366e+03 1.833e-09
 99.16227    -20.2 8.309e+03 1.768e-09
 99.20156    -22.2 8.307e+03 1.898e-09
 99.24084    -24.1 8.353e+03 2.205e-09
 99.27146    -25.9 8.354e+03 2.314e-09
 99.29110    -26.4 8.391e+03 2.233e-09
 99.31942    -28.1 8.291e+03 2.182e-09
 99.35871    -29.5 8.147e+03 2.034e-09
 99.39364    -30.5 7.971e+03 1.737e-09
 99.41328    -30.9 8.007e+03 1.840e-09
 99.43729    -32.0 7.811e+03 1.515e-09
 99.47658    -32.6 7.698e+03 1.392e-09
 99.51587    -32.9 7.676e+03 1.390e-09
 99.55516    -33.0 7.702e+03 1.475e-09
 99.59445    -32.5 7.732e+03 1.518e-09
 99.63373    -32.0 7.663e+03 1.245e-09
 99.67302    -31.7 7.573e+03 9.131e-10
 99.71231    -31.5 7.509e+03 7.034e-10
 99.73657    -31.1 7.497e+03 6.532e-10
 99.75621    -31.6 7.549e+03 6.804e-10
 99.79089    -31.2 7.544e+03 6.848e-10
 99.83018    -30.8 7.660e+03 8.460e-10
 99.86947    -30.6 7.823e+03 1.107e-09
 99.90876    -30.6 8.104e+03 1.515e-09
 99.94805    -30.8 8.436e+03 2.171e-09
 99.98734    -31.1 8.747e+03 2.876e-09
