# Columns:
#   distance along LOS (in CHIMPs)
#   peculiar velocity  (in km/s)
#   temperature (K)
#   HI number density
# pos=(143.159,0.0835538,59.4834), angles=(1.46223,4.45702)
  0.00688    150.8 1.496e+04 9.185e-09
  0.01770    151.4 1.489e+04 9.536e-09
  0.02287    151.9 1.491e+04 8.230e-09
  0.02909    151.4 1.503e+04 8.606e-09
  0.04423    152.0 1.498e+04 8.598e-09
  0.06453    152.6 1.499e+04 8.741e-09
  0.08484    152.9 1.510e+04 9.047e-09
  0.09720    153.2 1.521e+04 9.375e-09
  0.10735    153.7 1.514e+04 8.781e-09
  0.12545    153.8 1.520e+04 9.353e-09
  0.15600    153.9 1.526e+04 1.091e-08
  0.17679    153.7 1.525e+04 1.075e-08
  0.18685    154.0 1.525e+04 1.132e-08
  0.20044    153.8 1.523e+04 1.110e-08
  0.21059    152.9 1.521e+04 1.134e-08
  0.22698    152.9 1.511e+04 1.047e-08
  0.24604    153.1 1.508e+04 8.565e-09
  0.25629    153.8 1.511e+04 1.148e-08
  0.26768    153.7 1.506e+04 8.668e-09
  0.28789    153.8 1.513e+04 6.042e-09
  0.30820    154.1 1.524e+04 4.168e-09
  0.32554    154.1 1.529e+04 3.308e-09
  0.33570    154.4 1.526e+04 3.836e-09
  0.35906    155.5 1.525e+04 3.007e-09
  0.38213    157.3 1.519e+04 2.319e-09
  0.39776    157.2 1.506e+04 1.985e-09
  0.41539    157.1 1.513e+04 2.315e-09
  0.44038    159.7 1.501e+04 2.073e-09
  0.48099    162.6 1.503e+04 2.075e-09
  0.52160    165.2 1.515e+04 2.302e-09
  0.55408    166.8 1.513e+04 2.768e-09
  0.57429    167.4 1.503e+04 2.936e-09
  0.59247    168.8 1.491e+04 3.736e-09
  0.61278    170.1 1.492e+04 5.099e-09
  0.63308    170.9 1.496e+04 6.647e-09
  0.64354    171.2 1.498e+04 7.956e-09
  0.65369    171.7 1.500e+04 8.715e-09
  0.67369    171.9 1.499e+04 9.807e-09
  0.69400    171.9 1.501e+04 1.050e-08
  0.71289    171.7 1.502e+04 1.087e-08
  0.72304    172.3 1.510e+04 1.358e-08
  0.73461    171.7 1.514e+04 1.395e-08
  0.74494    170.8 1.515e+04 1.403e-08
  0.75509    170.6 1.499e+04 1.282e-08
  0.77522    169.5 1.495e+04 1.202e-08
  0.79239    168.4 1.488e+04 1.085e-08
  0.80254    168.7 1.497e+04 1.389e-08
  0.81583    167.7 1.476e+04 1.086e-08
  0.83614    167.1 1.459e+04 8.390e-09
  0.85644    167.0 1.444e+04 6.944e-09
  0.87189    166.9 1.430e+04 6.283e-09
  0.88204    166.8 1.417e+04 6.579e-09
  0.89705    166.9 1.405e+04 6.617e-09
  0.91628    167.4 1.398e+04 6.809e-09
  0.92644    167.8 1.381e+04 6.607e-09
  0.93767    168.2 1.378e+04 7.135e-09
  0.95139    168.6 1.375e+04 7.736e-09
  0.96154    168.0 1.374e+04 9.290e-09
  0.97828    168.2 1.368e+04 9.573e-09
  0.99858    168.3 1.363e+04 9.487e-09
  1.01889    168.4 1.350e+04 9.128e-09
  1.03089    168.5 1.338e+04 8.416e-09
  1.04104    167.7 1.327e+04 9.075e-09
  1.05950    167.9 1.319e+04 7.978e-09
  1.07980    168.1 1.312e+04 7.029e-09
  1.09778    168.3 1.304e+04 6.370e-09
  1.10794    167.9 1.297e+04 6.576e-09
  1.13066    168.4 1.247e+04 5.960e-09
  1.16978    169.9 1.228e+04 5.922e-09
  1.19008    169.0 1.215e+04 5.887e-09
  1.21198    170.9 1.212e+04 6.250e-09
  1.25259    172.5 1.217e+04 7.664e-09
  1.29321    174.0 1.241e+04 9.983e-09
  1.32878    175.4 1.271e+04 1.296e-08
  1.34908    174.8 1.264e+04 1.209e-08
  1.37443    176.0 1.297e+04 1.478e-08
  1.41504    176.9 1.325e+04 1.546e-08
  1.45083    177.6 1.322e+04 1.488e-08
  1.47113    178.1 1.307e+04 1.428e-08
  1.48778    179.3 1.308e+04 1.353e-08
  1.50808    179.4 1.253e+04 9.944e-09
  1.53687    181.5 1.246e+04 9.620e-09
  1.57748    184.3 1.253e+04 8.259e-09
  1.61809    187.5 1.249e+04 7.441e-09
  1.64238    189.1 1.244e+04 7.325e-09
  1.65066    189.1 1.241e+04 7.379e-09
  1.65673    189.3 1.223e+04 6.741e-09
  1.66866    190.6 1.226e+04 6.918e-09
  1.68897    191.9 1.230e+04 7.135e-09
  1.70927    193.3 1.234e+04 7.362e-09
  1.72608    194.6 1.236e+04 7.569e-09
  1.73623    194.6 1.218e+04 6.812e-09
  1.74988    195.9 1.220e+04 6.975e-09
  1.77019    197.3 1.222e+04 7.078e-09
  1.79049    198.6 1.225e+04 7.181e-09
  1.80558    199.9 1.233e+04 7.387e-09
  1.81573    199.7 1.210e+04 6.206e-09
  1.82378    201.0 1.220e+04 6.348e-09
  1.83393    201.3 1.211e+04 5.518e-09
  1.85141    202.5 1.233e+04 6.038e-09
  1.87172    203.5 1.263e+04 6.966e-09
  1.88508    204.3 1.305e+04 8.670e-09
  1.89523    204.5 1.223e+04 4.155e-09
  1.91233    205.2 1.246e+04 4.523e-09
  1.93263    205.4 1.287e+04 5.963e-09
  1.95294    205.5 1.350e+04 1.020e-08
  1.96458    205.5 1.410e+04 1.831e-08
  1.97473    206.4 1.309e+04 6.577e-09
  1.99355    206.4 1.380e+04 1.205e-08
  2.00528    206.2 1.441e+04 2.117e-08
  2.01543    205.7 1.426e+04 2.217e-08
  2.03393    205.0 1.473e+04 3.223e-08
  2.04408    206.1 1.418e+04 1.756e-08
  2.05446    205.3 1.467e+04 2.735e-08
  2.07477    204.2 1.514e+04 3.689e-08
  2.09508    202.9 1.550e+04 4.262e-08
  2.11343    201.4 1.571e+04 4.505e-08
  2.12358    202.8 1.560e+04 4.541e-08
  2.13569    201.3 1.577e+04 4.747e-08
  2.15599    199.9 1.578e+04 4.254e-08
  2.17630    198.5 1.580e+04 3.455e-08
  2.18678    196.6 1.575e+04 2.824e-08
  2.19326    195.2 1.475e+04 1.670e-08
  2.20308    198.0 1.505e+04 2.117e-08
  2.21691    196.2 1.480e+04 1.589e-08
  2.23721    194.4 1.442e+04 1.424e-08
  2.25752    193.1 1.402e+04 1.388e-08
  2.27243    191.9 1.406e+04 1.517e-08
  2.28258    193.9 1.377e+04 1.384e-08
  2.29813    192.1 1.388e+04 1.495e-08
  2.31843    190.0 1.429e+04 1.831e-08
  2.33874    187.8 1.509e+04 2.409e-08
  2.35188    186.2 1.594e+04 3.055e-08
  2.35691    188.3 1.522e+04 2.477e-08
  2.36311    185.7 1.654e+04 3.795e-08
  2.36818    185.6 1.675e+04 3.975e-08
  2.37418    182.2 1.787e+04 8.058e-08
  2.38433    179.4 1.824e+04 1.510e-07
  2.39158    177.3 1.812e+04 1.970e-07
  2.39666    179.0 1.856e+04 1.943e-07
  2.40464    177.0 1.829e+04 2.131e-07
  2.41479    175.4 1.812e+04 1.931e-07
  2.42494    173.9 1.757e+04 1.370e-07
  2.43133    172.4 1.658e+04 7.730e-08
  2.43641    173.8 1.725e+04 1.137e-07
  2.44525    172.3 1.602e+04 6.039e-08
  2.46052    171.7 1.505e+04 3.843e-08
  2.48088    168.9 1.283e+04 1.671e-08
  2.50077    166.1 1.101e+04 1.068e-08
  2.51093    169.0 1.196e+04 1.300e-08
  2.52149    166.6 1.066e+04 1.009e-08
  2.53963    166.0 1.048e+04 9.821e-09
  2.54978    165.7 1.060e+04 1.054e-08
  2.56210    165.8 1.058e+04 1.055e-08
  2.58027    165.9 1.060e+04 1.069e-08
  2.59043    167.3 1.057e+04 1.073e-08
  2.60271    167.3 1.059e+04 1.101e-08
  2.62302    167.1 1.063e+04 1.120e-08
  2.64332    166.9 1.062e+04 1.117e-08
  2.65977    166.7 1.055e+04 1.093e-08
  2.66993    168.3 1.058e+04 1.112e-08
  2.68393    168.2 1.050e+04 1.087e-08
  2.70424    168.0 1.037e+04 1.037e-08
  2.72113    167.8 1.028e+04 9.814e-09
  2.73128    168.2 1.031e+04 1.016e-08
  2.73927    168.0 1.034e+04 9.985e-09
  2.74943    169.8 1.041e+04 1.066e-08
  2.76515    169.6 1.045e+04 1.068e-08
  2.78546    169.1 1.053e+04 1.074e-08
  2.80577    168.4 1.063e+04 1.075e-08
  2.81877    167.4 1.073e+04 1.078e-08
  2.82893    169.8 1.075e+04 1.115e-08
  2.84638    168.4 1.088e+04 1.127e-08
  2.86668    166.2 1.120e+04 1.221e-08
  2.88699    163.2 1.169e+04 1.493e-08
  2.89827    159.9 1.215e+04 1.891e-08
  2.90376    162.1 1.247e+04 2.113e-08
  2.91278    163.4 1.251e+04 2.113e-08
  2.92760    160.1 1.322e+04 2.751e-08
  2.94790    157.0 1.378e+04 2.987e-08
  2.96762    152.6 1.400e+04 2.918e-08
  2.97777    153.2 1.470e+04 3.556e-08
  2.98851    147.3 1.477e+04 3.475e-08
  3.00882    140.6 1.475e+04 3.499e-08
  3.02400    135.8 1.460e+04 3.764e-08
  3.03410    133.8 1.421e+04 3.747e-08
  3.04426    131.2 1.435e+04 3.914e-08
  3.05210    128.1 1.470e+04 4.164e-08
  3.05717    128.6 1.475e+04 4.474e-08
  3.06456    125.3 1.518e+04 4.692e-08
  3.07471    121.9 1.563e+04 5.041e-08
  3.08403    116.4 1.713e+04 6.255e-08
  3.08910    117.6 1.667e+04 6.061e-08
  3.09185    109.0 1.934e+04 1.046e-07
  3.09692    108.9 1.977e+04 1.120e-07
  3.10517    100.7 2.004e+04 2.624e-07
  3.11533     96.0 1.914e+04 4.527e-07
  3.12548     93.0 1.886e+04 4.473e-07
  3.13160     90.6 1.854e+04 3.552e-07
  3.13667     90.1 1.872e+04 4.065e-07
  3.14578     88.1 1.834e+04 2.037e-07
  3.15594     85.7 1.779e+04 1.153e-07
  3.17121     79.7 1.639e+04 5.025e-08
  3.19157     74.9 1.315e+04 2.205e-08
  3.20612     74.3 1.208e+04 1.515e-08
  3.21627     73.0 1.217e+04 1.763e-08
  3.23218     74.3 1.187e+04 1.530e-08
  3.25248     75.8 1.169e+04 1.394e-08
  3.26562     77.2 1.160e+04 1.316e-08
  3.27578     76.6 1.204e+04 1.644e-08
  3.28562     77.9 1.199e+04 1.589e-08
  3.29577     77.6 1.200e+04 1.622e-08
  3.31340     78.9 1.195e+04 1.534e-08
  3.33371     80.1 1.197e+04 1.489e-08
  3.35401     81.0 1.209e+04 1.530e-08
  3.36512     81.6 1.230e+04 1.658e-08
  3.37527     81.8 1.225e+04 1.552e-08
  3.39462     82.2 1.271e+04 1.883e-08
  3.41493     82.6 1.329e+04 2.553e-08
  3.43447     83.3 1.382e+04 3.423e-08
  3.44462     83.1 1.409e+04 3.708e-08
  3.44712     83.9 1.460e+04 4.901e-08
  3.45728     82.4 1.480e+04 5.456e-08
  3.47584     83.2 1.518e+04 6.349e-08
  3.49615     83.6 1.560e+04 7.151e-08
  3.51397     83.5 1.611e+04 7.859e-08
  3.52412     83.2 1.630e+04 9.067e-08
  3.53676     82.7 1.666e+04 9.468e-08
  3.55194     81.1 1.676e+04 9.451e-08
  3.55869     80.8 1.673e+04 9.581e-08
  3.56377     80.7 1.645e+04 8.723e-08
  3.57220     80.2 1.657e+04 9.077e-08
  3.58235     79.7 1.656e+04 9.289e-08
  3.59250     79.9 1.635e+04 8.657e-08
  3.59844     79.8 1.620e+04 7.848e-08
  3.60352     79.7 1.566e+04 5.923e-08
  3.61281     79.1 1.541e+04 4.479e-08
  3.62296     78.6 1.505e+04 3.763e-08
  3.62853     77.8 1.452e+04 2.865e-08
  3.63873     75.5 1.285e+04 1.612e-08
  3.65859     74.0 1.237e+04 1.389e-08
  3.67297     73.0 1.230e+04 1.405e-08
  3.68312     72.4 1.191e+04 1.309e-08
  3.69920     72.0 1.179e+04 1.320e-08
  3.71951     72.0 1.192e+04 1.334e-08
  3.73982     72.2 1.191e+04 1.334e-08
  3.75247     72.4 1.192e+04 1.354e-08
  3.76262     72.2 1.177e+04 1.335e-08
  3.78043     72.4 1.203e+04 1.423e-08
  3.79997     72.6 1.234e+04 1.631e-08
  3.81012     72.3 1.231e+04 1.549e-08
  3.82104     72.7 1.266e+04 1.860e-08
  3.83196     73.3 1.301e+04 2.257e-08
  3.84212     73.0 1.326e+04 2.442e-08
  3.86165     73.8 1.361e+04 2.957e-08
  3.88195     74.8 1.391e+04 3.154e-08
  3.90131     75.7 1.401e+04 3.104e-08
  3.91146     75.4 1.442e+04 3.298e-08
  3.92256     76.3 1.446e+04 3.164e-08
  3.94287     77.0 1.441e+04 3.079e-08
  3.96318     77.5 1.443e+04 3.149e-08
  3.98081     77.4 1.494e+04 3.507e-08
  3.98895     77.2 1.546e+04 3.587e-08
  3.99162     77.2 1.520e+04 3.242e-08
  3.99866     77.5 1.549e+04 3.813e-08
  4.00876     77.4 1.572e+04 4.430e-08
  4.01892     76.8 1.602e+04 5.445e-08
  4.02554     76.4 1.619e+04 6.446e-08
  4.03062     75.9 1.650e+04 7.233e-08
  4.03922     75.7 1.661e+04 8.661e-08
  4.04938     75.6 1.683e+04 9.821e-08
  4.05953     75.4 1.711e+04 1.007e-07
  4.06529     74.9 1.717e+04 9.764e-08
  4.07037     74.3 1.760e+04 1.325e-07
  4.07720     73.9 1.754e+04 1.152e-07
  4.08227     73.5 1.785e+04 1.528e-07
  4.08999     72.9 1.751e+04 1.104e-07
  4.09996     71.7 1.713e+04 7.656e-08
  4.10504     71.6 1.740e+04 9.023e-08
  4.11029     69.6 1.679e+04 5.810e-08
  4.12044     67.3 1.604e+04 3.983e-08
  4.13060     65.2 1.528e+04 3.149e-08
  4.13971     64.1 1.514e+04 2.692e-08
  4.14479     63.4 1.502e+04 2.684e-08
  4.15090     63.2 1.502e+04 2.654e-08
  4.16106     62.8 1.516e+04 2.687e-08
  4.16795     62.8 1.516e+04 2.691e-08
  4.17307     62.3 1.537e+04 2.368e-08
  4.18653     62.2 1.464e+04 2.247e-08
  4.20684     61.2 1.476e+04 2.623e-08
  4.21931     59.4 1.527e+04 3.700e-08
  4.22946     56.5 1.633e+04 5.558e-08
  4.24745     54.7 1.728e+04 1.002e-07
  4.26776     53.6 1.791e+04 1.586e-07
  4.28806     52.7 1.780e+04 1.514e-07
  4.29881     52.6 1.715e+04 1.125e-07
  4.30896     50.2 1.743e+04 1.185e-07
  4.32867     50.2 1.658e+04 7.990e-08
  4.34447     50.5 1.562e+04 4.814e-08
  4.35462     50.6 1.582e+04 5.837e-08
  4.36816     51.2 1.519e+04 4.001e-08
  4.37831     50.2 1.537e+04 4.873e-08
  4.38959     51.0 1.505e+04 3.814e-08
  4.40989     51.8 1.478e+04 2.983e-08
  4.43020     52.5 1.458e+04 2.591e-08
  4.44766     53.2 1.458e+04 2.598e-08
  4.45781     52.6 1.492e+04 3.464e-08
  4.47081     53.3 1.484e+04 3.422e-08
  4.49112     54.2 1.472e+04 3.313e-08
  4.51142     55.1 1.449e+04 3.028e-08
  4.52597     56.1 1.419e+04 2.694e-08
  4.53155     55.7 1.441e+04 2.942e-08
  4.53731     55.2 1.424e+04 2.782e-08
  4.55203     56.1 1.394e+04 2.289e-08
  4.57234     56.9 1.370e+04 1.882e-08
  4.59264     58.0 1.346e+04 1.670e-08
  4.60666     59.2 1.341e+04 1.628e-08
  4.61681     59.0 1.310e+04 1.193e-08
  4.63325     60.3 1.297e+04 1.192e-08
  4.65356     61.7 1.273e+04 1.207e-08
  4.67387     63.1 1.245e+04 1.240e-08
  4.68616     64.3 1.222e+04 1.257e-08
  4.69631     64.5 1.220e+04 1.129e-08
  4.70747     65.8 1.204e+04 1.212e-08
  4.71762     65.9 1.192e+04 1.039e-08
  4.73478     67.1 1.178e+04 1.076e-08
  4.75509     68.4 1.165e+04 1.074e-08
  4.76566     69.6 1.146e+04 1.019e-08
  4.77581     70.0 1.186e+04 1.261e-08
  4.79570     71.2 1.167e+04 1.186e-08
  4.81600     72.1 1.142e+04 1.086e-08
  4.83500     73.0 1.114e+04 9.827e-09
  4.84516     73.6 1.214e+04 1.430e-08
  4.85661     74.4 1.162e+04 1.195e-08
  4.87692     74.9 1.122e+04 1.071e-08
  4.88897     75.3 1.121e+04 1.105e-08
  4.89912     75.5 1.144e+04 1.233e-08
  4.91450     75.9 1.151e+04 1.366e-08
  4.92466     76.1 1.188e+04 1.548e-08
  4.93784     76.4 1.204e+04 1.812e-08
  4.95814     76.9 1.230e+04 2.090e-08
  4.97845     77.4 1.236e+04 2.123e-08
  4.99400     78.0 1.226e+04 1.987e-08
  5.00416     77.5 1.269e+04 2.447e-08
  5.01906     78.3 1.233e+04 2.008e-08
  5.03936     79.2 1.185e+04 1.492e-08
  5.05967     80.1 1.144e+04 1.109e-08
  5.07047     80.8 1.115e+04 9.008e-09
  5.07415     81.0 1.130e+04 9.082e-09
  5.08366     80.2 1.198e+04 1.257e-08
  5.10028     81.1 1.174e+04 1.073e-08
  5.12058     82.2 1.160e+04 1.043e-08
  5.14089     83.4 1.169e+04 1.086e-08
  5.15300     84.4 1.203e+04 1.261e-08
  5.16316     83.1 1.396e+04 2.770e-08
  5.18150     83.7 1.456e+04 3.683e-08
  5.20181     84.3 1.514e+04 4.885e-08
  5.22211     85.2 1.568e+04 6.151e-08
  5.23245     85.0 1.641e+04 8.647e-08
  5.24200     83.8 1.701e+04 1.076e-07
  5.25197     83.5 1.697e+04 9.600e-08
  5.26272     83.2 1.699e+04 1.036e-07
  5.28303     82.5 1.733e+04 1.266e-07
  5.30185     81.7 1.772e+04 1.609e-07
  5.31200     79.7 1.728e+04 9.102e-08
  5.32364     78.4 1.737e+04 8.506e-08
  5.34394     77.3 1.733e+04 7.105e-08
  5.36425     76.1 1.655e+04 4.359e-08
  5.38135     74.8 1.520e+04 2.527e-08
  5.39150     72.3 1.251e+04 9.503e-09
  5.40486     71.6 1.141e+04 7.444e-09
  5.42331     71.5 1.079e+04 6.244e-09
  5.43347     71.0 1.041e+04 5.161e-09
  5.44547     71.3 1.025e+04 4.824e-09
  5.46085     71.8 1.018e+04 4.757e-09
  5.47100     71.3 1.019e+04 4.840e-09
  5.48608     72.1 1.020e+04 4.933e-09
  5.50639     72.9 1.031e+04 5.186e-09
  5.52669     73.6 1.045e+04 5.512e-09
  5.54035     74.3 1.060e+04 5.928e-09
  5.55050     73.4 1.079e+04 6.361e-09
  5.56730     73.7 1.097e+04 7.136e-09
  5.58761     73.8 1.112e+04 8.045e-09
  5.60481     74.0 1.125e+04 8.926e-09
  5.61496     73.5 1.123e+04 8.338e-09
  5.61985     73.5 1.144e+04 9.368e-09
  5.63000     71.6 1.190e+04 1.224e-08
  5.64853     70.9 1.234e+04 1.515e-08
  5.66883     70.1 1.283e+04 1.988e-08
  5.68914     69.5 1.325e+04 2.577e-08
  5.70944     67.0 1.358e+04 2.875e-08
  5.72975     66.4 1.358e+04 2.776e-08
  5.75005     65.6 1.346e+04 2.394e-08
  5.76870     64.6 1.336e+04 2.015e-08
  5.77885     61.6 1.343e+04 1.871e-08
  5.78631     60.1 1.347e+04 1.939e-08
  5.79646     59.9 1.330e+04 1.626e-08
  5.81097     58.5 1.358e+04 1.815e-08
  5.83128     57.1 1.392e+04 2.164e-08
  5.84820     55.7 1.432e+04 2.549e-08
  5.85835     50.4 1.608e+04 6.057e-08
  5.87189     49.1 1.606e+04 5.079e-08
  5.89219     47.8 1.570e+04 3.943e-08
  5.91250     46.8 1.515e+04 3.252e-08
  5.92770     46.1 1.464e+04 2.884e-08
  5.93785     41.1 1.441e+04 2.704e-08
  5.95311     41.4 1.393e+04 2.463e-08
  5.96781     41.8 1.360e+04 2.327e-08
  5.97796     41.6 1.341e+04 2.030e-08
  5.99372     42.2 1.322e+04 2.011e-08
  6.00720     42.8 1.316e+04 2.064e-08
  6.01735     40.3 1.293e+04 1.697e-08
  6.03433     41.3 1.294e+04 1.820e-08
  6.05463     42.2 1.296e+04 1.945e-08
  6.07494     43.2 1.295e+04 2.067e-08
  6.08670     44.1 1.297e+04 2.195e-08
  6.09685     42.6 1.252e+04 1.404e-08
  6.11555     43.8 1.246e+04 1.420e-08
  6.13586     44.9 1.239e+04 1.404e-08
  6.14931     45.9 1.229e+04 1.362e-08
  6.15934     46.3 1.200e+04 1.078e-08
  6.16620     45.1 1.169e+04 6.656e-09
  6.17647     46.3 1.177e+04 6.848e-09
  6.19677     47.4 1.203e+04 7.574e-09
  6.21708     48.2 1.240e+04 9.210e-09
  6.23554     48.5 1.281e+04 1.198e-08
  6.24570     45.4 1.427e+04 2.075e-08
  6.25769     46.0 1.564e+04 3.735e-08
  6.27799     46.4 1.711e+04 7.157e-08
  6.29317     46.0 1.765e+04 1.028e-07
  6.30328     45.6 1.829e+04 1.391e-07
  6.31343     45.5 1.881e+04 1.856e-07
  6.32002     45.5 1.917e+04 2.460e-07
  6.32510     44.2 1.882e+04 2.492e-07
  6.33071     44.2 1.911e+04 3.271e-07
  6.33579     44.0 1.895e+04 2.853e-07
  6.34389     43.6 1.913e+04 3.616e-07
  6.35404     43.0 1.918e+04 4.453e-07
  6.35977     42.2 1.925e+04 5.102e-07
  6.36485     41.2 1.888e+04 3.921e-07
  6.37435     40.3 1.886e+04 3.869e-07
  6.38450     39.4 1.877e+04 3.635e-07
  6.39444     38.4 1.874e+04 3.542e-07
  6.39952     38.1 1.821e+04 2.037e-07
  6.40481     36.8 1.835e+04 2.259e-07
  6.41496     35.2 1.861e+04 2.750e-07
  6.42146     33.6 1.867e+04 3.436e-07
  6.42654     33.7 1.865e+04 2.990e-07
  6.43419     32.6 1.858e+04 3.497e-07
  6.43927     32.7 1.823e+04 2.538e-07
  6.44542     32.0 1.853e+04 3.300e-07
  6.45557     30.9 1.873e+04 3.902e-07
  6.46572     29.9 1.853e+04 3.816e-07
  6.47394     30.0 1.787e+04 2.878e-07
  6.47902     29.1 1.833e+04 3.542e-07
  6.48603     26.4 1.964e+04 3.468e-07
  6.49618     14.4 2.110e+04 9.729e-07
  6.50633      5.4 1.901e+04 1.577e-06
  6.51221      3.1 1.840e+04 1.093e-06
  6.51450      3.3 1.803e+04 1.474e-06
  6.51877      4.9 1.791e+04 2.170e-06
  6.52664      3.6 1.962e+04 5.484e-07
  6.53679     -2.4 2.104e+04 9.524e-08
  6.54694    -10.6 1.697e+04 3.232e-08
  6.55344    -16.0 1.417e+04 1.453e-08
  6.56365    -18.9 1.291e+04 9.536e-09
  6.58258    -19.1 1.247e+04 6.875e-09
  6.60288    -20.0 1.210e+04 5.619e-09
  6.62289    -20.5 1.198e+04 5.574e-09
  6.63304    -20.9 1.174e+04 4.997e-09
  6.64349    -20.9 1.170e+04 5.675e-09
  6.66380    -20.9 1.151e+04 6.741e-09
  6.68366    -20.2 1.125e+04 7.649e-09
  6.69381    -19.4 1.114e+04 6.240e-09
  6.70239    -18.8 1.098e+04 6.627e-09
  6.71254    -18.8 1.102e+04 6.000e-09
  6.72471    -18.3 1.084e+04 5.656e-09
  6.74502    -17.9 1.061e+04 4.595e-09
  6.76532    -17.6 1.032e+04 3.526e-09
  6.78189    -17.4 1.004e+04 2.615e-09
  6.79204    -17.2 1.012e+04 2.985e-09
  6.81619    -16.5 1.003e+04 2.140e-09
  6.85520    -15.3 9.434e+03 1.561e-09
  6.87550    -13.9 9.480e+03 1.565e-09
  6.89751    -12.7 9.267e+03 1.425e-09
  6.93093    -11.3 9.195e+03 1.708e-09
  6.95124    -11.2 9.561e+03 1.989e-09
  6.97873     -9.9 9.585e+03 2.258e-09
  7.01934     -8.9 9.435e+03 2.344e-09
  7.05995     -7.9 9.360e+03 1.985e-09
  7.08993     -7.6 9.225e+03 1.727e-09
  7.11024     -8.2 9.677e+03 1.960e-09
  7.14117     -8.2 9.750e+03 2.307e-09
  7.18178     -7.8 9.889e+03 2.959e-09
  7.21820     -7.5 1.018e+04 3.058e-09
  7.23850     -7.4 1.046e+04 4.088e-09
  7.24883     -7.8 1.073e+04 4.022e-09
  7.25889     -9.7 1.109e+04 5.131e-09
  7.27296     -9.7 1.110e+04 5.190e-09
  7.29327    -10.1 1.118e+04 6.370e-09
  7.31357    -10.4 1.177e+04 7.497e-09
  7.32823    -11.2 1.213e+04 1.109e-08
  7.33839    -12.9 1.258e+04 1.075e-08
  7.35418    -13.2 1.312e+04 1.248e-08
  7.37449    -13.6 1.338e+04 1.474e-08
  7.39479    -13.9 1.377e+04 1.495e-08
  7.40773    -15.5 1.442e+04 1.530e-08
  7.41244    -18.8 1.436e+04 1.315e-08
  7.41981    -19.1 1.438e+04 1.232e-08
  7.43540    -22.0 1.456e+04 1.300e-08
  7.45571    -24.9 1.495e+04 1.557e-08
  7.47602    -28.0 1.532e+04 1.729e-08
  7.48723    -31.3 1.469e+04 1.825e-08
  7.49739    -34.3 1.440e+04 1.932e-08
  7.51663    -36.1 1.380e+04 1.644e-08
  7.53693    -38.1 1.321e+04 1.237e-08
  7.55658    -40.0 1.272e+04 1.005e-08
  7.56673    -41.8 1.245e+04 1.124e-08
  7.57754    -42.9 1.212e+04 9.657e-09
  7.59115    -43.4 1.185e+04 8.418e-09
  7.60131    -44.0 1.160e+04 6.851e-09
  7.61815    -44.1 1.142e+04 5.926e-09
  7.63608    -44.2 1.119e+04 4.867e-09
  7.64623    -45.0 1.108e+04 4.512e-09
  7.65876    -45.1 1.079e+04 3.745e-09
  7.67907    -45.0 1.061e+04 3.277e-09
  7.70553    -44.6 1.050e+04 2.778e-09
  7.72593    -45.6 1.045e+04 3.049e-09
  7.75033    -44.5 1.018e+04 2.599e-09
  7.79094    -43.4 9.878e+03 2.041e-09
  7.83156    -42.7 9.629e+03 1.647e-09
  7.86462    -42.0 9.411e+03 1.436e-09
  7.88493    -42.6 9.291e+03 1.509e-09
  7.91278    -41.7 9.079e+03 1.385e-09
  7.94419    -40.6 8.920e+03 1.273e-09
  7.96450    -40.5 8.908e+03 1.047e-09
  7.99400    -39.4 8.787e+03 9.921e-10
  8.02362    -38.4 8.708e+03 9.242e-10
  8.04393    -38.2 8.596e+03 7.530e-10
  8.07522    -37.0 8.518e+03 6.434e-10
  8.11583    -35.8 8.423e+03 5.959e-10
  8.15644    -34.4 8.344e+03 5.710e-10
  8.18262    -33.0 8.259e+03 5.418e-10
  8.20293    -32.9 8.217e+03 4.169e-10
  8.23766    -31.5 8.143e+03 4.218e-10
  8.27828    -30.3 8.127e+03 4.325e-10
  8.30719    -29.1 8.113e+03 4.625e-10
  8.32750    -29.0 8.176e+03 4.898e-10
  8.34162    -27.7 8.141e+03 5.344e-10
  8.36193    -27.9 8.105e+03 5.386e-10
  8.40011    -26.7 8.071e+03 5.386e-10
  8.44072    -25.5 8.045e+03 5.361e-10
  8.48032    -24.5 8.034e+03 5.442e-10
  8.50062    -24.9 8.074e+03 5.548e-10
  8.52194    -24.0 7.954e+03 6.000e-10
  8.56255    -23.4 8.028e+03 6.914e-10
  8.60316    -23.7 8.363e+03 9.012e-10
  8.63932    -25.5 8.999e+03 1.556e-09
  8.65962    -27.1 9.191e+03 2.759e-09
  8.67009    -27.2 9.520e+03 4.734e-09
  8.69040    -27.4 9.570e+03 4.732e-09
  8.72499    -27.9 9.709e+03 3.911e-09
  8.76561    -30.0 9.344e+03 2.190e-09
  8.79832    -31.7 8.792e+03 1.840e-09
  8.81862    -32.5 8.779e+03 1.834e-09
  8.84683    -32.7 8.784e+03 1.935e-09
  8.88744    -33.4 8.987e+03 2.022e-09
  8.91780    -34.3 9.491e+03 2.684e-09
  8.93801    -34.7 9.617e+03 2.887e-09
  8.95712    -36.1 9.692e+03 4.666e-09
  8.96727    -37.1 9.800e+03 5.614e-09
  8.97862    -36.7 1.006e+04 6.346e-09
  8.99892    -36.7 1.017e+04 6.225e-09
  9.01923    -37.0 1.026e+04 5.731e-09
  9.03300    -37.7 1.030e+04 5.094e-09
  9.04023    -37.0 1.024e+04 4.794e-09
  9.04677    -38.0 1.023e+04 4.166e-09
  9.05984    -38.5 1.015e+04 3.986e-09
  9.08014    -38.9 1.020e+04 4.354e-09
  9.10045    -39.5 1.051e+04 5.127e-09
  9.11612    -41.6 1.183e+04 8.079e-09
  9.12627    -43.9 1.237e+04 1.219e-08
  9.14106    -46.0 1.317e+04 2.515e-08
  9.16137    -46.5 1.397e+04 4.376e-08
  9.18167    -46.5 1.446e+04 5.168e-08
  9.19562    -47.0 1.466e+04 4.187e-08
  9.20577    -48.0 1.393e+04 1.761e-08
  9.21450    -50.7 1.299e+04 6.027e-09
  9.22465    -48.3 1.362e+04 1.279e-08
  9.24259    -51.4 1.243e+04 4.360e-09
  9.26289    -53.8 1.147e+04 2.285e-09
  9.27512    -55.0 1.083e+04 1.853e-09
  9.29552    -55.5 1.045e+04 1.603e-09
  9.33416    -54.5 1.036e+04 1.739e-09
  9.37477    -53.2 1.049e+04 2.316e-09
  9.39609    -51.9 1.070e+04 3.334e-09
  9.40615    -51.3 1.063e+04 3.087e-09
  9.42397    -51.1 1.068e+04 4.047e-09
  9.43412    -51.6 1.068e+04 5.149e-09
  9.44564    -50.7 1.106e+04 7.280e-09
  9.46595    -50.6 1.134e+04 9.841e-09
  9.48625    -49.8 1.202e+04 1.418e-08
  9.50347    -49.7 1.239e+04 1.802e-08
  9.51362    -50.6 1.257e+04 2.082e-08
  9.52686    -49.9 1.303e+04 2.570e-08
  9.54717    -49.8 1.311e+04 2.676e-08
  9.56734    -49.6 1.319e+04 2.690e-08
  9.57749    -48.3 1.303e+04 2.587e-08
  9.58297    -48.3 1.289e+04 2.358e-08
  9.59312    -49.5 1.274e+04 2.332e-08
  9.60809    -49.9 1.264e+04 2.220e-08
  9.62839    -50.2 1.250e+04 2.145e-08
  9.64870    -50.2 1.250e+04 2.289e-08
  9.66247    -50.2 1.250e+04 2.361e-08
  9.67262    -51.2 1.191e+04 1.759e-08
  9.68931    -51.2 1.172e+04 1.657e-08
  9.70961    -51.3 1.136e+04 1.340e-08
  9.72992    -51.5 1.093e+04 9.815e-09
  9.74197    -52.1 1.045e+04 7.029e-09
  9.75073    -52.9 1.018e+04 6.025e-09
  9.75899    -51.8 1.017e+04 6.144e-09
  9.77053    -52.5 9.865e+03 4.847e-09
  9.79083    -53.0 9.676e+03 4.377e-09
  9.81114    -53.3 9.618e+03 4.271e-09
  9.82146    -53.5 9.623e+03 4.440e-09
  9.83162    -53.9 9.569e+03 4.375e-09
  9.85175    -53.9 9.616e+03 4.941e-09
  9.87206    -53.9 9.740e+03 5.607e-09
  9.89081    -53.9 9.914e+03 6.391e-09
  9.90096    -53.8 9.897e+03 6.021e-09
  9.91267    -54.1 1.009e+04 6.428e-09
  9.93034    -54.6 1.023e+04 6.829e-09
  9.94049    -53.5 1.029e+04 7.366e-09
  9.95328    -53.9 1.049e+04 8.160e-09
  9.97031    -54.3 1.070e+04 8.729e-09
  9.98046    -54.2 1.022e+04 6.332e-09
  9.99389    -54.4 1.028e+04 6.345e-09
 10.01419    -54.9 1.019e+04 5.671e-09
 10.03450    -55.2 1.011e+04 4.779e-09
 10.04981    -55.9 9.843e+03 3.724e-09
 10.05996    -55.6 9.448e+03 3.043e-09
 10.07511    -55.7 9.424e+03 2.750e-09
 10.10178    -56.2 9.108e+03 2.165e-09
 10.12209    -55.5 9.341e+03 2.393e-09
 10.14628    -55.1 9.290e+03 2.233e-09
 10.18699    -54.7 9.349e+03 2.182e-09
 10.20901    -54.2 9.472e+03 2.282e-09
 10.22931    -52.8 9.034e+03 1.739e-09
 10.26821    -52.6 9.041e+03 1.645e-09
 10.30882    -51.9 9.030e+03 1.779e-09
 10.34770    -50.8 9.040e+03 1.916e-09
 10.36801    -49.8 8.892e+03 1.513e-09
 10.39004    -48.6 8.871e+03 1.577e-09
 10.43065    -47.2 8.884e+03 1.594e-09
 10.46488    -45.6 8.840e+03 1.561e-09
 10.48519    -45.1 8.802e+03 1.551e-09
 10.50670    -43.2 8.829e+03 1.480e-09
 10.52701    -42.6 8.874e+03 1.552e-09
 10.55248    -40.7 8.895e+03 1.349e-09
 10.59309    -38.9 8.852e+03 1.074e-09
 10.63371    -37.2 8.770e+03 9.245e-10
 10.66570    -35.4 8.699e+03 8.858e-10
 10.68601    -35.0 8.795e+03 1.054e-09
 10.71493    -33.0 8.778e+03 1.079e-09
 10.75554    -31.2 8.820e+03 1.226e-09
 10.79615    -29.6 8.935e+03 1.537e-09
 10.82470    -27.9 9.194e+03 2.281e-09
 10.83613    -28.3 9.190e+03 2.176e-09
 10.84819    -27.5 9.180e+03 1.922e-09
 10.87737    -26.0 9.589e+03 2.956e-09
 10.90410    -25.4 9.843e+03 4.289e-09
 10.91416    -25.7 9.832e+03 4.287e-09
 10.92794    -25.7 1.020e+04 4.919e-09
 10.94824    -25.7 1.042e+04 6.700e-09
 10.96855    -26.1 1.085e+04 8.114e-09
 10.98350    -25.4 1.097e+04 1.180e-08
 10.99366    -25.1 1.064e+04 8.314e-09
 11.00916    -24.4 1.083e+04 8.451e-09
 11.02947    -23.4 1.107e+04 7.927e-09
 11.04977    -23.2 1.080e+04 7.030e-09
 11.06300    -22.9 1.064e+04 5.424e-09
 11.07316    -22.9 1.039e+04 4.034e-09
 11.09038    -22.7 1.017e+04 3.484e-09
 11.12094    -23.2 1.025e+04 2.506e-09
 11.14270    -23.1 1.009e+04 2.462e-09
 11.16300    -22.7 9.805e+03 1.577e-09
 11.19088    -22.5 9.788e+03 2.460e-09
 11.21118    -21.2 9.864e+03 2.581e-09
 11.24287    -19.9 9.737e+03 3.040e-09
 11.28139    -17.6 9.742e+03 2.053e-09
 11.30170    -17.0 9.578e+03 1.728e-09
 11.32409    -15.3 9.635e+03 1.018e-09
 11.36470    -14.7 9.652e+03 7.271e-10
 11.40531    -13.7 9.587e+03 7.866e-10
 11.44039    -12.3 9.534e+03 1.035e-09
 11.46070    -11.1 9.491e+03 9.937e-10
 11.48653     -9.1 9.531e+03 1.283e-09
 11.52714     -7.4 9.699e+03 1.319e-09
 11.55388     -6.0 9.746e+03 1.300e-09
 11.57418     -4.9 9.792e+03 1.313e-09
 11.59939     -3.5 9.773e+03 1.275e-09
 11.61970     -2.2 9.794e+03 1.324e-09
 11.64898     -0.8 9.786e+03 1.273e-09
 11.68959      0.5 9.815e+03 1.119e-09
 11.73020      1.7 9.813e+03 1.069e-09
 11.75839      2.2 9.899e+03 1.186e-09
 11.77870      3.3 1.006e+04 1.248e-09
 11.81142      3.2 1.009e+04 1.794e-09
 11.85203      3.4 1.032e+04 2.996e-09
 11.88239      3.5 1.056e+04 3.676e-09
 11.90260      3.4 1.076e+04 4.189e-09
 11.91668      3.0 1.086e+04 4.501e-09
 11.92112      3.5 1.084e+04 4.317e-09
 11.92735      3.5 1.102e+04 4.544e-09
 11.94321      2.6 1.100e+04 5.016e-09
 11.96352      1.6 1.079e+04 5.506e-09
 11.98382      1.1 1.057e+04 5.326e-09
 12.01438      0.8 1.028e+04 4.661e-09
 12.05509      0.9 9.618e+03 2.814e-09
 12.07639      0.5 9.326e+03 1.604e-09
 12.09670      0.6 9.301e+03 1.541e-09
 12.13631      0.1 9.027e+03 1.255e-09
 12.17692      0.0 8.910e+03 1.382e-09
 12.21509      0.4 8.837e+03 1.765e-09
 12.23539      0.5 8.979e+03 2.094e-09
 12.25814      1.2 8.934e+03 2.261e-09
 12.27988      2.3 8.773e+03 1.931e-09
 12.30018      3.6 8.898e+03 2.226e-09
 12.33936      4.5 8.750e+03 1.802e-09
 12.37408      5.4 8.621e+03 1.716e-09
 12.39439      5.4 8.697e+03 2.063e-09
 12.42058      6.2 8.723e+03 2.345e-09
 12.46119      7.7 8.843e+03 3.121e-09
 12.50181      9.4 8.939e+03 3.596e-09
 12.53308     11.1 8.988e+03 3.671e-09
 12.55339     11.3 9.084e+03 4.049e-09
 12.57278     12.2 9.169e+03 4.214e-09
 12.59298     12.7 9.262e+03 4.398e-09
 12.61239     13.1 9.433e+03 4.837e-09
 12.62254     13.0 9.444e+03 4.921e-09
 12.63253     13.1 9.697e+03 5.878e-09
 12.64268     13.8 9.747e+03 5.935e-09
 12.65390     13.8 1.011e+04 7.693e-09
 12.67421     13.6 1.061e+04 1.087e-08
 12.69189     13.3 1.121e+04 1.560e-08
 12.70204     13.3 1.121e+04 1.580e-08
 12.71482     13.0 1.152e+04 1.847e-08
 12.73512     13.2 1.126e+04 1.656e-08
 12.75543     12.8 1.082e+04 1.301e-08
 12.78598     12.8 9.920e+03 7.435e-09
 12.82669     11.9 8.721e+03 3.054e-09
 12.85108     11.1 8.080e+03 1.909e-09
 12.87139     12.7 7.949e+03 1.758e-09
 12.90791     13.4 7.896e+03 1.834e-09
 12.94853     14.5 7.933e+03 2.223e-09
 12.98557     16.0 8.098e+03 2.769e-09
 13.00587     16.9 8.151e+03 2.624e-09
 13.01008     18.2 8.435e+03 3.272e-09
 13.03039     19.8 8.496e+03 3.771e-09
 13.07036     20.8 8.636e+03 3.774e-09
 13.11097     21.4 8.716e+03 3.738e-09
 13.14878     21.8 8.864e+03 3.898e-09
 13.16908     23.6 8.658e+03 3.583e-09
 13.19219     24.1 8.872e+03 3.857e-09
 13.23280     24.7 9.079e+03 4.473e-09
 13.27341     25.2 9.229e+03 4.616e-09
 13.30778     25.8 9.161e+03 4.246e-09
 13.32808     27.1 9.670e+03 6.276e-09
 13.34857     27.5 9.614e+03 5.744e-09
 13.36887     27.6 1.004e+04 7.294e-09
 13.39524     28.1 9.624e+03 4.991e-09
 13.43586     28.5 9.028e+03 3.116e-09
 13.46678     29.2 8.534e+03 1.890e-09
 13.48708     29.8 9.473e+03 2.090e-09
 13.51708     30.3 8.851e+03 1.134e-09
 13.55769     31.3 8.496e+03 7.540e-10
 13.59830     33.0 8.432e+03 7.268e-10
 13.62578     34.7 8.442e+03 7.700e-10
 13.64608     34.8 8.882e+03 1.101e-09
 13.67952     36.8 8.844e+03 1.313e-09
 13.71157     39.0 8.884e+03 1.734e-09
 13.73187     38.7 8.924e+03 1.918e-09
 13.76074     40.9 8.985e+03 2.288e-09
 13.78478     42.7 9.184e+03 2.403e-09
 13.80508     42.8 9.669e+03 3.706e-09
 13.84196     44.5 9.824e+03 4.552e-09
 13.88258     45.8 1.004e+04 4.725e-09
 13.92319     47.0 1.000e+04 4.485e-09
 13.94378     48.3 9.913e+03 3.656e-09
 13.96408     48.5 1.021e+04 4.751e-09
 14.00441     49.9 9.973e+03 3.021e-09
 14.04502     51.2 9.813e+03 2.058e-09
 14.07456     52.9 9.409e+03 1.964e-09
 14.09171     52.6 9.344e+03 1.208e-09
 14.10278     52.7 9.494e+03 1.043e-09
 14.12624     55.0 9.429e+03 1.086e-09
 14.16685     57.3 9.347e+03 1.214e-09
 14.20746     59.6 9.306e+03 1.405e-09
 14.24147     61.7 9.314e+03 1.650e-09
 14.26177     61.5 9.839e+03 2.552e-09
 14.28868     63.5 1.003e+04 3.897e-09
 14.32929     65.5 1.024e+04 5.712e-09
 14.36991     67.0 1.027e+04 6.789e-09
 14.40047     68.3 1.016e+04 6.499e-09
 14.42077     67.3 1.114e+04 1.060e-08
 14.43756     68.5 1.051e+04 7.230e-09
 14.45787     68.0 1.034e+04 5.593e-09
 14.47987     68.6 1.004e+04 4.783e-09
 14.48993     68.5 1.014e+04 4.931e-09
 14.50170     69.0 9.986e+03 4.506e-09
 14.52200     69.6 9.825e+03 4.208e-09
 14.54231     70.4 9.632e+03 4.154e-09
 14.55927     71.3 9.559e+03 4.180e-09
 14.56943     70.4 9.599e+03 4.724e-09
 14.58292     71.5 9.587e+03 4.740e-09
 14.60322     72.6 9.609e+03 4.833e-09
 14.61887     73.6 9.670e+03 5.037e-09
 14.62902     73.3 9.786e+03 5.507e-09
 14.63877     74.2 9.888e+03 5.930e-09
 14.64893     73.7 9.867e+03 5.985e-09
 14.66414     74.6 9.899e+03 6.223e-09
 14.68444     75.4 9.942e+03 6.433e-09
 14.70475     76.1 9.996e+03 6.542e-09
 14.71827     76.8 1.002e+04 6.549e-09
 14.72843     76.3 9.902e+03 5.772e-09
 14.74536     76.9 9.939e+03 5.752e-09
 14.76567     77.5 9.983e+03 5.813e-09
 14.78597     78.0 1.006e+04 6.033e-09
 14.79777     78.5 1.018e+04 6.465e-09
 14.80202     77.4 1.058e+04 7.174e-09
 14.81052     75.7 1.123e+04 1.085e-08
 14.82658     76.0 1.163e+04 1.379e-08
 14.84689     76.4 1.198e+04 1.725e-08
 14.86712     77.1 1.227e+04 2.074e-08
 14.88743     77.3 1.326e+04 3.345e-08
 14.90780     78.4 1.333e+04 3.257e-08
 14.92811     79.4 1.338e+04 2.943e-08
 14.94662     80.2 1.325e+04 2.530e-08
 14.95677     78.7 1.351e+04 2.540e-08
 14.96872     79.3 1.290e+04 2.042e-08
 14.98187     80.0 1.225e+04 1.691e-08
 14.99202     78.4 1.158e+04 1.378e-08
 15.00933     80.0 1.130e+04 1.208e-08
 15.02612     81.7 1.117e+04 1.101e-08
 15.03627     81.0 1.099e+04 1.023e-08
 15.04994     82.4 1.081e+04 9.314e-09
 15.07025     83.8 1.057e+04 8.584e-09
 15.09055     85.5 1.035e+04 8.181e-09
 15.10562     87.4 1.029e+04 8.157e-09
 15.11577     86.8 1.010e+04 7.740e-09
 15.13116     88.6 1.011e+04 7.852e-09
 15.15147     90.3 1.012e+04 8.073e-09
 15.16337     92.2 1.017e+04 8.382e-09
 15.17352     91.6 9.790e+03 6.597e-09
 15.18512     93.8 9.903e+03 7.015e-09
 15.19527     93.2 9.755e+03 6.530e-09
 15.21239     95.2 9.955e+03 7.129e-09
 15.23269     97.0 1.018e+04 7.883e-09
 15.25300     99.0 1.047e+04 8.852e-09
 15.26462    101.2 1.090e+04 1.023e-08
 15.27477     99.8 1.130e+04 1.285e-08
 15.29361    101.9 1.196e+04 1.655e-08
 15.31391    104.0 1.263e+04 2.140e-08
 15.33397    106.5 1.358e+04 2.870e-08
 15.34412    105.2 1.421e+04 4.150e-08
 15.34487    108.0 1.519e+04 5.351e-08
 15.35502    106.2 1.518e+04 5.177e-08
 15.36970    108.2 1.558e+04 5.749e-08
 15.37869    109.7 1.592e+04 6.351e-08
 15.38377    108.9 1.598e+04 6.980e-08
 15.38996    109.8 1.640e+04 8.104e-08
 15.40011    110.7 1.684e+04 9.350e-08
 15.41027    111.5 1.723e+04 1.077e-07
 15.41844    112.0 1.764e+04 1.230e-07
 15.42352    111.3 1.737e+04 1.254e-07
 15.43044    111.7 1.752e+04 1.398e-07
 15.43552    109.5 1.717e+04 1.076e-07
 15.44072    109.1 1.755e+04 1.150e-07
 15.45088    108.4 1.824e+04 1.238e-07
 15.45819    106.8 1.935e+04 1.425e-07
 15.46327    107.9 1.818e+04 1.058e-07
 15.47118    106.1 1.941e+04 1.171e-07
 15.48134    102.8 2.111e+04 1.553e-07
 15.49149     97.6 2.176e+04 2.748e-07
 15.49794     91.2 2.086e+04 5.760e-07
 15.50302     95.1 2.231e+04 2.243e-07
 15.51179     88.2 2.115e+04 5.416e-07
 15.52119     82.5 1.988e+04 9.614e-07
 15.52627     82.8 1.964e+04 9.213e-07
 15.53210     78.5 1.959e+04 9.682e-07
 15.53769     74.6 1.975e+04 8.036e-07
 15.54277     77.4 1.947e+04 9.101e-07
 15.55240     74.2 1.972e+04 7.033e-07
 15.56256     70.2 2.224e+04 3.545e-07
 15.57237     63.1 2.684e+04 1.523e-07
 15.57744     69.2 2.362e+04 2.574e-07
 15.58286     61.0 3.001e+04 1.016e-07
 15.59301     53.1 2.731e+04 9.016e-08
 15.60317     46.0 2.278e+04 8.924e-08
 15.61845     45.7 2.065e+04 9.773e-08
 15.63880     45.1 1.900e+04 1.454e-07
 15.65192     46.2 1.898e+04 2.003e-07
 15.65694     45.9 1.938e+04 3.113e-07
 15.66408     46.8 1.936e+04 5.064e-07
 15.67424     47.4 1.934e+04 8.432e-07
 15.68439     48.2 1.886e+04 1.682e-06
 15.69162     49.6 1.778e+04 4.132e-06
 15.69669     47.9 1.660e+04 1.181e-05
 15.70269     46.1 1.618e+04 1.955e-05
 15.70774     47.0 1.563e+04 3.856e-05
 15.71144     45.5 1.524e+04 5.164e-05
 15.71398     42.4 1.598e+04 3.305e-05
 15.71734     38.8 1.617e+04 2.880e-05
 15.72241     35.4 1.671e+04 1.901e-05
 15.72749     31.5 1.758e+04 1.148e-05
 15.73134     28.2 1.810e+04 8.547e-06
 15.73644     21.8 2.131e+04 2.047e-06
 15.74531     18.3 2.247e+04 1.181e-06
 15.75546     16.8 2.248e+04 9.390e-07
 15.76561     17.3 2.212e+04 9.418e-07
 15.77112     18.1 2.182e+04 1.022e-06
 15.77619     16.8 2.283e+04 7.324e-07
 15.78592     17.1 2.231e+04 9.455e-07
 15.79344     17.1 2.141e+04 1.374e-06
 15.79852     10.9 2.324e+04 3.917e-07
 15.80579     10.2 2.247e+04 4.824e-07
 15.81087      8.4 2.163e+04 1.566e-07
 15.81637      7.4 2.127e+04 1.696e-07
 15.82653      6.0 2.060e+04 2.214e-07
 15.83668      4.3 1.972e+04 3.514e-07
 15.84554      2.5 1.919e+04 4.047e-07
 15.85062      3.5 1.837e+04 1.263e-07
 15.85699      2.9 1.830e+04 1.295e-07
 15.86714      2.7 1.862e+04 1.217e-07
 15.87729      2.6 1.909e+04 1.122e-07
 15.88419      2.3 1.919e+04 1.064e-07
 15.88711      1.0 1.547e+04 3.389e-08
 15.89037      1.9 1.421e+04 2.451e-08
 15.89760      1.8 1.492e+04 2.926e-08
 15.90775      2.7 1.537e+04 3.373e-08
 15.92303      4.4 1.632e+04 3.937e-08
 15.94338      6.1 1.523e+04 3.745e-08
 15.95981      7.3 1.499e+04 3.482e-08
 15.96996      8.5 1.255e+04 1.776e-08
 15.98399      9.2 1.241e+04 1.517e-08
 16.00430     10.0 1.223e+04 1.321e-08
 16.02460     11.2 1.204e+04 1.289e-08
 16.03931     12.7 1.207e+04 1.363e-08
 16.04946     13.5 1.123e+04 8.744e-09
 16.06071     15.1 1.131e+04 9.051e-09
 16.07086     15.4 1.070e+04 6.366e-09
 16.08552     16.7 1.063e+04 6.656e-09
 16.10582     18.2 1.055e+04 7.134e-09
 16.11881     19.8 1.063e+04 7.770e-09
 16.12896     20.1 1.045e+04 6.109e-09
 16.14644     21.6 1.049e+04 6.588e-09
 16.16674     23.1 1.055e+04 7.055e-09
 16.18705     24.6 1.059e+04 7.476e-09
 16.19831     25.9 1.060e+04 7.922e-09
 16.20846     26.4 1.027e+04 6.735e-09
 16.22766     27.9 1.028e+04 7.252e-09
 16.24221     29.4 1.036e+04 7.929e-09
 16.25236     29.3 1.028e+04 7.512e-09
 16.26766     30.8 1.040e+04 8.382e-09
 16.27781     31.9 1.014e+04 6.110e-09
 16.28857     33.3 1.035e+04 7.123e-09
 16.30888     34.5 1.054e+04 8.282e-09
 16.32918     35.8 1.070e+04 9.597e-09
 16.34716     36.9 1.086e+04 1.103e-08
 16.35731     37.5 1.047e+04 9.588e-09
 16.36980     38.6 1.068e+04 1.103e-08
 16.39010     39.6 1.093e+04 1.268e-08
 16.41041     40.4 1.118e+04 1.435e-08
 16.42371     41.2 1.144e+04 1.600e-08
 16.42981     41.5 1.115e+04 1.390e-08
 16.43681     42.6 1.081e+04 9.702e-09
 16.45102     43.3 1.097e+04 1.101e-08
 16.47132     44.0 1.116e+04 1.275e-08
 16.49163     44.4 1.145e+04 1.524e-08
 16.50616     44.6 1.189e+04 1.867e-08
 16.51631     45.7 1.129e+04 1.348e-08
 16.53224     46.1 1.168e+04 1.683e-08
 16.55254     46.4 1.219e+04 2.115e-08
 16.57285     46.5 1.261e+04 2.487e-08
 16.58566     46.5 1.268e+04 2.523e-08
 16.59581     48.2 1.237e+04 2.227e-08
 16.60521     48.3 1.245e+04 2.279e-08
 16.61536     48.7 1.224e+04 1.949e-08
 16.63377     48.7 1.235e+04 2.064e-08
 16.65407     48.7 1.235e+04 2.103e-08
 16.66516     48.4 1.245e+04 2.180e-08
 16.67531     50.0 1.224e+04 1.897e-08
 16.69468     49.9 1.243e+04 2.059e-08
 16.71499     49.7 1.276e+04 2.372e-08
 16.73450     49.6 1.309e+04 2.766e-08
 16.74466     51.2 1.295e+04 2.435e-08
 16.75560     51.3 1.339e+04 2.950e-08
 16.77590     51.3 1.369e+04 3.461e-08
 16.78671     51.3 1.370e+04 3.690e-08
 16.79686     51.6 1.452e+04 4.391e-08
 16.81400     51.7 1.450e+04 4.864e-08
 16.82416     53.2 1.524e+04 5.345e-08
 16.83682     53.2 1.549e+04 6.055e-08
 16.85713     52.6 1.555e+04 6.563e-08
 16.87743     51.4 1.577e+04 7.567e-08
 16.89350     50.0 1.627e+04 9.528e-08
 16.90361     50.2 1.756e+04 1.517e-07
 16.91287     48.9 1.781e+04 1.842e-07
 16.92302     47.9 1.803e+04 2.408e-07
 16.93316     46.6 1.834e+04 3.000e-07
 16.94331     45.3 1.892e+04 4.925e-07
 16.95348     43.8 1.859e+04 3.856e-07
 16.96303     43.1 1.804e+04 2.462e-07
 16.96811     42.8 1.852e+04 4.235e-07
 16.97291     42.5 1.804e+04 2.340e-07
 16.97798     42.6 1.833e+04 2.706e-07
 16.98394     42.2 1.773e+04 1.357e-07
 16.99922     40.8 1.670e+04 6.368e-08
 17.01957     37.9 1.384e+04 2.112e-08
 17.03987     36.5 1.195e+04 1.395e-08
 17.05250     37.0 1.126e+04 1.200e-08
 17.06266     37.0 1.152e+04 1.305e-08
 17.08049     38.1 1.117e+04 1.166e-08
 17.10079     39.4 1.099e+04 1.067e-08
 17.12110     40.4 1.087e+04 9.713e-09
 17.13200     41.3 1.075e+04 8.742e-09
 17.14031     41.4 1.075e+04 8.713e-09
 17.14971     41.4 1.100e+04 1.010e-08
 17.16171     42.1 1.088e+04 9.223e-09
 17.18201     42.6 1.074e+04 8.554e-09
 17.20135     43.1 1.069e+04 8.266e-09
 17.21150     43.5 1.064e+04 7.979e-09
 17.22262     44.1 1.066e+04 8.037e-09
 17.24293     44.8 1.077e+04 8.012e-09
 17.26323     45.1 1.089e+04 8.169e-09
 17.29379     45.3 1.103e+04 8.517e-09
 17.32125     45.7 1.129e+04 9.431e-09
 17.34155     47.0 1.139e+04 1.003e-08
 17.36055     47.6 1.158e+04 1.025e-08
 17.37060     48.2 1.135e+04 8.877e-09
 17.38507     48.1 1.130e+04 9.021e-09
 17.40537     48.5 1.136e+04 8.851e-09
 17.42568     48.8 1.129e+04 8.417e-09
 17.43985     49.4 1.133e+04 7.910e-09
 17.45000     50.3 1.133e+04 8.162e-09
 17.46629     50.9 1.135e+04 7.605e-09
 17.49684     51.9 1.154e+04 7.645e-09
 17.51955     52.7 1.174e+04 8.018e-09
 17.53985     54.8 1.181e+04 8.144e-09
 17.57816     55.6 1.197e+04 8.505e-09
 17.61877     56.4 1.200e+04 7.991e-09
 17.65824     57.5 1.189e+04 6.026e-09
 17.67854     59.3 1.227e+04 8.517e-09
 17.68425     60.6 1.189e+04 5.655e-09
 17.70455     62.3 1.239e+04 7.862e-09
 17.74061     63.5 1.207e+04 5.342e-09
 17.78122     65.1 1.178e+04 3.822e-09
 17.81724     67.1 1.172e+04 3.589e-09
 17.83745     68.0 1.164e+04 3.776e-09
 17.85209     69.2 1.168e+04 3.741e-09
 17.86555     69.9 1.170e+04 3.732e-09
 17.87570     70.3 1.191e+04 4.414e-09
 17.89270     71.5 1.195e+04 4.458e-09
 17.90670     72.0 1.195e+04 4.461e-09
 17.91685     72.8 1.201e+04 4.843e-09
 17.93331     73.6 1.198e+04 4.743e-09
 17.95362     73.9 1.198e+04 4.754e-09
 17.97392     74.8 1.182e+04 4.448e-09
 17.98620     75.2 1.178e+04 4.334e-09
 17.99635     75.8 1.187e+04 4.730e-09
 18.01454     76.6 1.171e+04 4.236e-09
 18.03484     77.0 1.162e+04 3.993e-09
 18.04705     77.9 1.147e+04 3.585e-09
 18.05720     77.9 1.152e+04 3.832e-09
 18.06570     78.5 1.139e+04 3.287e-09
 18.07585     79.0 1.153e+04 3.830e-09
 18.09576     79.8 1.136e+04 3.122e-09
 18.11606     80.4 1.122e+04 2.552e-09
 18.13514     81.6 1.102e+04 1.893e-09
 18.14529     81.9 1.122e+04 2.347e-09
 18.15667     82.4 1.114e+04 2.029e-09
 18.18723     84.3 1.100e+04 1.806e-09
 18.22794     86.6 1.071e+04 1.662e-09
 18.26855     89.1 1.068e+04 1.685e-09
 18.29424     91.6 1.069e+04 1.805e-09
 18.31454     92.7 1.102e+04 2.317e-09
 18.34977     94.8 1.098e+04 2.678e-09
 18.37364     95.8 1.084e+04 2.790e-09
 18.38369     96.1 1.084e+04 3.329e-09
 18.39990     97.5 1.078e+04 4.152e-09
 18.41005     97.4 1.081e+04 4.342e-09
 18.42064     98.8 1.094e+04 5.292e-09
 18.44095     99.8 1.118e+04 6.366e-09
 18.45304    100.4 1.141e+04 7.684e-09
 18.46319    101.5 1.167e+04 9.575e-09
 18.48156    101.8 1.189e+04 1.119e-08
 18.50187    102.0 1.204e+04 1.276e-08
 18.52217    102.1 1.207e+04 1.325e-08
 18.53254    102.1 1.200e+04 1.280e-08
 18.54269    103.1 1.241e+04 1.586e-08
 18.56278    103.0 1.224e+04 1.489e-08
 18.58140    103.0 1.193e+04 1.219e-08
 18.59155    102.3 1.212e+04 1.381e-08
 18.60189    102.3 1.177e+04 1.052e-08
 18.61204    102.8 1.238e+04 1.684e-08
 18.62370    102.8 1.203e+04 1.335e-08
 18.64400    102.9 1.163e+04 9.765e-09
 18.66431    102.9 1.120e+04 6.859e-09
 18.68139    103.0 1.082e+04 4.953e-09
 18.69154    103.6 1.150e+04 8.895e-09
 18.70492    103.7 1.109e+04 6.449e-09
 18.72523    103.9 1.081e+04 5.046e-09
 18.74553    104.3 1.060e+04 4.228e-09
 18.76089    104.8 1.046e+04 3.839e-09
 18.76810    104.9 1.091e+04 5.637e-09
 18.77305    104.2 1.080e+04 4.913e-09
 18.78614    104.8 1.067e+04 4.602e-09
 18.80645    105.6 1.061e+04 4.466e-09
 18.82675    106.5 1.062e+04 4.465e-09
 18.84039    107.2 1.064e+04 4.502e-09
 18.85054    106.9 1.098e+04 5.625e-09
 18.86736    107.6 1.099e+04 5.633e-09
 18.88767    108.4 1.102e+04 5.632e-09
 18.90797    109.1 1.104e+04 5.574e-09
 18.91989    109.7 1.104e+04 5.361e-09
 18.93004    109.0 1.123e+04 6.097e-09
 18.94440    109.6 1.112e+04 5.518e-09
 18.95455    109.2 1.089e+04 4.919e-09
 18.96889    109.8 1.075e+04 4.357e-09
 18.98920    110.5 1.060e+04 3.739e-09
 19.00950    110.5 1.061e+04 3.765e-09
 19.02981    111.3 1.049e+04 3.222e-09
 19.05011    111.6 1.047e+04 3.016e-09
 19.06883    113.3 1.033e+04 2.680e-09
 19.08924    112.1 1.046e+04 2.747e-09
 19.11594    113.9 1.002e+04 2.294e-09
 19.13624    113.9 9.916e+03 2.035e-09
 19.16199    115.8 9.533e+03 2.030e-09
 19.20260    118.0 9.515e+03 2.055e-09
 19.22793    120.2 9.488e+03 2.232e-09
 19.24824    119.2 9.269e+03 2.094e-09
 19.28382    121.1 9.296e+03 2.501e-09
 19.32443    122.8 9.348e+03 3.004e-09
 19.35479    123.4 9.245e+03 3.162e-09
 19.37500    124.2 9.165e+03 3.372e-09
 19.38673    125.0 9.155e+03 3.732e-09
 19.39689    123.8 9.093e+03 3.254e-09
 19.41561    124.8 9.153e+03 3.592e-09
 19.43592    125.3 9.270e+03 3.964e-09
 19.45608    125.5 9.381e+03 4.364e-09
 19.46623    124.2 9.369e+03 4.381e-09
 19.47653    124.3 9.449e+03 4.840e-09
 19.48889    124.2 9.451e+03 5.233e-09
 19.49905    124.5 9.796e+03 6.483e-09
 19.51714    124.2 9.871e+03 6.940e-09
 19.53558    123.8 9.926e+03 7.206e-09
 19.54573    122.0 9.932e+03 7.271e-09
 19.55775    121.3 9.962e+03 7.385e-09
 19.57805    120.4 1.001e+04 7.533e-09
 19.59836    119.2 1.017e+04 7.973e-09
 19.61508    116.9 1.062e+04 9.588e-09
 19.62523    115.3 1.073e+04 1.024e-08
 19.63897    112.1 1.186e+04 1.615e-08
 19.65928    108.9 1.325e+04 2.946e-08
 19.67039    106.3 1.430e+04 4.706e-08
 19.68055    106.9 1.438e+04 4.847e-08
 19.69458    104.3 1.465e+04 5.269e-08
 19.70473    103.3 1.433e+04 4.780e-08
 19.72019    100.8 1.412e+04 4.375e-08
 19.74050     98.9 1.321e+04 3.046e-08
 19.76080     97.2 1.188e+04 1.701e-08
 19.77408     95.5 1.043e+04 9.127e-09
 19.78423     94.3 1.038e+04 8.956e-09
 19.81166     91.3 8.240e+03 3.356e-09
 19.84194     89.4 7.336e+03 2.028e-09
 19.85349     90.9 7.858e+03 2.940e-09
 19.86393     90.2 8.433e+03 4.024e-09
 19.89298     90.4 7.949e+03 3.018e-09
 19.93359     91.0 7.729e+03 2.608e-09
 19.97421     92.0 7.599e+03 2.366e-09
 20.00262     93.1 7.508e+03 2.172e-09
 20.02293     92.9 7.662e+03 2.239e-09
 20.05543     94.2 7.667e+03 2.198e-09
 20.09604     95.4 7.683e+03 2.199e-09
 20.13665     96.6 7.782e+03 2.235e-09
 20.16162     97.6 8.055e+03 2.403e-09
 20.18193     97.6 8.336e+03 2.673e-09
 20.20493     97.9 8.621e+03 2.934e-09
 20.22524    100.2 8.598e+03 3.005e-09
 20.24102    100.0 8.665e+03 3.118e-09
 20.25108    100.0 8.696e+03 3.210e-09
 20.26844    100.3 8.793e+03 3.515e-09
 20.28874    100.8 9.012e+03 4.091e-09
 20.30905    100.9 9.307e+03 4.874e-09
 20.32043    100.8 9.687e+03 6.003e-09
 20.33058    100.7 9.820e+03 6.304e-09
 20.34966     99.5 1.063e+04 9.248e-09
 20.36997     98.1 1.188e+04 1.642e-08
 20.38624     97.3 1.319e+04 2.991e-08
 20.39589     98.4 1.312e+04 2.916e-08
 20.39993     97.8 1.342e+04 3.349e-08
 20.41058     97.5 1.436e+04 4.703e-08
 20.43088     96.8 1.452e+04 4.661e-08
 20.45119     96.0 1.441e+04 3.696e-08
 20.46927     94.8 1.397e+04 1.992e-08
 20.47943     92.9 1.334e+04 1.248e-08
 20.49180     89.9 1.202e+04 6.352e-09
 20.51210     87.6 1.090e+04 5.693e-09
 20.53241     87.0 1.081e+04 5.809e-09
 20.54877     86.7 1.085e+04 6.625e-09
 20.55893     86.8 1.081e+04 6.280e-09
 20.56774     86.6 1.105e+04 7.882e-09
 20.57789     87.9 1.083e+04 6.365e-09
 20.59333     87.9 1.106e+04 7.902e-09
 20.61363     87.9 1.128e+04 9.596e-09
 20.62827     88.0 1.135e+04 1.035e-08
 20.63843     88.6 1.133e+04 1.021e-08
 20.65424     88.9 1.132e+04 1.028e-08
 20.67455     89.4 1.117e+04 9.600e-09
 20.69485     90.0 1.088e+04 8.107e-09
 20.70777     90.7 1.051e+04 6.257e-09
 20.71793     91.4 1.070e+04 7.366e-09
 20.73546     92.3 1.036e+04 5.634e-09
 20.74924     93.0 1.009e+04 4.181e-09
 20.75939     94.2 1.030e+04 5.302e-09
 20.77607     95.0 1.006e+04 3.972e-09
 20.78727     95.8 9.899e+03 2.992e-09
 20.79743     96.7 9.992e+03 3.725e-09
 20.81669     97.5 9.844e+03 2.853e-09
 20.83699     98.4 9.692e+03 2.354e-09
 20.85662     99.5 9.561e+03 2.279e-09
 20.86677    100.2 9.644e+03 2.515e-09
 20.87760    101.4 9.549e+03 2.498e-09
 20.89791    102.6 9.616e+03 2.528e-09
 20.91821    103.8 9.786e+03 2.692e-09
 20.93074    105.1 9.936e+03 3.077e-09
 20.93849    105.7 9.935e+03 2.953e-09
 20.94627    106.4 9.958e+03 3.167e-09
 20.95882    107.7 1.014e+04 3.700e-09
 20.97913    108.8 1.044e+04 4.849e-09
 20.99943    109.5 1.119e+04 7.736e-09
 21.01562    110.4 1.272e+04 1.538e-08
 21.02577    111.2 1.275e+04 1.551e-08
 21.04005    111.7 1.374e+04 2.479e-08
 21.05523    111.8 1.453e+04 3.417e-08
 21.06035    111.7 1.537e+04 4.768e-08
 21.06542    112.1 1.508e+04 4.513e-08
 21.07548    110.7 1.674e+04 7.060e-08
 21.08563    106.8 1.948e+04 1.989e-07
 21.09502    101.3 1.910e+04 1.346e-06
 21.10010     98.2 1.893e+04 1.663e-06
 21.10594     93.9 1.790e+04 4.134e-06
 21.11214     89.8 1.790e+04 4.116e-06
 21.11721     92.6 1.764e+04 5.275e-06
 21.12625     89.0 1.786e+04 3.929e-06
 21.13477     85.9 1.919e+04 1.267e-06
 21.13985     84.4 2.198e+04 2.680e-07
 21.14655     77.3 3.175e+04 1.820e-08
 21.16183     68.4 2.756e+04 1.171e-08
 21.17462     53.6 1.086e+04 7.263e-09
 21.18477     52.2 1.021e+04 8.071e-09
 21.20249     52.0 1.017e+04 8.386e-09
 21.22279     51.8 1.026e+04 9.055e-09
 21.24310     51.6 1.026e+04 9.540e-09
 21.25412     51.3 1.030e+04 9.958e-09
 21.26427     51.1 1.059e+04 1.141e-08
 21.28358     49.9 1.093e+04 1.262e-08
 21.29374     50.7 1.055e+04 9.511e-09
 21.30402     47.4 1.166e+04 1.429e-08
 21.32347     44.0 1.374e+04 3.220e-08
 21.33362     43.9 1.359e+04 3.123e-08
 21.34463     42.8 1.463e+04 5.193e-08
 21.36493     42.4 1.472e+04 5.269e-08
 21.38524     42.0 1.443e+04 4.165e-08
 21.40297     39.6 1.393e+04 2.404e-08
 21.41312     39.0 1.403e+04 2.495e-08
 21.42585     33.5 1.252e+04 1.400e-08
 21.44615     28.3 1.143e+04 1.321e-08
 21.46508     25.3 1.155e+04 1.615e-08
 21.47523     26.4 1.144e+04 1.436e-08
 21.48247     25.0 1.192e+04 2.044e-08
 21.49262     24.5 1.167e+04 1.999e-08
 21.50707     24.5 1.201e+04 2.379e-08
 21.52738     24.2 1.195e+04 2.284e-08
 21.54768     23.1 1.200e+04 2.046e-08
 21.56197     20.1 1.186e+04 1.704e-08
 21.57212     20.3 1.176e+04 1.681e-08
 21.58829     16.5 1.217e+04 1.848e-08
 21.60860      8.7 1.574e+04 3.529e-08
 21.62890      1.7 1.920e+04 1.199e-07
 21.64142     -0.2 1.942e+04 2.617e-07
 21.64644      2.1 1.988e+04 2.251e-07
 21.65156      0.4 1.934e+04 4.020e-07
 21.65664      0.3 1.974e+04 4.130e-07
 21.66434     -1.1 1.883e+04 8.420e-07
 21.67449     -1.8 1.823e+04 1.374e-06
 21.68112     -1.4 1.826e+04 1.815e-06
 21.68619     -1.1 1.804e+04 2.386e-06
 21.69480     -2.2 1.824e+04 2.788e-06
 21.70495     -7.1 1.998e+04 1.206e-06
 21.71510    -14.4 2.163e+04 2.130e-07
 21.72087    -22.4 1.729e+04 5.580e-08
 21.72594    -19.0 2.046e+04 1.440e-07
 21.73541    -25.0 1.700e+04 4.986e-08
 21.74231    -27.9 1.503e+04 3.410e-08
 21.74739    -27.3 1.683e+04 5.419e-08
 21.75554    -29.7 1.540e+04 3.961e-08
 21.76062    -30.5 1.712e+04 5.343e-08
 21.76587    -32.3 1.532e+04 4.053e-08
 21.77602    -33.2 1.454e+04 3.593e-08
 21.78617    -33.7 1.425e+04 3.488e-08
 21.79529    -34.0 1.415e+04 3.524e-08
 21.80037    -34.4 1.444e+04 3.936e-08
 21.81160    -34.5 1.432e+04 3.897e-08
 21.82808    -34.9 1.428e+04 3.916e-08
 21.83823    -34.9 1.427e+04 3.752e-08
 21.85226    -35.8 1.405e+04 3.349e-08
 21.86981    -36.8 1.378e+04 3.028e-08
 21.87996    -36.0 1.301e+04 2.238e-08
 21.89287    -37.1 1.240e+04 1.740e-08
 21.91318    -38.2 1.168e+04 1.313e-08
 21.93348    -39.2 1.085e+04 9.559e-09
 21.94931    -40.0 1.004e+04 6.737e-09
 21.95946    -39.1 1.001e+04 6.524e-09
 21.97410    -39.8 9.535e+03 5.022e-09
 21.99953    -40.7 8.992e+03 3.653e-09
 22.01993    -40.1 9.464e+03 4.367e-09
 22.02901    -40.3 8.684e+03 2.828e-09
 22.03906    -39.1 8.921e+03 3.516e-09
 22.05532    -39.2 8.781e+03 3.225e-09
 22.07562    -39.3 8.594e+03 2.974e-09
 22.09593    -39.2 8.579e+03 3.016e-09
 22.12648    -38.6 8.661e+03 3.301e-09
 22.16719    -37.9 8.471e+03 2.971e-09
 22.18801    -37.2 8.066e+03 2.255e-09
 22.20831    -36.0 8.365e+03 2.799e-09
 22.24841    -35.3 7.940e+03 2.026e-09
 22.28902    -34.2 7.713e+03 1.727e-09
 22.32670    -33.1 7.671e+03 1.686e-09
 22.34701    -31.3 7.957e+03 1.960e-09
 22.36262    -30.4 8.177e+03 2.213e-09
 22.38283    -30.9 8.246e+03 2.324e-09
 22.40051    -30.5 8.399e+03 2.642e-09
 22.41616    -30.4 8.561e+03 2.959e-09
 22.42631    -29.7 8.771e+03 3.445e-09
 22.44112    -29.6 9.224e+03 4.597e-09
 22.46143    -29.2 9.703e+03 6.365e-09
 22.48173    -28.3 1.012e+04 8.745e-09
 22.49566    -27.7 1.090e+04 1.083e-08
 22.50069    -26.5 1.124e+04 1.259e-08
 22.50702    -28.6 1.284e+04 1.294e-08
 22.51717    -39.0 2.162e+04 4.840e-08
 22.52732    -45.9 2.202e+04 3.437e-07
 22.53531    -50.9 2.113e+04 1.089e-06
 22.54039    -52.1 1.711e+04 9.136e-06
 22.54506    -56.0 1.819e+04 5.990e-06
 22.55012    -60.6 1.882e+04 4.737e-06
 22.55393    -67.5 1.926e+04 2.444e-06
 22.55641    -69.8 1.908e+04 2.566e-06
 22.55767    -70.1 1.776e+04 8.342e-06
 22.56027    -73.0 1.863e+04 2.234e-06
 22.56534    -73.7 1.890e+04 1.314e-06
 22.57042    -74.0 1.914e+04 1.020e-06
 22.57504    -73.8 1.955e+04 7.060e-07
 22.58014    -77.7 2.240e+04 5.126e-07
 22.58824    -81.3 2.350e+04 1.040e-07
 22.59839    -91.4 1.708e+04 2.587e-08
 22.60854    -95.7 1.211e+04 1.833e-08
 22.61481    -96.1 1.119e+04 1.639e-08
 22.61989    -95.6 1.141e+04 1.842e-08
 22.62885    -95.5 1.112e+04 1.664e-08
 22.64413    -95.5 1.083e+04 1.482e-08
 22.65466    -95.6 1.052e+04 1.317e-08
 22.66481    -96.5 1.244e+04 2.421e-08
 22.68479    -96.7 1.173e+04 1.861e-08
 22.70509    -97.2 1.111e+04 1.496e-08
 22.72400    -97.7 1.082e+04 1.326e-08
 22.73416    -97.7 1.147e+04 1.801e-08
 22.74570    -99.1 1.110e+04 1.395e-08
 22.76601   -100.4 1.104e+04 1.328e-08
 22.78631   -102.3 1.112e+04 1.333e-08
 22.80350   -105.1 1.183e+04 1.622e-08
 22.81366   -106.5 1.293e+04 2.051e-08
 22.82692   -110.4 1.426e+04 3.494e-08
 22.84723   -113.6 1.497e+04 5.031e-08
 22.86753   -116.3 1.508e+04 5.621e-08
 22.88300   -118.3 1.491e+04 5.594e-08
 22.89316   -119.0 1.523e+04 6.669e-08
 22.90692   -119.8 1.389e+04 3.536e-08
 22.91708   -120.7 1.366e+04 3.484e-08
 22.92845   -121.6 1.231e+04 1.670e-08
 22.94876   -123.4 1.145e+04 9.014e-09
 22.96250   -125.1 1.096e+04 6.263e-09
 22.97266   -126.5 1.044e+04 4.786e-09
 22.98937   -127.5 1.036e+04 4.633e-09
 23.00967   -128.8 1.041e+04 4.687e-09
 23.02998   -130.4 1.060e+04 5.459e-09
 23.04200   -131.9 1.072e+04 6.677e-09
 23.05216   -133.2 1.075e+04 7.384e-09
 23.07059   -134.4 1.071e+04 7.943e-09
 23.08842   -135.2 1.061e+04 7.994e-09
 23.09858   -135.5 1.052e+04 8.150e-09
 23.11120   -135.8 1.005e+04 6.661e-09
 23.12150   -136.1 9.607e+03 4.660e-09
 23.13166   -137.3 9.310e+03 3.518e-09
 23.15181   -137.9 8.936e+03 2.590e-09
 23.18237   -138.4 8.631e+03 2.025e-09
 23.22307   -138.6 8.221e+03 1.365e-09
 23.26039   -138.2 8.047e+03 1.113e-09
 23.28070   -138.5 7.894e+03 1.115e-09
 23.30430   -138.4 7.891e+03 1.093e-09
 23.34491   -138.9 8.051e+03 1.203e-09
 23.38552   -141.5 9.375e+03 2.618e-09
 23.41939   -145.1 1.052e+04 5.938e-09
 23.43970   -146.7 1.056e+04 6.511e-09
 23.45162   -151.3 1.086e+04 8.668e-09
 23.47192   -154.0 1.152e+04 1.211e-08
 23.50735   -158.4 1.123e+04 1.143e-08
 23.54796   -161.3 1.033e+04 6.005e-09
 23.57839   -162.9 9.505e+03 2.682e-09
 23.59870   -163.3 9.397e+03 1.954e-09
 23.62918   -163.9 9.256e+03 1.583e-09
 23.66979   -164.2 9.233e+03 1.531e-09
 23.71041   -164.0 9.280e+03 1.685e-09
 23.73739   -163.6 9.499e+03 2.432e-09
 23.75770   -163.7 9.573e+03 3.179e-09
 23.79163   -163.1 9.774e+03 4.222e-09
 23.81462   -162.5 9.908e+03 4.920e-09
 23.83492   -162.9 1.010e+04 6.227e-09
 23.87285   -162.3 1.019e+04 6.722e-09
 23.89639   -161.6 1.020e+04 6.788e-09
 23.91670   -160.9 1.024e+04 6.502e-09
 23.95407   -160.2 1.038e+04 7.266e-09
 23.99468   -159.6 1.040e+04 7.391e-09
 24.03509   -159.0 1.026e+04 6.708e-09
 24.05539   -158.6 1.068e+04 7.894e-09
 24.07590   -158.1 1.055e+04 7.776e-09
 24.11651   -157.2 1.007e+04 5.955e-09
 24.15712   -155.7 9.543e+03 3.784e-09
 24.19409   -154.2 9.077e+03 2.580e-09
 24.21439   -153.5 9.390e+03 2.900e-09
 24.23835   -151.3 9.056e+03 1.973e-09
 24.27896   -149.1 8.951e+03 1.507e-09
 24.31957   -147.0 8.983e+03 1.336e-09
 24.35308   -144.9 9.004e+03 1.300e-09
 24.37339   -144.2 9.196e+03 1.291e-09
 24.40079   -142.5 9.282e+03 1.306e-09
 24.44140   -141.3 9.584e+03 1.619e-09
 24.48201   -140.4 9.828e+03 2.378e-09
 24.51208   -139.3 1.005e+04 3.507e-09
 24.53008   -138.9 1.047e+04 5.376e-09
 24.54062   -138.9 9.944e+03 2.985e-09
 24.56323   -137.7 1.002e+04 3.376e-09
 24.60384   -136.3 1.004e+04 3.513e-09
 24.64446   -134.7 1.003e+04 3.551e-09
 24.67108   -132.9 1.002e+04 3.568e-09
 24.69139   -131.8 1.010e+04 2.887e-09
 24.72568   -130.0 1.014e+04 2.748e-09
 24.76629   -128.7 1.038e+04 2.921e-09
 24.80690   -128.0 1.110e+04 4.889e-09
 24.83008   -127.6 1.172e+04 8.892e-09
 24.85039   -127.1 1.173e+04 8.258e-09
 24.88331   -127.0 1.217e+04 1.232e-08
 24.90361   -125.9 1.150e+04 7.512e-09
 24.92873   -125.7 1.184e+04 1.063e-08
 24.96878   -125.6 1.200e+04 1.217e-08
 24.98908   -125.5 1.215e+04 1.255e-08
 25.00995   -124.8 1.211e+04 1.133e-08
 25.04031   -124.3 1.186e+04 9.502e-09
 25.05824   -123.7 1.177e+04 8.679e-09
 25.06839   -123.8 1.180e+04 7.225e-09
 25.07477   -123.4 1.169e+04 6.476e-09
 25.08492   -122.3 1.164e+04 7.534e-09
 25.10113   -122.0 1.158e+04 6.696e-09
 25.12144   -121.7 1.145e+04 5.939e-09
 25.13773   -121.4 1.134e+04 5.698e-09
 25.14789   -121.6 1.134e+04 4.383e-09
 25.16205   -121.4 1.118e+04 4.301e-09
 25.18235   -121.1 1.098e+04 4.175e-09
 25.20266   -120.7 1.077e+04 3.905e-09
 25.21723   -120.1 1.056e+04 3.475e-09
 25.22739   -120.0 1.047e+04 3.435e-09
 25.24327   -119.4 1.037e+04 2.996e-09
 25.25626   -119.0 1.028e+04 2.669e-09
 25.26642   -117.9 1.040e+04 2.104e-09
 25.28668   -117.4 1.028e+04 1.823e-09
 25.30708   -116.8 1.026e+04 1.919e-09
 25.33484   -115.6 1.001e+04 1.491e-09
 25.37545   -114.3 9.833e+03 1.250e-09
 25.41606   -113.0 9.783e+03 1.183e-09
 25.44578   -111.7 9.772e+03 1.177e-09
 25.46608   -111.4 9.870e+03 1.602e-09
 25.49728   -110.4 9.854e+03 1.606e-09
 25.53789   -109.8 9.860e+03 1.652e-09
 25.57851   -109.7 9.946e+03 1.690e-09
 25.60478   -109.9 1.012e+04 1.752e-09
 25.61527   -110.6 1.031e+04 2.560e-09
 25.62961   -111.1 1.046e+04 3.839e-09
 25.65973   -111.5 1.054e+04 4.187e-09
 25.70034   -111.8 1.056e+04 4.281e-09
 25.74095   -112.0 1.051e+04 4.217e-09
 25.76378   -111.5 1.028e+04 3.699e-09
 25.78408   -111.2 1.020e+04 2.748e-09
 25.82217   -110.3 1.001e+04 2.189e-09
 25.86278   -109.3 9.891e+03 1.809e-09
 25.90247   -108.2 9.888e+03 1.641e-09
 25.92278   -108.1 1.001e+04 1.107e-09
 25.94400   -106.9 9.993e+03 1.097e-09
 25.97231   -106.1 1.003e+04 1.113e-09
 25.99261   -106.3 9.997e+03 1.079e-09
 26.02522   -106.1 1.019e+04 1.389e-09
 26.06147   -106.1 1.033e+04 2.061e-09
 26.08178   -105.4 1.040e+04 1.537e-09
 26.10645   -105.5 1.064e+04 2.635e-09
 26.14706   -106.1 1.091e+04 3.940e-09
 26.18767   -107.0 1.102e+04 4.835e-09
 26.22047   -108.0 1.101e+04 5.127e-09
 26.24077   -107.7 1.166e+04 8.248e-09
 26.26889   -108.9 1.177e+04 8.430e-09
 26.29925   -109.5 1.156e+04 7.408e-09
 26.30993   -110.3 1.184e+04 8.078e-09
 26.32008   -111.6 1.257e+04 1.337e-08
 26.33511   -112.9 1.317e+04 2.078e-08
 26.34526   -113.1 1.318e+04 2.031e-08
 26.36007   -113.9 1.384e+04 3.321e-08
 26.37927   -114.4 1.422e+04 4.322e-08
 26.38943   -114.6 1.419e+04 4.268e-08
 26.40068   -115.1 1.395e+04 3.969e-08
 26.42099   -115.4 1.327e+04 2.516e-08
 26.44129   -115.8 1.253e+04 1.312e-08
 26.45877   -116.8 1.197e+04 7.139e-09
 26.46893   -117.5 1.156e+04 4.585e-09
 26.48190   -117.9 1.127e+04 3.554e-09
 26.50221   -118.1 1.109e+04 3.146e-09
 26.51661   -118.1 1.100e+04 2.892e-09
 26.52676   -118.3 1.100e+04 2.332e-09
 26.53827   -118.4 1.087e+04 2.280e-09
 26.55868   -118.1 1.060e+04 1.959e-09
 26.59378   -118.2 1.039e+04 1.660e-09
 26.63439   -118.4 1.023e+04 1.521e-09
 26.67500   -118.6 1.017e+04 1.507e-09
 26.69747   -118.8 1.010e+04 1.626e-09
 26.70047   -118.0 9.940e+03 1.345e-09
 26.71861   -118.2 1.002e+04 1.341e-09
 26.75622   -117.9 9.983e+03 1.502e-09
 26.79683   -117.7 9.946e+03 1.734e-09
 26.83616   -117.6 9.939e+03 2.099e-09
 26.85647   -116.0 9.901e+03 1.267e-09
 26.87805   -116.0 9.981e+03 1.783e-09
 26.91866   -116.3 1.027e+04 2.953e-09
 26.95927   -117.0 1.067e+04 4.713e-09
 26.99516   -118.3 1.094e+04 6.411e-09
 27.01547   -117.3 1.100e+04 6.474e-09
 27.04050   -119.2 1.103e+04 7.283e-09
 27.06130   -121.1 1.093e+04 7.335e-09
 27.08161   -120.5 1.074e+04 5.942e-09
 27.12172   -121.2 1.038e+04 4.901e-09
 27.15416   -121.3 1.012e+04 4.118e-09
 27.17447   -121.1 1.022e+04 4.484e-09
 27.20294   -121.0 1.006e+04 4.120e-09
 27.24355   -120.5 1.001e+04 4.065e-09
 27.28416   -119.9 1.002e+04 4.237e-09
 27.31316   -119.6 1.012e+04 4.654e-09
 27.33347   -119.2 1.028e+04 4.882e-09
 27.35513   -119.0 1.020e+04 4.798e-09
 27.37534   -119.0 1.019e+04 4.769e-09
 27.39247   -118.9 1.009e+04 4.382e-09
 27.40262   -118.8 1.016e+04 4.381e-09
 27.41395   -118.7 1.002e+04 3.824e-09
 27.42420   -118.1 1.025e+04 4.458e-09
 27.44661   -117.8 9.955e+03 3.103e-09
 27.47216   -117.3 9.646e+03 1.924e-09
 27.49247   -117.2 9.778e+03 2.113e-09
 27.52783   -116.5 9.493e+03 1.458e-09
 27.56844   -115.7 9.396e+03 1.235e-09
 27.60905   -114.6 9.387e+03 1.207e-09
 27.63116   -113.7 9.422e+03 1.254e-09
 27.65147   -113.6 9.443e+03 1.562e-09
 27.69027   -112.5 9.456e+03 1.469e-09
 27.73088   -111.4 9.469e+03 1.347e-09
 27.76699   -110.3 9.502e+03 1.262e-09
 27.78566   -110.3 9.541e+03 1.284e-09
 27.79016   -110.0 9.542e+03 1.113e-09
 27.81210   -109.1 9.566e+03 1.105e-09
 27.85271   -108.5 9.721e+03 1.184e-09
 27.89332   -108.4 9.843e+03 1.385e-09
 27.92885   -108.5 9.944e+03 1.665e-09
 27.94916   -108.4 9.978e+03 1.704e-09
 27.97455   -108.6 1.009e+04 2.075e-09
 28.01516   -108.8 1.026e+04 2.543e-09
 28.05577   -109.3 1.044e+04 2.990e-09
 28.08785   -109.7 1.055e+04 3.211e-09
 28.10816   -109.6 1.047e+04 2.471e-09
 28.12999   -109.9 1.049e+04 2.482e-09
 28.15030   -110.4 1.060e+04 2.684e-09
 28.17760   -110.5 1.061e+04 2.522e-09
 28.21821   -109.9 1.057e+04 2.003e-09
 28.24685   -108.9 1.055e+04 1.490e-09
 28.26716   -108.8 1.053e+04 1.261e-09
 28.29943   -107.6 1.059e+04 9.854e-10
 28.34004   -106.2 1.069e+04 8.647e-10
 28.38066   -104.6 1.073e+04 8.380e-10
 28.40585   -102.9 1.075e+04 8.344e-10
 28.42616   -102.8 1.076e+04 8.421e-10
 28.46188   -101.1 1.101e+04 8.920e-10
 28.49299    -99.4 1.107e+04 1.085e-09
 28.51330    -99.2 1.107e+04 1.061e-09
 28.54310    -97.4 1.113e+04 1.317e-09
 28.56485    -95.6 1.124e+04 1.609e-09
 28.58516    -95.4 1.121e+04 1.423e-09
 28.62432    -93.7 1.133e+04 1.671e-09
 28.66493    -92.1 1.142e+04 1.989e-09
 28.70355    -90.5 1.149e+04 2.487e-09
 28.72385    -90.8 1.148e+04 2.123e-09
 28.74615    -89.4 1.164e+04 2.999e-09
 28.78676    -88.2 1.188e+04 3.976e-09
 28.82737    -87.4 1.209e+04 4.610e-09
 28.85599    -87.0 1.214e+04 4.751e-09
 28.87086    -86.1 1.205e+04 4.841e-09
 28.88285    -86.3 1.187e+04 3.356e-09
 28.90860    -85.6 1.194e+04 3.067e-09
 28.94921    -84.5 1.199e+04 2.469e-09
 28.98982    -83.2 1.208e+04 1.930e-09
 29.02155    -81.8 1.217e+04 1.518e-09
 29.04185    -81.3 1.211e+04 1.188e-09
 29.07104    -79.7 1.222e+04 1.082e-09
 29.11165    -77.9 1.231e+04 9.399e-10
 29.15226    -76.1 1.238e+04 7.809e-10
 29.18055    -74.1 1.245e+04 6.601e-10
 29.20085    -73.6 1.249e+04 6.599e-10
 29.21899    -71.6 1.262e+04 6.121e-10
 29.23929    -71.2 1.260e+04 5.431e-10
 29.27409    -69.3 1.266e+04 5.295e-10
 29.31471    -67.4 1.275e+04 5.291e-10
 29.33955    -65.7 1.289e+04 5.615e-10
 29.35985    -65.5 1.295e+04 5.370e-10
 29.39593    -63.9 1.306e+04 5.615e-10
 29.43654    -62.3 1.317e+04 5.704e-10
 29.47715    -60.7 1.323e+04 5.678e-10
 29.49855    -59.0 1.339e+04 5.319e-10
 29.51885    -59.1 1.344e+04 5.169e-10
 29.55837    -57.5 1.354e+04 5.003e-10
 29.58199    -55.8 1.363e+04 4.856e-10
 29.60229    -55.7 1.365e+04 5.376e-10
 29.63724    -54.1 1.369e+04 5.491e-10
 29.65754    -54.4 1.356e+04 6.487e-10
 29.68020    -52.8 1.347e+04 6.210e-10
 29.72081    -51.1 1.347e+04 5.215e-10
 29.76142    -49.7 1.352e+04 4.253e-10
 29.79624    -48.3 1.348e+04 3.857e-10
 29.81654    -48.1 1.343e+04 3.784e-10
 29.84265    -46.4 1.342e+04 3.751e-10
 29.88326    -45.0 1.343e+04 4.294e-10
 29.92387    -43.6 1.336e+04 5.538e-10
 29.94499    -42.0 1.326e+04 7.230e-10
 29.95605    -41.7 1.338e+04 6.527e-10
 29.97554    -41.7 1.335e+04 8.346e-10
 30.00509    -40.2 1.323e+04 1.193e-09
 30.04570    -38.6 1.309e+04 1.650e-09
 30.08631    -37.1 1.297e+04 2.187e-09
 30.11424    -35.4 1.287e+04 2.623e-09
 30.13454    -35.6 1.293e+04 3.541e-09
 30.16753    -33.7 1.278e+04 3.115e-09
 30.20814    -31.5 1.285e+04 1.926e-09
 30.24876    -29.6 1.316e+04 1.043e-09
 30.27324    -27.9 1.361e+04 6.096e-10
 30.29186    -28.1 1.352e+04 5.084e-10
 30.30799    -27.8 1.358e+04 7.585e-10
 30.32998    -26.2 1.349e+04 6.565e-10
 30.37059    -24.3 1.347e+04 6.524e-10
 30.41120    -22.6 1.339e+04 7.635e-10
 30.43224    -20.6 1.316e+04 9.333e-10
 30.45254    -20.1 1.309e+04 1.085e-09
 30.49242    -17.7 1.301e+04 1.270e-09
 30.53303    -15.4 1.297e+04 1.277e-09
 30.57093    -13.3 1.291e+04 1.258e-09
 30.59124    -12.8 1.277e+04 1.987e-09
 30.61425    -10.7 1.311e+04 2.036e-09
 30.64461     -9.8 1.341e+04 2.092e-09
 30.66039     -9.9 1.326e+04 2.401e-09
 30.66636    -10.1 1.325e+04 2.798e-09
 30.67089    -10.4 1.356e+04 1.537e-09
 30.68522     -9.5 1.335e+04 2.782e-09
 30.70543     -8.7 1.318e+04 3.582e-09
 30.72574     -7.3 1.320e+04 4.640e-09
 30.73989     -6.3 1.326e+04 4.970e-09
 30.75014     -7.2 1.355e+04 6.142e-09
 30.77670     -6.2 1.338e+04 5.057e-09
 30.81731     -5.4 1.319e+04 4.709e-09
 30.85792     -3.9 1.292e+04 5.607e-09
 30.88893     -2.0 1.289e+04 6.052e-09
 30.90924     -2.1 1.310e+04 5.898e-09
 30.93914     -0.4 1.320e+04 5.253e-09
 30.97975      0.8 1.330e+04 4.632e-09
 31.01368      2.0 1.321e+04 4.782e-09
 31.03398      2.0 1.296e+04 4.038e-09
 31.04793      3.8 1.293e+04 4.273e-09
 31.06824      3.5 1.302e+04 4.871e-09
 31.10158      5.4 1.322e+04 3.724e-09
 31.14219      6.1 1.324e+04 2.925e-09
 31.18281      7.2 1.290e+04 3.034e-09
 31.20693      8.9 1.258e+04 3.429e-09
 31.22724      8.7 1.247e+04 3.102e-09
 31.26403     10.4 1.247e+04 2.810e-09
 31.30464     11.8 1.250e+04 2.705e-09
 31.34525     13.1 1.251e+04 2.855e-09
 31.36593     14.5 1.246e+04 3.429e-09
 31.37705     13.7 1.247e+04 3.617e-09
 31.39698     13.7 1.264e+04 4.084e-09
 31.42647     14.5 1.283e+04 3.067e-09
 31.46708     14.7 1.300e+04 2.606e-09
 31.50462     13.0 1.339e+04 3.408e-09
 31.52493     11.0 1.336e+04 3.911e-09
 31.54830      9.7 1.313e+04 5.370e-09
 31.58891      9.2 1.376e+04 3.138e-09
 31.62952      6.8 1.390e+04 1.742e-09
 31.66362      6.4 1.310e+04 2.043e-09
 31.68393      6.5 1.333e+04 1.386e-09
 31.71075      7.7 1.329e+04 1.302e-09
 31.73968      8.6 1.358e+04 9.954e-10
 31.75998      9.4 1.369e+04 8.809e-10
 31.79197     10.4 1.372e+04 9.013e-10
 31.82262     10.5 1.386e+04 1.211e-09
 31.84293      9.6 1.371e+04 2.216e-09
 31.87319     11.4 1.311e+04 4.373e-09
 31.91380     12.9 1.326e+04 4.394e-09
 31.95441     14.0 1.359e+04 3.394e-09
 31.98162     14.9 1.363e+04 3.124e-09
 32.00193     14.2 1.371e+04 1.836e-09
 32.03563     15.0 1.347e+04 2.408e-09
 32.07624     16.3 1.318e+04 3.822e-09
 32.10267     17.6 1.340e+04 4.824e-09
 32.12298     18.3 1.346e+04 5.986e-09
 32.14062     19.2 1.361e+04 7.474e-09
 32.16093     19.0 1.344e+04 5.393e-09
 32.19808     19.5 1.361e+04 5.591e-09
 32.23869     20.5 1.361e+04 4.528e-09
 32.27930     21.6 1.372e+04 2.774e-09
 32.31991     22.9 1.381e+04 1.435e-09
 32.36052     24.3 1.388e+04 1.037e-09
 32.40113     26.0 1.400e+04 7.856e-10
 32.43832     27.6 1.411e+04 6.584e-10
 32.45862     27.8 1.449e+04 4.257e-10
 32.46567     29.5 1.446e+04 4.057e-10
 32.48598     30.4 1.449e+04 4.156e-10
 32.52296     32.2 1.451e+04 4.338e-10
 32.56357     33.7 1.450e+04 5.308e-10
 32.59732     35.3 1.435e+04 8.151e-10
 32.61762     35.3 1.453e+04 6.896e-10
 32.64480     36.7 1.422e+04 1.446e-09
 32.68541     38.6 1.410e+04 3.898e-09
 32.71577     39.2 1.436e+04 6.011e-09
 32.73598     39.7 1.445e+04 8.002e-09
 32.75612     40.1 1.459e+04 1.013e-08
 32.77652     39.8 1.451e+04 9.138e-09
 32.80724     40.2 1.453e+04 8.311e-09
 32.82858     40.6 1.462e+04 7.933e-09
 32.83675     41.1 1.467e+04 9.215e-09
 32.84577     41.2 1.458e+04 8.686e-09
 32.85781     41.4 1.458e+04 7.420e-09
 32.87811     41.5 1.467e+04 6.694e-09
 32.89842     42.0 1.467e+04 6.676e-09
 32.91512     41.9 1.477e+04 7.328e-09
 32.93552     42.0 1.471e+04 6.579e-09
 32.96968     42.3 1.466e+04 1.270e-08
 33.01029     42.3 1.453e+04 1.707e-08
 33.05091     42.5 1.419e+04 1.552e-08
 33.07431     43.2 1.363e+04 9.871e-09
 33.09462     43.5 1.339e+04 6.990e-09
 33.13213     45.0 1.334e+04 2.655e-09
 33.17137     46.0 1.388e+04 1.061e-09
 33.19167     45.9 1.361e+04 1.672e-09
 33.21301     47.3 1.326e+04 1.364e-09
 33.23331     47.3 1.322e+04 1.326e-09
 33.25396     48.9 1.310e+04 1.230e-09
 33.29457     50.4 1.306e+04 1.162e-09
 33.33518     51.6 1.290e+04 1.176e-09
 33.37201     52.9 1.276e+04 1.267e-09
 33.39231     52.7 1.268e+04 1.199e-09
 33.41640     54.2 1.258e+04 1.101e-09
 33.45701     55.6 1.258e+04 1.063e-09
 33.49762     56.8 1.266e+04 1.035e-09
 33.53101     57.9 1.274e+04 9.862e-10
 33.54744     57.9 1.257e+04 7.879e-10
 33.55467     57.7 1.233e+04 7.271e-10
 33.57885     59.2 1.228e+04 7.624e-10
 33.61946     60.6 1.227e+04 7.972e-10
 33.66007     62.1 1.227e+04 8.596e-10
 33.69001     63.4 1.231e+04 9.923e-10
 33.71031     64.1 1.231e+04 1.015e-09
 33.74129     65.4 1.236e+04 1.215e-09
 33.78190     66.6 1.244e+04 1.494e-09
 33.82251     67.6 1.262e+04 1.833e-09
 33.84901     68.1 1.266e+04 2.248e-09
 33.86931     69.0 1.278e+04 1.636e-09
 33.89736     69.5 1.270e+04 2.077e-09
 33.91767     70.3 1.267e+04 2.008e-09
 33.94434     70.6 1.259e+04 2.635e-09
 33.97470     70.7 1.253e+04 3.120e-09
 33.99491     70.8 1.246e+04 3.926e-09
 34.00781     70.8 1.236e+04 5.303e-09
 34.01796     71.6 1.251e+04 5.205e-09
 34.03552     71.6 1.248e+04 7.818e-09
 34.05583     71.6 1.255e+04 1.151e-08
 34.07613     71.8 1.270e+04 1.620e-08
 34.08731     72.0 1.311e+04 1.719e-08
 34.08985     72.6 1.352e+04 2.896e-08
 34.09897     73.1 1.347e+04 2.646e-08
 34.11675     73.4 1.388e+04 3.911e-08
 34.13705     73.7 1.433e+04 4.534e-08
 34.15666     73.9 1.449e+04 4.242e-08
 34.16681     74.6 1.512e+04 8.108e-08
 34.17254     74.5 1.556e+04 7.895e-08
 34.17947     74.4 1.564e+04 7.633e-08
 34.18455     74.8 1.571e+04 7.962e-08
 34.19792     74.7 1.610e+04 1.044e-07
 34.21827     73.8 1.676e+04 1.037e-07
 34.23616     71.8 1.679e+04 9.768e-08
 34.24626     71.2 1.821e+04 2.583e-07
 34.25371     69.9 1.819e+04 2.146e-07
 34.26386     69.0 1.781e+04 1.708e-07
 34.27027     68.4 1.752e+04 1.199e-07
 34.28047     68.8 1.732e+04 1.216e-07
 34.29949     65.9 1.602e+04 3.511e-08
 34.31566     60.7 1.532e+04 2.681e-08
 34.32581     59.6 1.623e+04 4.520e-08
 34.34010     55.1 1.605e+04 6.284e-08
 34.36041     52.8 1.607e+04 9.693e-08
 34.38072     51.9 1.598e+04 9.500e-08
 34.39516     51.4 1.565e+04 7.663e-08
 34.40531     52.2 1.622e+04 9.468e-08
 34.42133     51.1 1.551e+04 3.663e-08
 34.44163     48.3 1.431e+04 1.305e-08
 34.46194     49.1 1.392e+04 1.489e-08
 34.47466     47.4 1.288e+04 8.036e-09
 34.48481     47.5 1.288e+04 6.142e-09
 34.50255     47.1 1.229e+04 3.941e-09
 34.52285     46.7 1.210e+04 3.015e-09
 34.55341     46.8 1.185e+04 2.346e-09
 34.59412     46.8 1.165e+04 2.266e-09
 34.62336     46.4 1.160e+04 2.718e-09
 34.63264     47.2 1.172e+04 4.160e-09
 34.64401     48.8 1.160e+04 3.032e-09
 34.67534     48.3 1.152e+04 2.942e-09
 34.71595     48.5 1.131e+04 2.395e-09
 34.75656     48.9 1.126e+04 1.643e-09
 34.78270     49.2 1.110e+04 1.257e-09
 34.80300     51.0 1.115e+04 1.398e-09
 34.83778     51.6 1.094e+04 1.358e-09
 34.87839     52.4 1.089e+04 1.347e-09
 34.91901     53.3 1.080e+04 1.284e-09
 34.94170     54.4 1.073e+04 1.070e-09
 34.96200     55.4 1.079e+04 1.195e-09
 34.98636     56.1 1.077e+04 9.070e-10
 35.00667     55.9 1.067e+04 1.063e-09
 35.04084     56.7 1.063e+04 1.058e-09
 35.08039     57.3 1.062e+04 1.207e-09
 35.10070     57.5 1.066e+04 1.190e-09
 35.12206     58.0 1.071e+04 1.737e-09
 35.16267     58.5 1.082e+04 2.461e-09
 35.20328     58.7 1.099e+04 2.893e-09
 35.23939     58.5 1.113e+04 2.989e-09
 35.25970     57.9 1.123e+04 3.004e-09
 35.28450     57.2 1.138e+04 3.219e-09
 35.32511     56.4 1.155e+04 3.845e-09
 35.34936     55.4 1.169e+04 4.276e-09
 35.36966     55.1 1.181e+04 5.650e-09
 35.39839     53.8 1.176e+04 5.255e-09
 35.41870     53.0 1.174e+04 5.358e-09
 35.44695     51.9 1.154e+04 4.184e-09
 35.48756     50.8 1.120e+04 2.984e-09
 35.52817     50.1 1.083e+04 2.092e-09
 35.55739     49.4 1.049e+04 1.576e-09
 35.57770     49.7 1.043e+04 2.700e-09
 35.60939     49.6 1.034e+04 2.704e-09
 35.65000     49.6 1.025e+04 3.075e-09
 35.69061     49.7 1.016e+04 3.314e-09
 35.71236     50.1 9.965e+03 2.941e-09
 35.71783     50.7 1.002e+04 2.963e-09
 35.73670     51.2 1.023e+04 4.794e-09
 35.77183     52.3 9.717e+03 2.535e-09
 35.81244     52.9 9.510e+03 1.012e-09
 35.85305     52.9 9.180e+03 5.749e-10
 35.87539     53.8 8.932e+03 5.693e-10
 35.89570     54.5 8.895e+03 5.818e-10
 35.93428     56.0 8.843e+03 6.119e-10
 35.97489     57.5 8.886e+03 7.182e-10
 36.01409     58.8 8.907e+03 9.269e-10
 36.03439     59.8 8.839e+03 9.270e-10
 36.05505     61.0 8.928e+03 1.241e-09
 36.07536     62.0 8.898e+03 1.351e-09
 36.09672     63.1 9.002e+03 1.805e-09
 36.13733     63.4 9.148e+03 2.254e-09
 36.16769     63.2 9.341e+03 2.704e-09
 36.18304     62.4 9.518e+03 3.417e-09
 36.19320     63.3 9.553e+03 3.817e-09
 36.20820     62.4 9.707e+03 4.975e-09
 36.22851     61.6 9.892e+03 6.418e-09
 36.24651     60.7 9.965e+03 6.954e-09
 36.25666     61.1 9.956e+03 7.196e-09
 36.26254     60.3 9.877e+03 6.996e-09
 36.27270     61.3 9.929e+03 7.181e-09
 36.28943     60.6 9.669e+03 6.311e-09
 36.30973     59.7 9.368e+03 4.952e-09
 36.33004     58.6 9.117e+03 3.728e-09
 36.34204     57.4 8.841e+03 2.982e-09
 36.35219     58.3 8.956e+03 3.450e-09
 36.38090     57.8 8.707e+03 2.958e-09
 36.41805     57.6 8.492e+03 2.754e-09
 36.43836     58.9 8.449e+03 2.782e-09
 36.46222     59.0 8.538e+03 3.062e-09
 36.49108     59.0 8.839e+03 3.978e-09
 36.51139     59.3 8.703e+03 3.430e-09
 36.53319     58.7 9.119e+03 5.055e-09
 36.55340     58.8 9.341e+03 6.058e-09
 36.57039     58.9 9.526e+03 6.758e-09
 36.58054     58.7 9.478e+03 6.502e-09
 36.59401     58.7 9.757e+03 7.417e-09
 36.60951     58.6 1.002e+04 8.409e-09
 36.61966     59.6 9.893e+03 7.963e-09
 36.63462     59.4 1.017e+04 9.048e-09
 36.64989     58.7 1.063e+04 1.108e-08
 36.66004     58.5 1.056e+04 1.106e-08
 36.67523     57.7 1.119e+04 1.540e-08
 36.69554     57.3 1.197e+04 2.309e-08
 36.71584     57.2 1.213e+04 2.560e-08
 36.72939     57.4 1.189e+04 2.313e-08
 36.73954     57.0 1.112e+04 1.409e-08
 36.75645     56.4 1.059e+04 1.060e-08
 36.77676     55.3 1.001e+04 7.990e-09
 36.79101     54.1 9.618e+03 6.125e-09
 36.80116     54.7 9.812e+03 7.170e-09
 36.80889     53.4 9.350e+03 5.632e-09
 36.81904     52.6 9.927e+03 8.157e-09
 36.83767     51.6 1.003e+04 8.615e-09
 36.85798     50.7 1.020e+04 9.668e-09
 36.87824     49.6 1.049e+04 1.177e-08
 36.89854     44.8 1.304e+04 2.835e-08
 36.91889     40.6 1.432e+04 4.711e-08
 36.93920     38.7 1.416e+04 5.431e-08
 36.95774     38.6 1.347e+04 4.455e-08
 36.96789     37.7 1.312e+04 3.912e-08
 36.97251     35.6 1.220e+04 2.030e-08
 36.98266     36.3 1.204e+04 2.059e-08
 37.00012     31.2 1.078e+04 9.749e-09
 37.02042     26.5 8.988e+03 6.113e-09
 37.03723     25.4 8.519e+03 5.252e-09
 37.04739     24.8 8.862e+03 6.393e-09
 37.06103     24.7 8.763e+03 5.993e-09
 37.08134     25.1 8.585e+03 5.423e-09
 37.10164     25.0 8.607e+03 4.088e-09
 37.11673     24.5 8.436e+03 3.706e-09
 37.12689     23.9 8.772e+03 4.737e-09
 37.14225     23.4 8.784e+03 3.985e-09
 37.15401     23.3 8.737e+03 4.253e-09
 37.16416     22.8 9.168e+03 5.898e-09
 37.18287     22.9 9.234e+03 5.913e-09
 37.19623     23.0 9.411e+03 6.621e-09
 37.20639     22.8 9.660e+03 7.803e-09
 37.22348     23.1 9.853e+03 7.642e-09
 37.24378     23.3 1.010e+04 8.403e-09
 37.26409     23.2 1.072e+04 9.101e-09
 37.27573     20.0 1.243e+04 1.539e-08
 37.28589     18.3 1.280e+04 1.793e-08
 37.30470     14.4 1.466e+04 4.051e-08
 37.32500     13.8 1.575e+04 9.300e-08
 37.33551     14.9 1.634e+04 1.283e-07
 37.34543     13.5 1.653e+04 1.350e-07
 37.35523     14.2 1.660e+04 1.726e-07
 37.36561     13.9 1.683e+04 9.706e-08
 37.38592      9.6 1.548e+04 5.238e-08
 37.40623      6.5 1.397e+04 3.271e-08
 37.42458      4.5 1.394e+04 2.690e-08
 37.43473      5.5 1.409e+04 3.891e-08
 37.44684      3.0 1.485e+04 3.536e-08
 37.46714     -1.5 1.517e+04 4.293e-08
 37.48745     -3.1 1.518e+04 6.700e-08
 37.50408     -2.9 1.568e+04 7.866e-08
 37.51333     -4.7 1.521e+04 5.800e-08
 37.51700     -5.1 1.465e+04 4.701e-08
 37.52806     -6.6 1.419e+04 3.827e-08
 37.54836     -7.9 1.298e+04 2.099e-08
 37.56867     -8.9 1.208e+04 1.230e-08
 37.58368     -8.9 1.147e+04 8.454e-09
 37.60408     -9.5 1.151e+04 9.348e-09
 37.63993     -7.3 1.072e+04 5.399e-09
 37.68054     -4.9 1.032e+04 3.488e-09
 37.72115     -2.6 1.017e+04 3.116e-09
 37.74278      0.2 1.015e+04 3.116e-09
 37.76308     -0.5 9.952e+03 2.072e-09
 37.80238      2.4 9.987e+03 2.219e-09
 37.84299      4.8 1.019e+04 3.276e-09
 37.87005      7.3 1.076e+04 5.709e-09
 37.88010      7.8 1.051e+04 4.308e-09
 37.89143      8.0 1.054e+04 4.420e-09
 37.90168      7.9 1.019e+04 2.715e-09
 37.91396      9.9 1.099e+04 4.234e-09
 37.93417     10.6 1.128e+04 5.148e-09
 37.95447     11.9 1.132e+04 7.381e-09
 37.97093     12.7 1.181e+04 9.915e-09
 37.98108     11.7 1.232e+04 8.160e-09
 37.99508     12.7 1.230e+04 1.538e-08
 38.01539     12.6 1.411e+04 2.430e-08
 38.03569     12.4 1.600e+04 5.782e-08
 38.05038     11.5 1.703e+04 1.129e-07
 38.05588     11.3 1.638e+04 1.036e-07
 38.06145     11.6 1.708e+04 1.257e-07
 38.07113     11.0 1.708e+04 2.542e-07
 38.08128     11.7 1.710e+04 4.448e-07
 38.09008     13.2 1.711e+04 6.459e-07
 38.09516     12.6 1.833e+04 2.256e-07
 38.10159     12.0 1.875e+04 2.036e-07
 38.11174     10.2 1.911e+04 1.262e-07
 38.12189      8.2 1.845e+04 1.050e-07
 38.12983      5.0 1.692e+04 7.843e-08
 38.14003      2.2 1.482e+04 1.688e-08
 38.15753      1.1 1.429e+04 1.649e-08
 38.17783      0.6 1.470e+04 1.858e-08
 38.19814      0.6 1.482e+04 2.442e-08
 38.20943      1.0 1.487e+04 3.122e-08
 38.21958     -0.1 1.311e+04 8.365e-09
 38.23285     -0.0 1.287e+04 1.182e-08
 38.24300     -0.5 1.325e+04 1.613e-08
 38.25905     -0.1 1.283e+04 1.980e-08
 38.27877      0.5 1.269e+04 2.138e-08
 38.28893      0.8 1.142e+04 1.405e-08
 38.29966      1.7 1.162e+04 1.512e-08
 38.31997      2.3 1.155e+04 1.358e-08
 38.34028      3.0 1.131e+04 1.053e-08
 38.35827      3.6 1.099e+04 7.884e-09
 38.36843      3.8 1.087e+04 7.029e-09
 38.38089      4.5 1.054e+04 5.545e-09
 38.40119      5.2 1.023e+04 4.237e-09
 38.41435      6.0 9.976e+03 3.398e-09
 38.42450      5.9 9.967e+03 3.415e-09
 38.45205      7.0 9.638e+03 2.439e-09
 38.49276      9.3 9.121e+03 1.514e-09
 38.51747     11.5 8.853e+03 1.159e-09
 38.53777     11.8 8.897e+03 1.196e-09
 38.57398     14.0 8.826e+03 9.602e-10
 38.59604     16.1 8.830e+03 8.589e-10
 38.61635     16.1 8.955e+03 1.078e-09
 38.65520     18.2 8.942e+03 1.148e-09
 38.67647     20.1 8.914e+03 1.445e-09
 38.69677     20.2 8.939e+03 1.291e-09
 38.73643     22.4 8.861e+03 1.539e-09
 38.77704     24.7 8.851e+03 1.682e-09
 38.81516     26.7 8.881e+03 1.736e-09
 38.83547     26.7 8.783e+03 9.252e-10
 38.85826     28.5 8.755e+03 9.178e-10
 38.89887     30.1 8.736e+03 1.010e-09
 38.93874     31.8 8.709e+03 1.228e-09
 38.95904     31.8 8.786e+03 1.348e-09
 38.97416     33.7 8.788e+03 1.633e-09
 38.99447     33.8 8.731e+03 1.114e-09
 39.02070     35.8 8.762e+03 1.383e-09
 39.06131     37.8 8.846e+03 1.583e-09
 39.10192     39.6 9.011e+03 1.793e-09
 39.13316     41.1 9.222e+03 2.194e-09
 39.15347     40.9 9.415e+03 2.679e-09
 39.18315     42.3 9.639e+03 3.479e-09
 39.22376     43.5 9.913e+03 4.417e-09
 39.25412     44.2 1.005e+04 4.928e-09
 39.27433     44.5 1.017e+04 5.387e-09
 39.29197     44.8 1.028e+04 5.843e-09
 39.30212     44.6 1.023e+04 5.399e-09
 39.31169     44.8 1.036e+04 5.800e-09
 39.32185     44.9 1.052e+04 6.429e-09
 39.33524     45.1 1.066e+04 6.890e-09
 39.35555     45.2 1.085e+04 7.121e-09
 39.37147     45.2 1.092e+04 7.090e-09
 39.38162     45.0 1.088e+04 6.489e-09
 39.39616     44.9 1.091e+04 6.440e-09
 39.41646     44.9 1.093e+04 6.102e-09
 39.43677     44.7 1.099e+04 5.477e-09
 39.45097     44.4 1.100e+04 4.385e-09
 39.46112     43.4 1.123e+04 6.165e-09
 39.47738     43.1 1.120e+04 6.074e-09
 39.50794     42.4 1.135e+04 5.789e-09
 39.54864     41.4 1.144e+04 4.957e-09
 39.58925     40.9 1.153e+04 4.353e-09
 39.61016     40.6 1.141e+04 4.309e-09
 39.63047     38.5 1.141e+04 6.862e-09
 39.66473     38.0 1.107e+04 5.866e-09
 39.68504     38.2 1.076e+04 5.194e-09
 39.71109     38.1 1.076e+04 5.247e-09
 39.74885     37.8 1.077e+04 5.033e-09
 39.76916     35.9 1.084e+04 2.492e-09
 39.79231     35.8 1.048e+04 2.074e-09
 39.83292     35.3 1.014e+04 1.624e-09
 39.87353     34.7 9.892e+03 1.580e-09
 39.90785     33.9 9.810e+03 1.827e-09
 39.92816     32.9 9.820e+03 1.623e-09
 39.95475     32.9 9.780e+03 2.394e-09
 39.99536     33.1 9.845e+03 3.130e-09
 40.02773     33.1 9.873e+03 3.726e-09
 40.04794     33.0 9.930e+03 4.055e-09
 40.06624     32.8 9.913e+03 4.503e-09
 40.07681     32.7 9.880e+03 4.599e-09
 40.08706     32.2 9.928e+03 4.457e-09
 40.11720     32.3 9.593e+03 4.077e-09
 40.15781     32.9 9.174e+03 2.996e-09
 40.19842     33.7 8.849e+03 1.868e-09
 40.22585     34.3 8.611e+03 1.247e-09
 40.24616     33.0 8.710e+03 1.018e-09
 40.27964     34.0 8.608e+03 1.005e-09
 40.32025     35.2 8.558e+03 1.101e-09
 40.36086     36.9 8.693e+03 1.594e-09
 40.38476     37.2 9.123e+03 2.346e-09
 40.39422     35.9 9.628e+03 4.097e-09
 40.40069     35.9 9.607e+03 4.431e-09
 40.41143     35.9 9.869e+03 4.930e-09
 40.43174     35.7 1.031e+04 6.130e-09
 40.45204     35.6 1.076e+04 7.780e-09
 40.46416     35.6 1.122e+04 9.645e-09
 40.47431     32.9 1.213e+04 1.498e-08
 40.49265     32.3 1.243e+04 1.791e-08
 40.51296     31.3 1.278e+04 2.238e-08
 40.53326     30.1 1.329e+04 3.099e-08
 40.54366     29.2 1.407e+04 4.625e-08
 40.55381     28.2 1.366e+04 4.158e-08
 40.57204     28.5 1.420e+04 4.644e-08
 40.58219     28.3 1.415e+04 4.504e-08
 40.59418     28.4 1.403e+04 3.827e-08
 40.61300     27.6 1.368e+04 2.802e-08
 40.62316     23.7 1.080e+04 8.635e-09
 40.63479     23.2 1.022e+04 7.311e-09
 40.65509     22.8 9.906e+03 6.700e-09
 40.67540     23.1 9.656e+03 6.224e-09
 40.69250     23.4 9.557e+03 5.930e-09
 40.70266     23.2 9.344e+03 5.377e-09
 40.71601     23.3 9.405e+03 5.576e-09
 40.73632     23.7 9.497e+03 6.049e-09
 40.75354     24.2 9.704e+03 7.087e-09
 40.76369     23.8 9.839e+03 7.227e-09
 40.77200     24.3 1.015e+04 9.000e-09
 40.78216     23.0 1.037e+04 1.073e-08
 40.79723     23.6 1.082e+04 1.357e-08
 40.81754     23.9 1.147e+04 1.802e-08
 40.83784     24.0 1.233e+04 2.551e-08
 40.85150     24.0 1.320e+04 3.661e-08
 40.86166     22.2 1.293e+04 3.390e-08
 40.87845     21.6 1.399e+04 4.599e-08
 40.89876     16.3 1.736e+04 6.527e-08
 40.91394      6.1 1.916e+04 1.031e-07
 40.92404      2.8 1.881e+04 1.193e-07
 40.93091     -1.9 1.781e+04 1.483e-07
 40.93677     -3.5 1.712e+04 1.310e-07
 40.94519     -2.1 1.644e+04 1.204e-07
 40.95968     -5.3 1.691e+04 1.276e-07
 40.97998     -9.4 1.663e+04 8.474e-08
 40.99516    -13.9 1.442e+04 3.988e-08
 41.00527    -15.0 1.386e+04 3.712e-08
 41.01045    -17.5 1.346e+04 2.734e-08
 41.02066    -17.7 1.271e+04 2.107e-08
 41.04090    -21.1 1.157e+04 1.500e-08
 41.06120    -23.1 1.070e+04 1.101e-08
 41.07985    -24.8 1.044e+04 7.872e-09
 41.09000    -24.1 1.061e+04 9.499e-09
 41.10181    -25.8 1.018e+04 6.802e-09
 41.11653    -27.0 9.722e+03 5.537e-09
 41.12669    -26.9 9.986e+03 6.477e-09
 41.14243    -27.3 9.801e+03 5.731e-09
 41.15935    -27.8 9.756e+03 4.900e-09
 41.16950    -27.6 9.769e+03 4.754e-09
 41.18304    -28.1 9.585e+03 4.264e-09
 41.20334    -28.3 9.543e+03 4.168e-09
 41.22365    -28.2 9.660e+03 4.331e-09
 41.23885    -28.1 9.826e+03 4.769e-09
 41.24900    -28.1 9.828e+03 4.679e-09
 41.26426    -28.0 1.001e+04 5.339e-09
 41.28456    -27.9 1.022e+04 6.261e-09
 41.29803    -27.8 1.045e+04 7.482e-09
 41.30819    -28.5 1.087e+04 1.021e-08
 41.31835    -28.1 1.109e+04 1.174e-08
 41.32850    -28.1 1.113e+04 1.178e-08
 41.34548    -27.8 1.135e+04 1.242e-08
 41.36579    -27.6 1.146e+04 1.184e-08
 41.38609    -27.7 1.142e+04 1.122e-08
 41.39785    -27.8 1.148e+04 1.060e-08
 41.40800    -27.8 1.133e+04 8.988e-09
 41.42670    -27.8 1.130e+04 7.490e-09
 41.44701    -28.1 1.126e+04 6.018e-09
 41.46720    -28.5 1.116e+04 4.947e-09
 41.47735    -28.1 1.088e+04 3.958e-09
 41.47953    -28.2 1.080e+04 3.420e-09
 41.48969    -28.7 1.070e+04 2.852e-09
 41.50792    -28.8 1.071e+04 2.711e-09
 41.52823    -28.7 1.070e+04 2.966e-09
 41.54670    -28.3 1.072e+04 3.487e-09
 41.55685    -27.6 1.055e+04 2.879e-09
 41.56884    -27.1 1.061e+04 3.276e-09
 41.58914    -26.5 1.067e+04 3.741e-09
 41.60945    -26.0 1.072e+04 4.319e-09
 41.62620    -25.4 1.071e+04 4.813e-09
 41.63635    -24.8 1.058e+04 4.129e-09
 41.65006    -24.1 1.065e+04 4.684e-09
 41.66103    -23.5 1.064e+04 5.087e-09
 41.67119    -23.6 1.049e+04 4.503e-09
 41.69067    -22.8 1.047e+04 4.482e-09
 41.70570    -22.1 1.038e+04 4.132e-09
 41.71585    -21.6 1.034e+04 3.891e-09
 41.73128    -20.9 1.027e+04 3.387e-09
 41.75159    -20.5 1.017e+04 2.883e-09
 41.77514    -19.9 1.018e+04 3.058e-09
 41.79554    -19.1 1.019e+04 3.055e-09
 41.82242    -18.1 1.002e+04 2.884e-09
 41.84273    -18.6 9.791e+03 2.411e-09
 41.86346    -17.3 9.769e+03 2.841e-09
 41.90407    -15.6 9.798e+03 3.181e-09
 41.93424    -13.9 9.828e+03 3.315e-09
 41.95454    -14.4 1.021e+04 4.785e-09
 41.98530    -12.9 1.025e+04 5.025e-09
 42.02591    -11.4 1.048e+04 6.473e-09
 42.05627    -10.3 1.088e+04 8.975e-09
 42.07648    -10.1 1.091e+04 9.036e-09
 42.09304     -9.0 1.103e+04 1.048e-08
 42.10320     -9.7 1.127e+04 1.125e-08
 42.11709     -9.5 1.166e+04 1.353e-08
 42.13739     -9.4 1.205e+04 1.641e-08
 42.15770     -9.2 1.252e+04 2.167e-08
 42.17254     -9.5 1.327e+04 2.898e-08
 42.18270    -10.8 1.307e+04 2.608e-08
 42.19538    -11.4 1.375e+04 3.391e-08
 42.20553    -10.2 1.281e+04 2.028e-08
 42.21861    -10.9 1.361e+04 2.801e-08
 42.23892    -11.9 1.417e+04 3.942e-08
 42.25204    -12.7 1.433e+04 4.904e-08
 42.26220    -13.8 1.374e+04 3.984e-08
 42.27953    -14.0 1.372e+04 4.241e-08
 42.29984    -14.2 1.346e+04 3.756e-08
 42.32014    -15.4 1.317e+04 2.610e-08
 42.33154    -17.1 1.263e+04 1.852e-08
 42.34169    -17.6 1.198e+04 1.329e-08
 42.36075    -18.9 1.099e+04 9.419e-09
 42.37688    -19.4 1.032e+04 6.806e-09
 42.38703    -18.7 1.103e+04 9.413e-09
 42.40089    -19.3 1.026e+04 6.727e-09
 42.41104    -19.1 1.017e+04 6.156e-09
 42.42167    -19.1 9.938e+03 4.451e-09
 42.44197    -19.6 9.866e+03 3.124e-09
 42.46228    -20.7 9.786e+03 2.440e-09
 42.48039    -21.7 9.709e+03 2.328e-09
 42.49054    -21.0 9.693e+03 2.295e-09
 42.50289    -21.7 9.716e+03 2.543e-09
 42.52319    -22.0 9.623e+03 3.076e-09
 42.54350    -21.6 9.761e+03 3.498e-09
 42.55838    -21.2 9.896e+03 3.511e-09
 42.56461    -21.1 9.992e+03 3.825e-09
 42.57004    -20.9 9.984e+03 3.792e-09
 42.58411    -21.0 1.016e+04 3.169e-09
 42.60442    -21.9 1.020e+04 2.894e-09
 42.62472    -22.6 1.024e+04 2.973e-09
 42.63939    -23.2 1.019e+04 3.767e-09
 42.64954    -23.2 1.006e+04 3.326e-09
 42.66533    -23.1 1.016e+04 4.067e-09
 42.68564    -22.8 1.032e+04 4.761e-09
 42.70594    -22.5 1.049e+04 5.294e-09
 42.71889    -22.2 1.058e+04 5.473e-09
 42.72904    -22.8 1.035e+04 4.006e-09
 42.73988    -22.5 1.040e+04 4.123e-09
 42.75003    -22.9 1.061e+04 5.108e-09
 42.76686    -22.6 1.070e+04 5.026e-09
 42.78717    -22.5 1.077e+04 4.954e-09
 42.79839    -22.5 1.096e+04 5.123e-09
 42.80854    -22.6 1.075e+04 4.396e-09
 42.82778    -22.8 1.092e+04 5.083e-09
 42.84808    -22.8 1.105e+04 6.240e-09
 42.86774    -22.5 1.124e+04 7.629e-09
 42.87789    -22.6 1.107e+04 7.479e-09
 42.88869    -22.0 1.128e+04 8.576e-09
 42.90900    -21.4 1.132e+04 8.844e-09
 42.92138    -20.8 1.130e+04 7.374e-09
 42.93153    -21.1 1.161e+04 9.734e-09
 42.94724    -21.1 1.148e+04 7.118e-09
 42.95739    -21.1 1.133e+04 8.095e-09
 42.96991    -21.4 1.110e+04 6.262e-09
 42.99022    -21.6 1.086e+04 5.144e-09
 43.01053    -21.4 1.078e+04 4.754e-09
 43.02673    -21.2 1.067e+04 4.797e-09
 43.03689    -20.8 1.051e+04 4.394e-09
 43.05114    -20.4 1.047e+04 4.346e-09
 43.07144    -19.7 1.040e+04 4.522e-09
 43.09175    -18.8 1.040e+04 4.524e-09
 43.10288    -18.0 1.056e+04 4.011e-09
 43.10721    -18.4 1.064e+04 4.652e-09
 43.11639    -18.1 1.047e+04 3.789e-09
 43.13236    -17.8 1.046e+04 3.587e-09
 43.15266    -17.0 1.047e+04 3.329e-09
 43.17297    -16.8 1.055e+04 3.147e-09
 43.18573    -16.0 1.055e+04 3.175e-09
 43.20614    -15.2 1.045e+04 2.735e-09
 43.23398    -14.4 1.051e+04 3.054e-09
 43.25419    -14.3 1.074e+04 3.160e-09
 43.26523    -14.0 1.066e+04 4.060e-09
 43.27511    -13.4 1.047e+04 3.399e-09
 43.28438    -13.7 1.057e+04 3.930e-09
 43.29480    -13.4 1.092e+04 4.345e-09
 43.31511    -12.9 1.093e+04 5.478e-09
 43.33458    -12.6 1.122e+04 6.133e-09
 43.34473    -12.0 1.109e+04 5.871e-09
 43.35572    -11.5 1.116e+04 6.760e-09
 43.37602    -11.3 1.120e+04 7.015e-09
 43.39633    -10.9 1.109e+04 6.648e-09
 43.41408    -10.4 1.085e+04 6.145e-09
 43.42423     -9.7 1.083e+04 6.185e-09
 43.43694     -9.0 1.082e+04 4.654e-09
 43.45572     -8.6 1.036e+04 4.052e-09
 43.46587     -8.7 1.028e+04 4.003e-09
 43.48353     -8.1 1.039e+04 2.640e-09
 43.50393     -6.8 1.028e+04 2.650e-09
 43.52851     -6.0 1.009e+04 1.867e-09
 43.56912     -4.5 9.996e+03 1.921e-09
 43.60973     -3.1 1.025e+04 2.533e-09
 43.63742     -1.5 1.042e+04 3.349e-09
 43.64747     -1.0 1.031e+04 3.293e-09
 43.65258     -0.7 1.038e+04 3.634e-09
 43.66283     -0.2 1.027e+04 3.101e-09
 43.69095      1.5 1.040e+04 3.421e-09
 43.72131      2.6 1.049e+04 3.350e-09
 43.73208      2.9 1.055e+04 3.322e-09
 43.74223      3.2 1.048e+04 2.819e-09
 43.76183      4.6 1.049e+04 2.552e-09
 43.78213      4.8 1.056e+04 2.567e-09
 43.80143      6.1 1.062e+04 2.566e-09
 43.82183      7.1 1.055e+04 2.161e-09
 43.84315      7.4 1.078e+04 2.972e-09
 43.86335      8.3 1.089e+04 4.108e-09
 43.88093      9.2 1.118e+04 5.681e-09
 43.89108      9.2 1.101e+04 4.382e-09
 43.90396      9.9 1.135e+04 6.280e-09
 43.92427     10.4 1.185e+04 9.162e-09
 43.94458     10.1 1.254e+04 1.419e-08
 43.96043      9.3 1.350e+04 2.546e-08
 43.97058      8.5 1.339e+04 2.553e-08
 43.98519      8.2 1.423e+04 4.427e-08
 44.00022      8.3 1.469e+04 5.482e-08
 44.01037      7.8 1.448e+04 4.683e-08
 44.02580      8.2 1.417e+04 3.313e-08
 44.03993      7.6 1.392e+04 1.832e-08
 44.05008      7.0 1.311e+04 8.651e-09
 44.06641      5.4 1.289e+04 5.258e-09
 44.08671      4.8 1.236e+04 4.708e-09
 44.10702      4.8 1.228e+04 4.991e-09
 44.11943      4.8 1.244e+04 5.900e-09
 44.12958      4.4 1.229e+04 5.396e-09
 44.14763      3.9 1.263e+04 7.175e-09
 44.16794      2.8 1.305e+04 1.092e-08
 44.18172      1.9 1.332e+04 1.833e-08
 44.19187      1.9 1.336e+04 1.942e-08
 44.19893      1.1 1.384e+04 2.507e-08
 44.20908      1.6 1.340e+04 1.740e-08
 44.22885     -0.5 1.450e+04 1.728e-08
 44.24916     -7.1 1.711e+04 2.834e-08
 44.26434     -9.8 1.612e+04 6.027e-08
 44.27237    -10.7 1.656e+04 7.891e-08
 44.27626    -10.7 1.661e+04 7.472e-08
 44.27838     -9.3 1.602e+04 4.026e-08
 44.28464    -10.1 1.567e+04 1.180e-07
 44.29475     -9.8 1.639e+04 1.366e-07
 44.31002    -11.3 1.689e+04 1.203e-07
 44.32525    -14.3 1.758e+04 5.072e-08
 44.33536    -15.4 1.739e+04 4.828e-08
 44.34772    -22.1 1.560e+04 2.747e-08
 44.35793    -19.7 1.525e+04 2.536e-08
 44.36322    -23.3 1.426e+04 1.274e-08
 44.37337    -24.6 1.411e+04 1.107e-08
 44.39129    -27.5 1.364e+04 7.566e-09
 44.41160    -29.7 1.316e+04 7.201e-09
 44.42727    -30.2 1.274e+04 8.119e-09
 44.43743    -29.3 1.257e+04 6.097e-09
 44.45221    -29.1 1.249e+04 6.867e-09
 44.47252    -28.7 1.239e+04 6.066e-09
 44.49282    -28.4 1.233e+04 4.212e-09
 44.50677    -28.5 1.227e+04 2.816e-09
 44.51693    -27.5 1.220e+04 3.280e-09
 44.53343    -27.6 1.208e+04 2.353e-09
 44.54472    -27.7 1.184e+04 2.058e-09
 44.55487    -28.1 1.184e+04 2.068e-09
 44.57404    -27.9 1.180e+04 2.017e-09
 44.58627    -27.8 1.182e+04 2.176e-09
 44.59643    -27.4 1.181e+04 2.464e-09
 44.61465    -27.6 1.163e+04 3.130e-09
 44.63496    -27.5 1.157e+04 4.218e-09
 44.65527    -27.4 1.169e+04 5.588e-09
 44.66577    -27.5 1.181e+04 7.382e-09
 44.67593    -26.8 1.165e+04 7.411e-09
 44.69588    -27.0 1.172e+04 8.468e-09
 44.71607    -27.2 1.176e+04 9.510e-09
 44.72622    -27.4 1.175e+04 9.222e-09
 44.73512    -27.4 1.184e+04 1.031e-08
 44.74527    -27.1 1.152e+04 8.029e-09
 44.75679    -27.0 1.156e+04 9.208e-09
 44.77710    -26.6 1.166e+04 1.017e-08
 44.79740    -26.1 1.180e+04 1.023e-08
 44.81462    -25.5 1.181e+04 9.738e-09
 44.82477    -25.0 1.144e+04 9.580e-09
 44.83801    -24.4 1.168e+04 9.521e-09
 44.86857    -24.1 1.170e+04 9.448e-09
 44.89431    -22.2 1.185e+04 9.904e-09
 44.91462    -20.4 1.194e+04 1.228e-08
 44.94989    -18.9 1.229e+04 1.436e-08
 44.97372    -18.4 1.273e+04 1.613e-08
 44.98377    -18.0 1.312e+04 2.295e-08
 45.00046    -18.1 1.347e+04 2.977e-08
 45.02076    -17.3 1.405e+04 4.068e-08
 45.04107    -16.8 1.439e+04 4.604e-08
 45.05312    -16.1 1.465e+04 4.256e-08
 45.06327    -15.5 1.625e+04 1.198e-07
 45.07906    -16.0 1.629e+04 9.334e-08
 45.08922    -16.8 1.624e+04 8.725e-08
 45.10199    -18.2 1.564e+04 4.147e-08
 45.12229    -19.9 1.453e+04 1.929e-08
 45.13262    -21.0 1.319e+04 1.163e-08
 45.14277    -21.1 1.501e+04 3.752e-08
 45.16290    -22.1 1.377e+04 2.059e-08
 45.18321    -22.4 1.280e+04 1.448e-08
 45.20197    -22.3 1.219e+04 1.169e-08
 45.21212    -22.4 1.272e+04 1.678e-08
 45.22382    -22.3 1.206e+04 1.237e-08
 45.24412    -22.1 1.166e+04 1.029e-08
 45.27468    -21.3 1.137e+04 8.524e-09
 45.31539    -19.7 1.093e+04 6.952e-09
 45.35101    -18.6 1.088e+04 6.776e-09
 45.37131    -18.8 1.082e+04 6.656e-09
 45.39661    -18.2 1.107e+04 9.076e-09
 45.43211    -17.0 1.137e+04 1.173e-08
 45.45241    -16.6 1.072e+04 7.537e-09
 45.47783    -15.9 1.081e+04 8.377e-09
 45.51001    -15.4 1.066e+04 7.039e-09
 45.53031    -15.4 1.073e+04 7.257e-09
 45.55905    -14.8 1.033e+04 5.282e-09
 45.59966    -13.5 1.000e+04 3.885e-09
 45.64027    -11.9 9.750e+03 2.662e-09
 45.66901    -10.4 9.602e+03 1.898e-09
 45.68931    -10.3 9.607e+03 1.775e-09
 45.72150     -8.9 9.515e+03 1.422e-09
 45.76211     -7.3 9.485e+03 1.316e-09
 45.79510     -5.5 9.457e+03 1.266e-09
 45.81541     -5.0 9.402e+03 1.270e-09
 45.82801     -2.9 9.607e+03 1.015e-09
 45.84831     -3.6 9.657e+03 1.177e-09
 45.88394     -2.4 9.754e+03 1.153e-09
 45.92455     -1.9 1.008e+04 1.620e-09
 45.95491     -2.0 1.065e+04 2.842e-09
 45.97512     -2.5 1.100e+04 3.608e-09
 45.98656     -3.1 1.105e+04 7.073e-09
 45.98810     -3.1 1.109e+04 7.638e-09
 45.99696     -3.2 1.100e+04 7.885e-09
 46.01573     -2.3 1.106e+04 8.567e-09
 46.03604     -2.0 1.120e+04 7.419e-09
 46.05616     -2.5 1.135e+04 5.432e-09
 46.06631     -4.4 1.084e+04 3.579e-09
 46.07665     -5.1 1.029e+04 3.724e-09
 46.09695     -5.1 1.032e+04 3.690e-09
 46.11726     -4.9 1.012e+04 3.954e-09
 46.13566     -4.7 1.021e+04 3.988e-09
 46.14581     -5.2 1.003e+04 3.328e-09
 46.15787     -5.2 1.008e+04 3.386e-09
 46.17817     -5.9 1.019e+04 3.974e-09
 46.19848     -6.0 1.007e+04 4.257e-09
 46.21516     -6.0 1.012e+04 4.376e-09
 46.22531     -6.1 9.866e+03 3.408e-09
 46.23909     -6.1 9.643e+03 3.787e-09
 46.25939     -6.0 9.660e+03 3.852e-09
 46.27970     -6.0 9.427e+03 3.924e-09
 46.29466     -5.7 9.259e+03 3.778e-09
 46.30491     -6.2 9.184e+03 2.945e-09
 46.33066     -5.5 8.956e+03 2.475e-09
 46.37127     -5.3 8.764e+03 1.825e-09
 46.41188     -4.4 8.532e+03 1.876e-09
 46.44370     -3.8 8.745e+03 2.577e-09
 46.46401     -3.1 8.641e+03 2.257e-09
 46.49310     -1.9 8.985e+03 3.476e-09
 46.52110     -1.1 9.563e+03 4.538e-09
 46.54141     -1.3 9.194e+03 2.319e-09
 46.57432     -0.9 9.468e+03 2.031e-09
 46.60270     -0.9 9.774e+03 2.229e-09
 46.62301     -0.2 9.642e+03 2.496e-09
 46.65555      0.6 9.998e+03 2.932e-09
 46.69616      1.7 1.045e+04 3.457e-09
 46.72652      2.7 1.082e+04 6.049e-09
 46.74673      3.3 1.100e+04 6.545e-09
 46.76150      1.1 1.293e+04 9.192e-09
 46.77166      0.7 1.316e+04 1.313e-08
 46.78734     -7.6 1.650e+04 5.825e-08
 46.79818     -8.2 1.682e+04 2.071e-07
 46.80190     -8.4 1.684e+04 1.893e-07
 46.80623     -8.6 1.720e+04 2.226e-07
 46.81262     -8.6 1.765e+04 3.924e-07
 46.82277     -6.6 1.752e+04 6.293e-07
 46.83293     -4.4 1.741e+04 4.081e-07
 46.84091     -2.7 1.751e+04 1.437e-07
 46.84598     -2.4 1.760e+04 1.429e-07
 46.85323     -6.7 1.751e+04 5.096e-08
 46.86851    -16.1 1.300e+04 1.214e-08
 46.88391    -20.4 1.054e+04 6.069e-09
 46.89406    -21.0 1.084e+04 7.808e-09
 46.90917    -21.2 1.063e+04 7.218e-09
 46.92050    -21.2 1.050e+04 7.122e-09
 46.93066    -20.6 1.047e+04 6.696e-09
 46.94978    -20.4 1.038e+04 7.005e-09
 46.97008    -19.8 1.023e+04 7.238e-09
 46.98985    -18.9 9.990e+03 6.907e-09
 47.00000    -18.6 1.019e+04 7.430e-09
 47.01070    -17.7 9.984e+03 6.920e-09
 47.03100    -16.9 9.780e+03 5.695e-09
 47.05131    -16.2 9.599e+03 4.360e-09
 47.06541    -15.7 9.485e+03 3.376e-09
 47.07330    -15.8 9.596e+03 3.651e-09
 47.07950    -15.0 9.803e+03 5.200e-09
 47.09192    -14.5 9.493e+03 3.815e-09
 47.11222    -14.2 9.267e+03 3.081e-09
 47.13253    -14.1 9.167e+03 2.897e-09
 47.14885    -13.4 9.127e+03 2.887e-09
 47.15900    -13.5 9.660e+03 3.343e-09
 47.17314    -12.9 9.716e+03 3.245e-09
 47.19344    -12.1 9.646e+03 3.125e-09
 47.21375    -11.1 9.469e+03 3.047e-09
 47.22835    -10.2 9.502e+03 3.001e-09
 47.23850    -11.6 1.142e+04 4.874e-09
 47.24690    -10.8 1.145e+04 4.692e-09
 47.25706    -11.8 1.204e+04 5.789e-09
 47.27467    -11.8 1.282e+04 7.332e-09
 47.29497    -12.4 1.417e+04 1.228e-08
 47.30785    -14.2 1.620e+04 2.941e-08
 47.31800    -15.7 1.705e+04 1.053e-07
 47.33046    -16.0 1.806e+04 1.190e-07
 47.33756    -18.2 1.900e+04 2.650e-07
 47.34263    -18.5 1.867e+04 3.957e-07
 47.34750    -19.4 1.865e+04 8.881e-07
 47.35258    -18.8 1.847e+04 1.100e-06
 47.36087    -19.4 1.788e+04 2.173e-06
 47.37102    -19.0 1.761e+04 3.445e-06
 47.38117    -21.3 1.794e+04 3.520e-06
 47.38725    -25.6 2.028e+04 1.070e-06
 47.39233    -27.9 2.176e+04 3.914e-07
 47.40148    -34.6 1.901e+04 1.290e-07
 47.41163    -35.9 1.673e+04 8.774e-08
 47.42178    -39.7 1.513e+04 4.935e-08
 47.42836    -40.9 1.459e+04 3.674e-08
 47.43856    -41.4 1.322e+04 2.146e-08
 47.45670    -43.9 1.107e+04 7.125e-09
 47.46685    -40.6 1.276e+04 1.595e-08
 47.47772    -43.0 1.077e+04 5.320e-09
 47.49803    -44.3 9.650e+03 3.428e-09
 47.51833    -44.3 9.518e+03 3.070e-09
 47.53620    -43.4 9.482e+03 2.988e-09
 47.54635    -42.8 9.496e+03 2.988e-09
 47.55894    -41.9 9.542e+03 2.997e-09
 47.58950    -40.7 9.744e+03 3.275e-09
 47.61010    -39.5 1.004e+04 4.020e-09
 47.63040    -40.3 9.602e+03 3.126e-09
 47.67082    -39.6 9.696e+03 3.366e-09
 47.69539    -38.7 9.636e+03 2.693e-09
 47.71570    -36.2 9.388e+03 2.211e-09
 47.75204    -35.4 9.405e+03 1.379e-09
 47.79265    -34.6 9.300e+03 8.329e-10
 47.83326    -33.8 9.141e+03 6.758e-10
 47.85439    -32.0 9.108e+03 6.647e-10
 47.87470    -30.1 8.907e+03 5.501e-10
 47.91448    -28.7 9.123e+03 5.645e-10
 47.95279    -27.9 9.254e+03 8.881e-10
 47.97310    -28.0 9.207e+03 9.396e-10
 47.99309    -26.8 9.355e+03 1.872e-09
 48.01339    -24.7 9.193e+03 1.279e-09
 48.03632    -23.4 9.336e+03 2.182e-09
 48.07693    -22.2 9.538e+03 3.295e-09
 48.11754    -21.0 9.786e+03 3.971e-09
 48.15209    -20.0 9.872e+03 4.105e-09
 48.17239    -18.6 9.679e+03 3.756e-09
 48.19876    -17.4 9.645e+03 3.566e-09
 48.23937    -15.9 9.562e+03 2.258e-09
 48.27998    -14.7 9.463e+03 1.309e-09
 48.31108    -13.4 9.372e+03 1.113e-09
 48.32659    -12.3 9.349e+03 1.025e-09
 48.33610    -12.2 9.102e+03 9.763e-10
 48.36120    -10.3 9.137e+03 8.909e-10
 48.40181     -8.2 9.255e+03 8.991e-10
 48.44242     -6.0 9.279e+03 1.014e-09
 48.47008     -3.8 9.387e+03 1.144e-09
 48.49039     -3.1 9.541e+03 1.199e-09
 48.52365     -1.4 9.672e+03 1.650e-09
 48.56426      0.4 9.947e+03 2.462e-09
 48.60487      1.7 1.044e+04 3.938e-09
 48.62908      2.9 1.140e+04 7.527e-09
 48.64939      2.6 1.151e+04 9.142e-09
 48.67584      3.4 1.179e+04 1.017e-08
 48.68875      3.8 1.221e+04 1.048e-08
 48.69890      3.5 1.225e+04 1.039e-08
 48.70839      3.9 1.293e+04 1.045e-08
 48.71854      3.1 1.207e+04 7.112e-09
 48.73666      2.1 1.239e+04 6.610e-09
 48.75696     -0.0 1.315e+04 7.484e-09
 48.77727     -5.4 1.582e+04 1.319e-08
 48.78789    -12.0 1.880e+04 3.358e-08
 48.79804     -8.2 1.458e+04 1.224e-08
 48.81788    -14.6 1.695e+04 2.674e-08
 48.83818    -19.4 1.771e+04 5.570e-08
 48.85724    -22.5 1.709e+04 7.490e-08
 48.86739    -19.3 1.642e+04 4.807e-08
 48.87025    -21.8 1.598e+04 5.921e-08
 48.88040    -21.6 1.560e+04 4.908e-08
 48.89910    -23.1 1.477e+04 4.261e-08
 48.91941    -24.2 1.404e+04 2.213e-08
 48.93674    -26.0 1.325e+04 9.694e-09
 48.94689    -23.6 1.383e+04 1.908e-08
 48.96002    -25.5 1.295e+04 8.561e-09
 48.98032    -26.9 1.234e+04 5.768e-09
 49.00063    -27.5 1.211e+04 4.963e-09
 49.01623    -27.8 1.206e+04 4.548e-09
 49.02639    -27.3 1.206e+04 4.626e-09
 49.04124    -27.8 1.202e+04 4.377e-09
 49.05175    -28.6 1.205e+04 4.366e-09
 49.06190    -29.5 1.216e+04 4.408e-09
 49.08185    -31.6 1.293e+04 5.040e-09
 49.09573    -34.3 1.325e+04 8.886e-09
 49.10589    -33.9 1.314e+04 7.224e-09
 49.12246    -36.2 1.331e+04 1.298e-08
 49.14277    -38.1 1.359e+04 1.801e-08
 49.16307    -40.3 1.367e+04 1.899e-08
 49.17523    -42.4 1.357e+04 1.496e-08
 49.18539    -42.3 1.364e+04 1.589e-08
 49.20368    -44.5 1.359e+04 9.591e-09
 49.22309    -46.5 1.340e+04 6.486e-09
 49.23325    -46.7 1.311e+04 6.172e-09
 49.24429    -47.3 1.309e+04 5.807e-09
 49.25473    -47.5 1.310e+04 5.769e-09
 49.26489    -47.8 1.314e+04 5.791e-09
 49.28490    -47.7 1.320e+04 5.844e-09
 49.30521    -47.5 1.321e+04 6.158e-09
 49.32408    -47.3 1.319e+04 6.613e-09
 49.33423    -47.6 1.303e+04 6.607e-09
 49.34582    -47.2 1.305e+04 7.087e-09
 49.37638    -46.6 1.315e+04 7.559e-09
 49.40368    -45.7 1.320e+04 7.491e-09
 49.41169    -45.7 1.288e+04 5.678e-09
 49.42509    -45.4 1.335e+04 5.343e-09
 49.45770    -44.5 1.365e+04 5.647e-09
 49.48318    -44.0 1.376e+04 7.151e-09
 49.49323    -43.6 1.336e+04 3.810e-09
 49.50826    -43.3 1.348e+04 4.333e-09
 49.52857    -42.8 1.363e+04 5.128e-09
 49.54888    -42.5 1.366e+04 6.241e-09
 49.56258    -41.9 1.369e+04 8.020e-09
 49.58298    -41.7 1.370e+04 3.960e-09
 49.62014    -41.2 1.359e+04 6.295e-09
 49.66075    -40.6 1.343e+04 8.023e-09
 49.70136    -39.8 1.333e+04 8.498e-09
 49.73172    -39.5 1.335e+04 7.633e-09
 49.75193    -39.4 1.328e+04 7.533e-09
 49.76759    -39.0 1.318e+04 7.418e-09
 49.78799    -39.1 1.325e+04 8.247e-09
 49.81294    -38.8 1.319e+04 9.006e-09
 49.83315    -38.8 1.315e+04 9.210e-09
 49.85346    -38.5 1.294e+04 9.295e-09
 49.87043    -38.0 1.263e+04 8.670e-09
 49.88058    -37.9 1.260e+04 8.140e-09
 49.89407    -37.4 1.249e+04 6.584e-09
 49.91437    -36.8 1.241e+04 5.356e-09
 49.93468    -36.1 1.231e+04 4.462e-09
 49.94909    -35.5 1.218e+04 3.822e-09
 49.95419    -35.3 1.220e+04 4.358e-09
 49.96008    -35.4 1.222e+04 4.011e-09
 49.97529    -34.5 1.209e+04 3.595e-09
 49.99559    -33.4 1.199e+04 3.302e-09
 50.01937    -32.0 1.182e+04 2.970e-09
 50.03968    -31.3 1.188e+04 2.975e-09
 50.05651    -30.3 1.183e+04 2.854e-09
 50.07682    -29.4 1.172e+04 2.767e-09
 50.09712    -28.0 1.165e+04 2.666e-09
 50.10893    -27.0 1.161e+04 2.793e-09
 50.11908    -26.5 1.173e+04 3.032e-09
 50.13069    -25.2 1.192e+04 3.431e-09
 50.15109    -24.3 1.181e+04 2.536e-09
 50.17847    -22.6 1.210e+04 2.722e-09
 50.19877    -23.0 1.230e+04 4.018e-09
 50.22930    -22.1 1.276e+04 8.297e-09
 50.25787    -22.4 1.319e+04 1.481e-08
 50.26793    -22.1 1.339e+04 1.901e-08
 50.27987    -22.3 1.413e+04 3.033e-08
 50.30018    -22.8 1.497e+04 4.475e-08
 50.31209    -24.1 1.557e+04 5.395e-08
 50.32224    -23.4 1.484e+04 2.650e-08
 50.33727    -25.4 1.493e+04 2.626e-08
 50.34743    -26.3 1.514e+04 2.915e-08
 50.36109    -28.6 1.513e+04 2.790e-08
 50.38140    -30.2 1.464e+04 2.267e-08
 50.40170    -31.2 1.408e+04 1.510e-08
 50.41677    -31.9 1.381e+04 9.414e-09
 50.42693    -32.4 1.393e+04 9.649e-09
 50.44231    -33.0 1.360e+04 6.955e-09
 50.46262    -33.0 1.333e+04 5.772e-09
 50.48293    -32.5 1.314e+04 4.891e-09
 50.49359    -31.9 1.302e+04 4.082e-09
 50.49678    -31.0 1.309e+04 4.153e-09
 50.50643    -31.1 1.311e+04 4.225e-09
 50.52354    -30.6 1.300e+04 3.574e-09
 50.54384    -29.9 1.292e+04 3.065e-09
 50.56415    -29.2 1.286e+04 2.722e-09
 50.59470    -27.9 1.287e+04 2.610e-09
 50.63516    -26.3 1.272e+04 2.240e-09
 50.65547    -25.9 1.274e+04 2.619e-09
 50.67602    -24.3 1.254e+04 2.011e-09
 50.71663    -22.5 1.234e+04 1.634e-09
 50.75724    -20.5 1.226e+04 1.544e-09
 50.79416    -18.6 1.223e+04 1.529e-09
 50.81447    -18.6 1.216e+04 1.677e-09
 50.83648    -16.6 1.212e+04 1.625e-09
 50.85678    -16.1 1.232e+04 1.877e-09
 50.87908    -14.2 1.220e+04 1.816e-09
 50.91969    -12.2 1.207e+04 1.753e-09
 50.95316    -10.1 1.207e+04 1.750e-09
 50.97347    -10.1 1.209e+04 1.897e-09
 51.00091     -8.6 1.197e+04 2.377e-09
 51.04152     -7.2 1.203e+04 3.977e-09
 51.08213     -5.8 1.219e+04 6.290e-09
 51.11216     -4.8 1.234e+04 8.492e-09
 51.13247     -5.5 1.226e+04 8.813e-09
 51.16335     -4.7 1.211e+04 8.997e-09
 51.19948     -3.6 1.182e+04 7.259e-09
 51.21978     -3.1 1.166e+04 4.781e-09
 51.24457     -1.7 1.148e+04 4.036e-09
 51.27116     -0.2 1.140e+04 3.538e-09
 51.29147     -0.1 1.113e+04 2.761e-09
 51.32580      1.9 1.116e+04 2.750e-09
 51.36641      3.1 1.136e+04 3.147e-09
 51.40702      4.0 1.135e+04 4.988e-09
 51.43016      5.2 1.130e+04 7.769e-09
 51.45047      5.4 1.092e+04 6.097e-09
 51.48824      5.8 1.070e+04 7.154e-09
 51.52885      6.1 1.017e+04 5.483e-09
 51.56248      5.6 9.652e+03 3.304e-09
 51.58217      6.0 9.753e+03 3.806e-09
 51.58916      6.2 9.434e+03 2.616e-09
 51.61007      5.7 9.082e+03 2.438e-09
 51.65068      6.2 8.852e+03 2.707e-09
 51.69129      7.2 8.449e+03 2.616e-09
 51.72785      8.3 8.215e+03 1.908e-09
 51.74816      9.0 8.317e+03 2.285e-09
 51.77252     10.0 8.015e+03 1.551e-09
 51.81313     10.7 7.808e+03 1.333e-09
 51.85374     12.1 7.789e+03 1.336e-09
 51.88685     12.9 8.031e+03 1.692e-09
 51.90716     13.8 8.180e+03 2.069e-09
 51.92547     14.3 8.718e+03 3.072e-09
 51.94578     13.7 8.772e+03 3.202e-09
 51.97557     13.0 1.010e+04 7.297e-09
 52.00593     13.4 1.111e+04 1.386e-08
 52.02614     13.4 1.137e+04 1.473e-08
 52.04576     12.7 1.176e+04 1.829e-08
 52.06616     13.2 1.143e+04 1.614e-08
 52.09740     11.8 1.121e+04 1.464e-08
 52.13801     11.2 1.053e+04 1.057e-08
 52.16837     11.0 9.868e+03 7.231e-09
 52.18858     11.2 9.564e+03 6.057e-09
 52.20466     11.2 9.294e+03 4.529e-09
 52.21481     11.4 9.539e+03 5.467e-09
 52.22919     10.9 9.238e+03 4.873e-09
 52.24950     11.0 9.228e+03 4.836e-09
 52.26980     10.7 9.314e+03 5.308e-09
 52.28416     10.5 9.572e+03 6.369e-09
 52.29248     10.7 9.693e+03 6.474e-09
 52.29843     10.7 9.452e+03 5.235e-09
 52.31041      9.6 9.833e+03 6.674e-09
 52.33072      8.9 9.999e+03 8.910e-09
 52.35103      8.7 1.033e+04 1.097e-08
 52.36366      8.2 1.050e+04 1.160e-08
 52.37381      7.0 1.078e+04 1.287e-08
 52.39164      5.5 1.085e+04 1.207e-08
 52.41194      3.6 1.057e+04 1.026e-08
 52.43225      1.7 1.034e+04 9.241e-09
 52.44316     -0.1 1.031e+04 8.837e-09
 52.45331     -2.4 1.062e+04 9.746e-09
 52.46978     -4.0 1.063e+04 9.555e-09
 52.47993     -5.8 1.072e+04 1.001e-08
 52.49316     -6.8 1.064e+04 1.016e-08
 52.51250     -7.5 1.064e+04 1.121e-08
 52.52266     -9.1 1.078e+04 1.182e-08
 52.53377     -9.8 1.106e+04 1.409e-08
 52.55408    -10.2 1.135e+04 1.716e-08
 52.57438    -10.0 1.151e+04 2.022e-08
 52.59200     -9.5 1.144e+04 2.040e-08
 52.60216     -9.7 1.161e+04 2.087e-08
 52.61500     -8.8 1.146e+04 1.779e-08
 52.63530     -8.4 1.100e+04 1.260e-08
 52.65128     -8.7 1.027e+04 7.949e-09
 52.66727    -10.3 9.163e+03 3.375e-09
 52.68175    -10.3 9.051e+03 3.681e-09
 52.69622     -9.3 8.750e+03 2.976e-09
 52.71652     -8.2 8.645e+03 2.558e-09
 52.74708     -6.3 8.532e+03 2.115e-09
 52.78779     -3.5 8.353e+03 1.636e-09
 52.82055     -1.7 8.081e+03 1.724e-09
 52.84085      0.6 8.572e+03 2.484e-09
 52.85876      1.1 7.715e+03 2.255e-09
 52.87897      1.5 8.110e+03 2.704e-09
 52.89927      2.4 9.320e+03 4.837e-09
 52.91000      0.1 1.045e+04 8.196e-09
 52.92016      1.2 1.383e+04 9.184e-09
 52.93988     -6.0 1.887e+04 3.251e-08
 52.95506    -14.3 2.020e+04 8.848e-08
 52.96517    -16.1 2.128e+04 9.642e-08
 52.97532    -19.9 2.118e+04 1.045e-07
 52.98433    -25.2 2.017e+04 1.120e-07
 52.98941    -26.9 2.066e+04 5.003e-07
 52.99562    -32.2 2.065e+04 2.140e-07
 53.00578    -34.5 2.015e+04 1.593e-07
 53.01418    -36.8 1.816e+04 1.120e-07
 53.02438    -36.9 1.769e+04 9.259e-08
 53.04141    -37.9 1.632e+04 5.994e-08
 53.05885    -37.7 1.494e+04 4.315e-08
 53.06900    -40.8 1.531e+04 3.589e-08
 53.08202    -38.9 1.298e+04 2.074e-08
 53.10233    -37.7 1.176e+04 1.379e-08
 53.12263    -36.5 1.071e+04 9.539e-09
 53.13835    -35.0 9.649e+03 6.646e-09
 53.14850    -35.6 9.456e+03 6.924e-09
 53.16324    -33.9 8.752e+03 4.972e-09
 53.18355    -32.2 8.208e+03 3.819e-09
 53.19578    -30.6 7.817e+03 3.087e-09
 53.20593    -30.9 7.751e+03 3.028e-09
 53.21785    -29.1 7.511e+03 2.575e-09
 53.22800    -29.1 7.525e+03 2.643e-09
 53.24446    -27.4 7.488e+03 2.430e-09
 53.27502    -25.4 7.530e+03 2.372e-09
 53.29755    -22.0 7.340e+03 2.114e-09
 53.31785    -21.8 7.443e+03 2.440e-09
 53.35634    -18.4 7.328e+03 2.208e-09
 53.37747    -15.1 7.321e+03 2.154e-09
 53.39778    -15.2 7.344e+03 2.177e-09
 53.43624    -12.0 7.591e+03 2.265e-09
 53.45654    -11.9 7.652e+03 2.544e-09
 53.47817     -9.1 7.811e+03 2.615e-09
 53.51878     -6.4 8.007e+03 2.781e-09
 53.55939     -4.0 8.296e+03 3.101e-09
 53.59524     -1.6 8.577e+03 3.454e-09
 53.61554     -1.9 8.582e+03 3.514e-09
 53.64062      0.5 8.748e+03 3.646e-09
 53.68123      2.6 8.688e+03 3.127e-09
 53.72016      4.6 8.340e+03 2.543e-09
 53.74047      4.2 8.298e+03 2.607e-09
 53.75424      6.3 8.086e+03 2.277e-09
 53.77454      6.1 8.161e+03 2.092e-09
 53.80306      8.1 7.939e+03 1.739e-09
 53.84367     10.1 7.792e+03 1.442e-09
 53.88428     12.4 7.740e+03 1.384e-09
 53.91324     13.8 7.946e+03 1.711e-09
 53.93354     13.6 8.052e+03 2.029e-09
 53.96550     14.6 8.495e+03 3.646e-09
 54.00611     16.5 9.076e+03 6.809e-09
 54.04672     18.5 9.510e+03 9.069e-09
 54.07224     19.8 9.660e+03 9.586e-09
 54.08837     19.5 9.064e+03 6.314e-09
 54.10347     18.9 8.339e+03 3.612e-09
 54.12795     20.2 8.375e+03 3.567e-09
 54.16856     21.8 8.507e+03 4.032e-09
 54.20917     23.6 8.668e+03 4.647e-09
 54.23124     25.4 8.739e+03 5.145e-09
 54.25154     24.7 9.216e+03 4.697e-09
 54.27472     26.3 9.044e+03 5.640e-09
 54.28477     26.3 8.773e+03 4.513e-09
 54.30035     27.1 8.720e+03 4.963e-09
 54.32065     26.9 1.016e+04 7.307e-09
 54.34096     27.5 1.068e+04 8.692e-09
 54.36126     28.0 1.101e+04 1.016e-08
 54.37989     28.3 1.134e+04 1.152e-08
 54.39004     26.2 1.346e+04 3.018e-08
 54.40187     26.4 1.339e+04 3.278e-08
 54.42218     26.6 1.323e+04 3.352e-08
 54.44248     26.8 1.304e+04 3.251e-08
 54.45612     26.9 1.281e+04 3.037e-08
 54.46287     26.4 1.335e+04 4.469e-08
 54.46954     26.2 1.482e+04 7.163e-08
 54.48310     25.4 1.471e+04 6.237e-08
 54.50340     24.5 1.436e+04 5.429e-08
 54.52371     24.1 1.390e+04 4.663e-08
 54.53889     24.1 1.345e+04 3.797e-08
 54.54904     22.8 1.291e+04 3.159e-08
 54.56432     22.8 1.233e+04 2.322e-08
 54.58462     22.2 1.187e+04 1.734e-08
 54.60493     22.3 1.127e+04 1.226e-08
 54.61839     22.0 1.094e+04 9.278e-09
 54.62854     21.4 1.077e+04 8.315e-09
 54.63762     21.3 1.047e+04 6.437e-09
 54.64777     20.4 1.012e+04 5.651e-09
 54.66584     20.4 1.008e+04 5.360e-09
 54.68615     20.5 1.020e+04 5.567e-09
 54.69789     20.7 1.031e+04 5.772e-09
 54.70814     20.9 1.043e+04 6.091e-09
 54.72686     20.4 1.067e+04 6.764e-09
 54.74707     20.5 1.079e+04 7.743e-09
 54.76724     20.8 1.110e+04 9.216e-09
 54.77739     20.5 1.114e+04 9.398e-09
 54.78768     21.0 1.131e+04 1.047e-08
 54.80798     21.4 1.166e+04 1.154e-08
 54.81912     21.9 1.184e+04 1.227e-08
 54.82927     20.9 1.119e+04 7.112e-09
 54.84674     20.7 1.128e+04 5.806e-09
 54.86714     18.7 1.014e+04 3.003e-09
 54.89955     17.9 9.660e+03 2.858e-09
 54.94016     18.1 9.430e+03 2.850e-09
 54.98077     18.2 9.461e+03 3.164e-09
 55.00593     17.9 9.835e+03 4.957e-09
 55.02624     17.6 9.443e+03 3.928e-09
 55.06200     17.4 1.003e+04 6.774e-09
 55.08533     17.3 1.054e+04 9.825e-09
 55.09539     17.5 1.050e+04 9.539e-09
 55.11256     17.7 1.075e+04 1.120e-08
 55.13287     17.4 1.129e+04 1.469e-08
 55.15318     17.5 1.169e+04 1.904e-08
 55.16473     17.8 1.203e+04 2.313e-08
 55.17337     18.0 1.167e+04 1.861e-08
 55.18212     18.7 1.146e+04 1.749e-08
 55.19379     19.2 1.167e+04 2.016e-08
 55.21409     19.7 1.203e+04 2.284e-08
 55.23408     19.5 1.281e+04 2.842e-08
 55.24423     19.7 1.182e+04 1.658e-08
 55.25470     18.7 1.293e+04 2.602e-08
 55.27501     17.7 1.425e+04 5.273e-08
 55.29531     17.1 1.578e+04 1.125e-07
 55.31358     16.6 1.705e+04 1.923e-07
 55.32373     15.6 1.654e+04 1.624e-07
 55.33592     15.2 1.745e+04 2.478e-07
 55.35346     14.1 1.744e+04 2.289e-07
 55.36362     15.0 1.716e+04 1.949e-07
 55.37653     14.6 1.652e+04 1.420e-07
 55.39308     14.0 1.514e+04 7.870e-08
 55.40323     14.3 1.403e+04 4.427e-08
 55.41715     13.1 1.284e+04 2.716e-08
 55.43745     11.4 1.203e+04 1.858e-08
 55.45776     10.5 1.151e+04 1.648e-08
 55.47258     10.8 1.140e+04 1.652e-08
 55.48273     11.1 1.083e+04 1.158e-08
 55.49837     11.6 1.084e+04 1.169e-08
 55.51867     11.9 1.096e+04 1.171e-08
 55.53506     13.0 1.102e+04 1.138e-08
 55.55546     12.9 9.858e+03 6.118e-09
 55.58994     14.2 9.786e+03 4.878e-09
 55.62162     14.6 9.545e+03 3.750e-09
 55.64193     15.7 8.957e+03 2.990e-09
 55.67116     16.2 8.764e+03 2.461e-09
 55.71177     16.7 8.771e+03 2.537e-09
 55.75238     17.7 8.774e+03 2.911e-09
 55.78062     19.2 8.760e+03 3.172e-09
 55.80093     19.2 8.030e+03 2.042e-09
 55.83360     21.0 7.835e+03 1.886e-09
 55.87421     22.8 7.658e+03 1.526e-09
 55.89816     24.5 7.560e+03 1.300e-09
 55.91846     25.0 7.472e+03 1.309e-09
 55.93962     27.0 7.375e+03 1.300e-09
 55.95993     28.0 7.174e+03 1.077e-09
 55.99605     30.2 7.191e+03 1.119e-09
 56.03666     32.5 7.258e+03 1.262e-09
 56.07727     34.7 7.369e+03 1.487e-09
 56.09862     36.8 7.537e+03 1.885e-09
 56.11893     37.8 7.377e+03 1.598e-09
 56.15849     39.9 7.510e+03 1.803e-09
 56.19910     41.8 7.639e+03 2.029e-09
 56.23732     43.6 7.757e+03 2.231e-09
 56.25762     44.3 7.490e+03 1.421e-09
 56.26116     45.8 7.526e+03 1.387e-09
 56.28146     45.6 7.556e+03 1.517e-09
 56.32093     46.8 7.598e+03 1.530e-09
 56.36154     48.0 7.714e+03 1.692e-09
 56.39632     49.1 7.940e+03 2.160e-09
 56.41662     49.7 7.684e+03 1.552e-09
 56.44277     50.9 7.932e+03 1.985e-09
 56.48338     51.8 8.236e+03 2.462e-09
 56.52399     52.1 8.511e+03 2.580e-09
 56.55532     52.0 8.595e+03 2.484e-09
 56.57562     53.2 8.590e+03 2.558e-09
 56.60385     53.0 8.603e+03 2.444e-09
 56.62415     53.3 8.476e+03 2.424e-09
 56.64582     53.2 8.508e+03 2.111e-09
 56.68643     53.2 8.407e+03 1.711e-09
 56.71432     53.5 8.269e+03 1.388e-09
 56.73462     54.9 8.483e+03 1.828e-09
 56.76765     55.3 8.413e+03 1.568e-09
 56.80826     55.7 8.431e+03 1.583e-09
 56.84887     55.8 8.537e+03 1.739e-09
 56.87331     55.4 8.980e+03 2.352e-09
 56.89362     56.6 8.967e+03 2.218e-09
 56.93010     55.1 9.792e+03 3.217e-09
 56.96685     52.0 1.135e+04 1.009e-08
 56.98715     53.0 1.056e+04 6.668e-09
 57.01132     50.3 1.100e+04 1.179e-08
 57.03231     48.8 1.070e+04 1.092e-08
 57.05262     50.6 1.067e+04 9.557e-09
 57.09254     49.4 1.042e+04 8.924e-09
 57.13315     48.9 9.854e+03 6.758e-09
 57.17101     49.0 9.423e+03 4.855e-09
 57.19131     50.4 9.839e+03 5.628e-09
 57.21437     50.7 9.417e+03 3.979e-09
 57.25498     50.9 9.118e+03 2.837e-09
 57.29559     51.4 9.002e+03 2.545e-09
 57.32985     51.9 9.022e+03 2.644e-09
 57.35015     52.7 8.704e+03 1.995e-09
 57.37682     53.1 8.852e+03 2.254e-09
 57.41743     53.5 9.078e+03 2.456e-09
 57.45804     54.0 9.332e+03 2.438e-09
 57.48901     54.5 9.412e+03 2.581e-09
 57.50931     55.6 9.035e+03 2.327e-09
 57.53926     56.0 9.196e+03 2.438e-09
 57.57987     56.4 9.280e+03 2.974e-09
 57.62048     56.8 9.459e+03 4.191e-09
 57.64801     57.2 9.777e+03 5.943e-09
 57.66831     58.0 9.467e+03 4.905e-09
 57.69285     58.4 9.771e+03 6.603e-09
 57.71315     57.2 9.916e+03 6.946e-09
 57.74231     57.4 9.858e+03 6.766e-09
 57.78292     57.5 9.687e+03 6.243e-09
 57.80701     58.0 9.580e+03 6.143e-09
 57.82731     58.0 9.115e+03 3.721e-09
 57.86415     58.5 9.131e+03 3.787e-09
 57.90476     58.6 9.400e+03 4.452e-09
 57.94537     57.9 1.023e+04 7.006e-09
 57.96591     56.5 1.014e+04 6.671e-09
 57.98621     55.0 9.458e+03 4.588e-09
 58.02659     52.9 9.982e+03 7.005e-09
 58.05575     51.7 9.743e+03 6.087e-09
 58.06580     51.3 9.445e+03 5.350e-09
 58.07716     50.4 9.410e+03 5.006e-09
 58.09746     49.2 9.405e+03 4.453e-09
 58.11466     48.5 9.342e+03 4.120e-09
 58.12491     49.1 8.895e+03 3.195e-09
 58.14842     48.0 8.561e+03 2.452e-09
 58.18903     47.4 8.219e+03 1.864e-09
 58.22964     47.5 8.302e+03 1.773e-09
 58.26370     47.5 8.445e+03 1.980e-09
 58.28401     48.0 8.318e+03 1.947e-09
 58.31087     47.7 8.663e+03 2.523e-09
 58.34123     47.4 8.830e+03 3.051e-09
 58.35316     47.2 8.966e+03 3.648e-09
 58.36331     46.8 9.043e+03 4.079e-09
 58.38174     46.6 9.305e+03 5.319e-09
 58.40204     46.3 9.651e+03 6.860e-09
 58.41865     45.7 1.014e+04 9.090e-09
 58.42880     45.2 1.048e+04 1.060e-08
 58.43266     43.0 1.167e+04 1.770e-08
 58.44281     41.9 1.179e+04 1.875e-08
 58.46296     39.7 1.287e+04 3.152e-08
 58.48327     38.7 1.373e+04 4.863e-08
 58.50200     37.8 1.393e+04 4.999e-08
 58.51216     35.9 1.288e+04 2.579e-08
 58.52388     34.4 1.249e+04 2.172e-08
 58.54418     33.0 1.189e+04 1.644e-08
 58.56449     31.9 1.125e+04 1.188e-08
 58.58160     31.8 1.086e+04 6.880e-09
 58.60201     30.0 1.011e+04 5.322e-09
 58.63575     31.1 9.760e+03 2.616e-09
 58.67636     32.0 9.863e+03 1.264e-09
 58.71697     32.7 9.767e+03 8.734e-10
 58.74070     34.0 9.686e+03 8.964e-10
 58.76100     32.7 9.593e+03 8.578e-10
 58.78184     34.2 9.747e+03 1.300e-09
 58.80215     34.0 9.973e+03 1.440e-09
 58.83881     35.8 1.014e+04 2.456e-09
 58.87939     37.9 1.042e+04 3.426e-09
 58.92000     38.0 1.057e+04 3.277e-09
 58.96064     39.4 1.078e+04 2.161e-09
 59.00125     40.1 1.074e+04 1.580e-09
 59.03839     41.0 1.061e+04 1.563e-09
 59.05870     40.1 1.029e+04 2.293e-09
 59.08247     41.4 1.083e+04 2.806e-09
 59.11283     42.3 1.102e+04 3.091e-09
 59.12785     43.0 1.122e+04 3.445e-09
 59.13800     41.9 1.169e+04 3.965e-09
 59.14465     41.8 1.202e+04 5.217e-09
 59.15480     42.0 1.185e+04 4.604e-09
 59.17365     41.6 1.209e+04 6.820e-09
 59.19396     41.4 1.238e+04 1.097e-08
 59.20735     41.6 1.276e+04 1.836e-08
 59.21750     40.8 1.280e+04 1.499e-08
 59.24482     40.4 1.279e+04 1.027e-08
 59.28553     40.2 1.272e+04 5.859e-09
 59.32614     39.6 1.242e+04 2.853e-09
 59.35639     39.7 1.228e+04 2.304e-09
 59.37670     37.9 1.202e+04 2.094e-09
 59.39711     38.8 1.211e+04 2.379e-09
 59.41732     39.5 1.225e+04 2.894e-09
 59.43570     40.2 1.242e+04 3.774e-09
 59.44585     39.1 1.260e+04 4.578e-09
 59.45793     39.3 1.293e+04 6.890e-09
 59.47823     39.1 1.338e+04 1.172e-08
 59.49749     38.6 1.399e+04 2.312e-08
 59.50764     38.6 1.392e+04 2.350e-08
 59.51520     38.4 1.477e+04 4.499e-08
 59.52535     37.3 1.439e+04 3.555e-08
 59.53915     36.6 1.460e+04 3.385e-08
 59.55945     35.0 1.477e+04 2.569e-08
 59.57976     32.3 1.459e+04 1.577e-08
 59.59470     28.9 1.408e+04 1.014e-08
 59.60485     27.0 1.340e+04 6.582e-09
 59.62037     25.3 1.302e+04 5.753e-09
 59.64068     24.1 1.278e+04 4.565e-09
 59.66098     22.8 1.279e+04 3.344e-09
 59.67420     21.1 1.269e+04 2.725e-09
 59.68205     20.8 1.251e+04 2.399e-09
 59.68914     21.3 1.250e+04 2.696e-09
 59.70159     20.2 1.220e+04 2.458e-09
 59.73215     19.4 1.201e+04 2.350e-09
 59.77286     18.7 1.191e+04 2.550e-09
 59.81309     18.3 1.206e+04 2.588e-09
 59.83339     18.8 1.183e+04 2.251e-09
 59.85053     18.5 1.207e+04 2.328e-09
 59.87084     18.7 1.197e+04 2.449e-09
 59.88444     18.3 1.217e+04 2.484e-09
 59.90254     17.9 1.226e+04 2.536e-09
 59.91270     18.1 1.209e+04 2.449e-09
 59.92495     17.4 1.221e+04 2.731e-09
 59.94526     16.7 1.234e+04 3.149e-09
 59.96556     14.8 1.295e+04 4.393e-09
 59.98204     12.0 1.344e+04 9.811e-09
 59.99220     11.7 1.352e+04 1.025e-08
 60.00617     10.0 1.340e+04 1.774e-08
 60.02648      9.0 1.312e+04 1.717e-08
 60.04199      8.5 1.264e+04 1.303e-08
 60.05214      8.6 1.276e+04 1.321e-08
 60.06154      8.2 1.222e+04 9.449e-09
 60.07170      8.2 1.214e+04 8.974e-09
 60.08740      7.8 1.192e+04 4.794e-09
 60.10770      6.3 1.173e+04 3.179e-09
 60.13099      6.1 1.144e+04 1.926e-09
 60.15139      6.7 1.130e+04 1.867e-09
 60.17897      7.3 1.100e+04 1.632e-09
 60.21353      8.5 1.095e+04 1.831e-09
 60.23384      9.0 1.097e+04 2.759e-09
 60.26019     10.3 1.094e+04 3.396e-09
 60.29008     11.7 1.101e+04 3.518e-09
 60.31039     12.3 1.082e+04 3.447e-09
 60.34141     14.0 1.071e+04 2.820e-09
 60.38202     15.5 1.069e+04 1.974e-09
 60.42263     16.6 1.069e+04 1.506e-09
 60.44908     17.9 1.062e+04 1.483e-09
 60.46939     18.3 1.052e+04 1.141e-09
 60.50385     19.6 1.051e+04 1.292e-09
 60.54446     20.9 1.060e+04 1.712e-09
 60.57653     22.0 1.078e+04 2.521e-09
 60.59684     22.0 1.060e+04 2.142e-09
 60.60808     22.7 1.079e+04 2.877e-09
 60.62839     22.4 1.074e+04 2.777e-09
 60.66630     22.8 1.099e+04 3.679e-09
 60.70691     22.7 1.125e+04 4.707e-09
 60.74678     22.3 1.144e+04 5.396e-09
 60.76708     21.6 1.120e+04 4.073e-09
 60.78813     21.5 1.101e+04 3.689e-09
 60.82874     22.1 1.060e+04 2.394e-09
 60.86935     23.1 1.047e+04 1.142e-09
 60.90578     23.4 1.065e+04 5.426e-10
 60.92608     23.7 1.056e+04 4.730e-10
 60.93953     24.7 1.023e+04 4.270e-10
 60.95984     25.2 1.025e+04 4.212e-10
 60.99118     26.7 1.023e+04 4.337e-10
 61.03179     28.3 1.018e+04 5.142e-10
 61.06478     29.9 1.015e+04 6.823e-10
 61.08508     30.5 1.005e+04 6.141e-10
 61.11302     32.2 1.003e+04 7.604e-10
 61.15363     33.7 1.001e+04 8.760e-10
 61.19424     35.1 9.996e+03 9.331e-10
 61.22378     36.3 9.956e+03 9.716e-10
 61.24408     36.7 9.952e+03 7.870e-10
 61.27546     37.6 9.857e+03 9.086e-10
 61.30253     38.5 9.769e+03 1.182e-09
 61.32283     38.2 9.699e+03 1.254e-09
 61.35668     38.9 9.726e+03 1.871e-09
 61.38278     39.7 9.864e+03 2.879e-09
 61.40308     39.8 1.008e+04 3.455e-09
 61.43790     40.4 1.032e+04 5.060e-09
 61.47851     40.8 1.050e+04 6.454e-09
 61.51912     41.4 1.067e+04 7.457e-09
 61.54168     41.4 1.069e+04 7.819e-09
 61.55173     41.2 1.097e+04 8.340e-09
 61.56969     41.2 1.105e+04 9.115e-09
 61.59000     41.0 1.127e+04 1.104e-08
 61.61030     40.8 1.158e+04 1.447e-08
 61.62108     40.6 1.191e+04 1.867e-08
 61.63123     40.6 1.180e+04 1.673e-08
 61.65091     40.4 1.212e+04 1.956e-08
 61.66533     39.4 1.302e+04 2.597e-08
 61.67548     39.3 1.239e+04 2.098e-08
 61.69043     36.4 1.399e+04 3.282e-08
 61.70058     36.7 1.324e+04 2.040e-08
 61.70671     32.3 1.517e+04 4.076e-08
 61.71681     30.8 1.572e+04 5.473e-08
 61.72696     25.8 1.745e+04 1.077e-07
 61.73516     23.7 1.795e+04 1.482e-07
 61.74023     23.1 1.796e+04 1.573e-07
 61.74727     19.3 1.855e+04 2.142e-07
 61.75598     17.3 1.813e+04 2.015e-07
 61.76106     17.0 1.836e+04 2.796e-07
 61.76757     17.0 1.734e+04 1.895e-07
 61.77491     16.0 1.663e+04 1.311e-07
 61.77998     16.7 1.680e+04 1.194e-07
 61.79300     12.3 1.544e+04 3.651e-08
 61.81336      4.6 1.178e+04 1.289e-08
 61.83366      5.9 1.135e+04 1.116e-08
 61.84683      4.3 1.021e+04 8.103e-09
 61.85244      4.1 1.029e+04 8.999e-09
 61.85968      4.0 1.080e+04 8.581e-09
 61.88462      5.1 1.013e+04 5.858e-09
 61.92523      6.4 9.882e+03 3.722e-09
 61.96584      7.3 9.749e+03 2.636e-09
 61.99847      8.6 9.528e+03 1.927e-09
 62.01877     10.3 9.337e+03 9.029e-10
 62.02853     11.7 9.237e+03 6.307e-10
 62.04883     11.9 9.368e+03 9.283e-10
 62.08768     13.1 9.347e+03 6.382e-10
 62.12829     14.7 9.349e+03 6.142e-10
 62.15747     16.1 9.430e+03 6.882e-10
 62.17777     17.7 9.446e+03 6.102e-10
 62.20951     19.3 9.507e+03 8.884e-10
 62.25012     21.0 9.669e+03 1.241e-09
 62.29073     22.5 9.906e+03 1.537e-09
 62.31647     23.9 1.030e+04 2.244e-09
 62.33677     25.2 1.030e+04 2.172e-09
 62.37122     26.4 1.073e+04 3.533e-09
 62.39153     27.1 1.053e+04 2.436e-09
 62.39587     27.3 1.073e+04 3.318e-09
 62.40593     28.0 1.062e+04 3.157e-09
 62.42252     28.5 1.083e+04 3.863e-09
 62.44283     28.8 1.118e+04 5.137e-09
 62.46313     29.2 1.154e+04 6.864e-09
 62.47527     29.4 1.204e+04 8.927e-09
 62.48543     30.5 1.172e+04 7.566e-09
 62.50374     30.7 1.234e+04 9.436e-09
 62.52405     30.3 1.348e+04 1.422e-08
 62.54435     29.5 1.414e+04 2.780e-08
 62.55477     29.3 1.431e+04 4.564e-08
 62.56294     30.2 1.440e+04 3.569e-08
 62.57283     30.9 1.488e+04 3.562e-08
 62.58496     30.5 1.527e+04 6.772e-08
 62.60527     30.9 1.514e+04 6.841e-08
 62.62412     31.2 1.460e+04 4.813e-08
 62.63427     31.6 1.567e+04 9.041e-08
 62.64588     31.9 1.483e+04 5.048e-08
 62.66619     30.5 1.412e+04 2.289e-08
 62.68649     28.6 1.301e+04 1.204e-08
 62.70362     28.2 1.256e+04 9.902e-09
 62.71377     28.6 1.271e+04 1.005e-08
 62.73412     28.8 1.245e+04 7.505e-09
 62.75452     29.2 1.254e+04 7.712e-09
 62.77316     29.4 1.243e+04 5.315e-09
 62.79347     30.5 1.277e+04 7.501e-09
 62.81867     31.1 1.283e+04 5.963e-09
 62.84903     31.0 1.291e+04 5.885e-09
 62.86262     30.5 1.319e+04 6.461e-09
 62.87277     30.6 1.329e+04 6.882e-09
 62.88955     29.9 1.350e+04 9.271e-09
 62.90985     29.3 1.363e+04 1.435e-08
 62.92568     28.7 1.378e+04 2.074e-08
 62.93583     27.9 1.412e+04 2.653e-08
 62.94212     26.8 1.421e+04 3.052e-08
 62.95227     27.2 1.440e+04 3.797e-08
 62.97077     27.3 1.386e+04 2.931e-08
 62.99107     26.3 1.336e+04 1.606e-08
 63.02163     24.9 1.278e+04 7.178e-09
 63.06234     22.5 1.214e+04 1.756e-09
 63.09116     19.8 1.175e+04 7.344e-10
 63.10574     21.2 1.171e+04 9.358e-10
 63.11752     20.5 1.128e+04 7.280e-10
 63.14356     20.5 1.120e+04 6.146e-10
 63.18417     20.6 1.113e+04 5.772e-10
 63.22478     20.5 1.125e+04 6.190e-10
 63.25016     19.9 1.132e+04 8.879e-10
 63.27047     21.5 1.120e+04 6.873e-10
 63.30600     20.9 1.106e+04 1.153e-09
 63.34661     20.5 1.112e+04 2.178e-09
 63.38722     20.2 1.129e+04 2.852e-09
 63.40906     20.0 1.124e+04 2.713e-09
 63.41912     20.6 1.118e+04 2.324e-09
 63.43779     19.9 1.115e+04 2.531e-09
 63.45810     17.9 1.144e+04 3.107e-09
 63.47017     15.6 1.171e+04 4.326e-09
 63.48024     14.0 1.178e+04 6.807e-09
 63.49862     14.2 1.166e+04 9.758e-09
 63.51901     13.2 1.184e+04 9.483e-09
 63.53932     11.5 1.201e+04 7.409e-09
 63.55781     10.0 1.166e+04 6.535e-09
 63.56796      9.6 1.176e+04 6.760e-09
 63.57993      7.7 1.184e+04 6.847e-09
 63.60024      5.4 1.216e+04 8.645e-09
 63.62054      2.5 1.309e+04 1.298e-08
 63.63731     -0.9 1.446e+04 2.508e-08
 63.64746     -2.8 1.520e+04 5.056e-08
 63.65167     -5.4 1.595e+04 7.396e-08
 63.66183     -6.1 1.569e+04 8.613e-08
 63.68146     -8.9 1.572e+04 9.663e-08
 63.70176    -11.1 1.566e+04 1.058e-07
 63.71681    -12.4 1.546e+04 9.693e-08
 63.72696    -13.5 1.474e+04 4.572e-08
 63.74237    -14.9 1.372e+04 3.226e-08
 63.76268    -16.5 1.242e+04 2.006e-08
 63.78298    -17.5 1.179e+04 1.417e-08
 63.79631    -18.1 1.146e+04 1.204e-08
 63.80646    -18.7 1.119e+04 1.114e-08
 63.82312    -18.0 1.136e+04 1.159e-08
 63.84352    -17.6 1.060e+04 6.355e-09
 63.86585    -17.3 1.072e+04 6.398e-09
 63.88616    -17.9 1.037e+04 2.998e-09
 63.91517    -18.0 1.074e+04 4.102e-09
 63.95578    -18.5 1.088e+04 7.509e-09
 63.99639    -18.4 1.132e+04 1.297e-08
 64.02485    -18.2 1.174e+04 1.669e-08
 64.04516    -18.3 1.155e+04 1.454e-08
 64.07761    -18.5 1.195e+04 1.748e-08
 64.11822    -18.8 1.144e+04 1.104e-08
 64.15883    -18.5 1.074e+04 3.605e-09
 64.18385    -19.0 1.037e+04 1.438e-09
 64.19093    -19.2 1.036e+04 1.489e-09
 64.20652    -18.3 1.034e+04 1.792e-09
 64.24005    -17.8 1.012e+04 1.187e-09
 64.28066    -16.5 1.010e+04 1.074e-09
 64.32127    -15.0 1.013e+04 1.053e-09
 64.34285    -13.6 1.024e+04 9.878e-10
 64.36316    -13.9 1.024e+04 1.052e-09
 64.40250    -12.6 1.029e+04 1.020e-09
 64.44311    -12.1 1.068e+04 1.144e-09
 64.48155    -12.5 1.063e+04 2.343e-09
 64.50185    -12.5 1.052e+04 3.280e-09
 64.52433    -11.5 1.124e+04 8.584e-09
 64.54921    -10.6 1.223e+04 1.452e-08
 64.56952     -9.8 1.205e+04 1.250e-08
 64.60555    -10.5 1.236e+04 1.293e-08
 64.64055    -11.2 1.222e+04 7.228e-09
 64.66085    -10.9 1.206e+04 6.277e-09
 64.68677    -11.9 1.201e+04 3.976e-09
 64.71713    -11.6 1.207e+04 3.722e-09
 64.73000    -11.5 1.220e+04 3.813e-09
 64.73333    -11.6 1.219e+04 3.685e-09
 64.74067    -13.1 1.316e+04 4.058e-09
 64.75765    -20.5 1.624e+04 1.311e-08
 64.77795    -25.0 1.657e+04 6.936e-08
 64.79313    -25.1 1.726e+04 1.701e-07
 64.80324    -24.9 1.748e+04 2.415e-07
 64.80941    -23.7 1.785e+04 3.050e-07
 64.81961    -23.7 1.757e+04 1.874e-07
 64.83887    -27.1 1.719e+04 4.632e-08
 64.85917    -34.5 1.484e+04 7.445e-09
 64.87885    -36.7 1.340e+04 3.926e-09
 64.88900    -36.0 1.359e+04 3.779e-09
 64.89978    -36.1 1.340e+04 3.326e-09
 64.91202    -35.8 1.336e+04 3.240e-09
 64.92217    -35.5 1.319e+04 4.026e-09
 64.94039    -35.5 1.333e+04 4.174e-09
 64.95835    -35.7 1.336e+04 5.041e-09
 64.96850    -35.6 1.341e+04 5.769e-09
 64.98101    -35.7 1.342e+04 7.117e-09
 65.01156    -35.8 1.350e+04 8.063e-09
 65.05227    -36.3 1.325e+04 8.028e-09
 65.09288    -35.8 1.289e+04 5.322e-09
 65.11755    -34.8 1.289e+04 2.272e-09
 65.13785    -34.7 1.309e+04 1.418e-09
 65.17410    -33.7 1.294e+04 9.358e-10
 65.21471    -32.1 1.287e+04 8.647e-10
 65.25491    -30.4 1.284e+04 9.065e-10
 65.27521    -29.5 1.283e+04 7.242e-10
 65.27655    -27.9 1.281e+04 7.858e-10
 65.29685    -27.4 1.280e+04 7.255e-10
 65.33655    -25.7 1.278e+04 7.799e-10
 65.37716    -24.0 1.282e+04 8.099e-10
 65.41524    -22.3 1.300e+04 7.353e-10
 65.43554    -21.9 1.336e+04 4.116e-10
 65.45838    -20.6 1.362e+04 3.357e-10
 65.49899    -19.4 1.369e+04 3.040e-10
 65.53960    -18.0 1.370e+04 3.012e-10
 65.57424    -16.7 1.370e+04 3.349e-10
 65.59454    -15.9 1.359e+04 3.239e-10
 65.61790    -14.4 1.353e+04 3.830e-10
 65.63821    -13.7 1.355e+04 2.890e-10
 65.66143    -12.1 1.367e+04 2.974e-10
 65.70204    -10.4 1.370e+04 3.087e-10
 65.73324     -8.9 1.359e+04 3.338e-10
 65.75354     -8.3 1.361e+04 3.423e-10
 65.78327     -6.8 1.345e+04 3.819e-10
 65.82388     -5.3 1.336e+04 4.325e-10
 65.86449     -4.0 1.339e+04 5.140e-10
 65.89224     -3.4 1.333e+04 7.648e-10
 65.91254     -2.9 1.337e+04 7.863e-10
 65.94571     -2.3 1.304e+04 1.487e-09
 65.98090     -1.5 1.293e+04 2.435e-09
 66.00121     -0.6 1.286e+04 2.423e-09
 66.02693     -0.1 1.294e+04 3.875e-09
 66.05114     -0.4 1.307e+04 3.792e-09
 66.06120     -0.4 1.301e+04 3.420e-09
 66.07750     -0.2 1.292e+04 3.321e-09
 66.09780     -0.3 1.276e+04 2.968e-09
 66.11811     -0.3 1.261e+04 2.918e-09
 66.14867      0.3 1.249e+04 3.094e-09
 66.18937      1.0 1.223e+04 2.228e-09
 66.21024      1.5 1.210e+04 1.685e-09
 66.23054      1.3 1.205e+04 1.247e-09
 66.27060      2.0 1.197e+04 1.208e-09
 66.31121      2.8 1.182e+04 1.303e-09
 66.34390      3.8 1.159e+04 1.326e-09
 66.36132      4.4 1.155e+04 1.274e-09
 66.36924      4.6 1.157e+04 1.052e-09
 66.39243      5.8 1.173e+04 6.804e-10
 66.43304      6.4 1.169e+04 4.899e-10
 66.47365      7.5 1.146e+04 4.243e-10
 66.50793      9.1 1.147e+04 3.400e-10
 66.52824      9.4 1.151e+04 3.072e-10
 66.55487     10.7 1.147e+04 2.426e-10
 66.59548     11.9 1.138e+04 2.126e-10
 66.63609     13.3 1.126e+04 1.918e-10
 66.66693     15.0 1.115e+04 1.692e-10
 66.68724     15.4 1.115e+04 1.775e-10
 66.70690     17.2 1.115e+04 1.456e-10
 66.72721     17.9 1.110e+04 1.606e-10
 66.75793     19.5 1.117e+04 1.306e-10
 66.79854     20.9 1.115e+04 1.181e-10
 66.82593     22.3 1.112e+04 1.232e-10
 66.84624     22.7 1.117e+04 1.301e-10
 66.87976     24.1 1.114e+04 1.559e-10
 66.92037     25.6 1.108e+04 2.040e-10
 66.96098     27.1 1.106e+04 2.815e-10
 66.98493     28.5 1.103e+04 4.037e-10
 67.00524     28.7 1.095e+04 6.820e-10
 67.04220     30.2 1.091e+04 1.126e-09
 67.06990     31.6 1.101e+04 1.725e-09
 67.09021     32.7 1.089e+04 1.407e-09
 67.12342     34.1 1.112e+04 1.906e-09
 67.14393     35.0 1.131e+04 1.949e-09
 67.16424     34.7 1.138e+04 1.753e-09
 67.20465     35.6 1.145e+04 1.275e-09
 67.24526     36.0 1.173e+04 7.460e-10
 67.28262     35.8 1.179e+04 5.318e-10
 67.30293     35.6 1.167e+04 5.331e-10
 67.32648     36.1 1.161e+04 5.308e-10
 67.36709     36.8 1.162e+04 5.828e-10
 67.40770     37.7 1.164e+04 6.709e-10
 67.43290     38.6 1.185e+04 6.913e-10
 67.44652     40.0 1.180e+04 8.826e-10
 67.46193     40.2 1.183e+04 8.752e-10
 67.48892     40.9 1.191e+04 8.451e-10
 67.52953     41.4 1.190e+04 7.965e-10
 67.57014     41.9 1.183e+04 7.989e-10
 67.60062     42.3 1.166e+04 8.574e-10
 67.62093     42.2 1.164e+04 1.103e-09
 67.65137     42.4 1.148e+04 1.207e-09
 67.69198     42.6 1.141e+04 1.169e-09
 67.73259     42.7 1.131e+04 1.029e-09
 67.75962     42.8 1.123e+04 8.569e-10
 67.77993     42.5 1.113e+04 1.120e-09
 67.79590     42.8 1.112e+04 8.011e-10
 67.81620     43.5 1.114e+04 8.083e-10
 67.85442     43.6 1.114e+04 5.965e-10
 67.89503     43.9 1.105e+04 5.087e-10
 67.91862     44.4 1.090e+04 4.900e-10
 67.93893     44.0 1.088e+04 4.689e-10
 67.97625     44.8 1.082e+04 4.446e-10
 68.01686     45.6 1.075e+04 4.295e-10
 68.05732     46.4 1.067e+04 4.290e-10
 68.09793     47.2 1.058e+04 5.015e-10
 68.13859     48.2 1.051e+04 5.315e-10
 68.17920     49.7 1.053e+04 6.700e-10
 68.21632     50.4 1.048e+04 7.955e-10
 68.23662     50.8 1.046e+04 8.812e-10
 68.26053     51.6 1.041e+04 9.913e-10
 68.30114     52.3 1.038e+04 1.057e-09
 68.34175     53.0 1.033e+04 1.069e-09
 68.37532     53.6 1.027e+04 1.033e-09
 68.39562     54.1 1.022e+04 8.732e-10
 68.42297     54.6 1.017e+04 8.481e-10
 68.46358     55.0 1.010e+04 8.125e-10
 68.50159     55.4 1.001e+04 7.717e-10
 68.52190     55.9 1.010e+04 8.510e-10
 68.53432     56.2 1.007e+04 8.507e-10
 68.55462     56.8 1.008e+04 8.941e-10
 68.58542     57.1 1.010e+04 8.912e-10
 68.62603     57.2 1.017e+04 8.286e-10
 68.66664     57.3 1.021e+04 8.895e-10
 68.69331     57.1 1.037e+04 1.093e-09
 68.71362     57.3 1.045e+04 1.215e-09
 68.74786     56.4 1.089e+04 1.831e-09
 68.77272     55.2 1.119e+04 3.001e-09
 68.78277     55.0 1.128e+04 3.040e-09
 68.79843     54.9 1.124e+04 4.885e-09
 68.82898     54.1 1.163e+04 7.350e-09
 68.85231     52.6 1.155e+04 7.152e-09
 68.86752     52.4 1.187e+04 8.857e-09
 68.88489     53.9 1.193e+04 8.686e-09
 68.91030     52.8 1.157e+04 6.200e-09
 68.93172     52.3 1.123e+04 4.210e-09
 68.94177     52.1 1.138e+04 4.461e-09
 68.96087     51.3 1.126e+04 3.441e-09
 68.98118     51.0 1.110e+04 3.209e-09
 69.00097     51.0 1.105e+04 3.228e-09
 69.01112     50.6 1.108e+04 4.163e-09
 69.03204     51.4 1.110e+04 4.725e-09
 69.07275     52.1 1.094e+04 5.382e-09
 69.11336     53.0 1.050e+04 4.849e-09
 69.15001     54.1 9.961e+03 3.341e-09
 69.17031     53.8 9.838e+03 3.460e-09
 69.19458     54.8 9.462e+03 2.499e-09
 69.22759     55.9 9.239e+03 2.248e-09
 69.24789     56.9 9.531e+03 2.329e-09
 69.27580     58.4 9.324e+03 2.215e-09
 69.30901     60.1 9.293e+03 2.297e-09
 69.32931     60.3 9.286e+03 3.060e-09
 69.35702     62.0 9.220e+03 2.953e-09
 69.39763     63.8 9.105e+03 2.740e-09
 69.43824     65.7 9.054e+03 2.490e-09
 69.46801     67.5 8.781e+03 2.336e-09
 69.48831     67.8 8.678e+03 2.512e-09
 69.51947     69.7 8.609e+03 2.182e-09
 69.56008     71.5 8.600e+03 2.013e-09
 69.59059     73.2 8.656e+03 2.035e-09
 69.61089     73.9 9.043e+03 2.810e-09
 69.62701     75.3 9.179e+03 2.871e-09
 69.64731     75.5 9.148e+03 2.966e-09
 69.68191     76.7 9.427e+03 3.141e-09
 69.72252     78.0 9.823e+03 3.551e-09
 69.75288     78.3 1.023e+04 4.087e-09
 69.77189     77.5 1.071e+04 4.888e-09
 69.78204     78.2 1.058e+04 4.656e-09
 69.78581     77.3 1.112e+04 5.827e-09
 69.79596     75.6 1.195e+04 1.016e-08
 69.81370     74.3 1.322e+04 2.169e-08
 69.83400     73.9 1.468e+04 4.659e-08
 69.85431     74.0 1.579e+04 7.968e-08
 69.86531     74.0 1.637e+04 9.738e-08
 69.87546     74.0 1.553e+04 6.463e-08
 69.89492     73.9 1.538e+04 4.896e-08
 69.91523     73.4 1.518e+04 3.493e-08
 69.93466     73.1 1.543e+04 3.273e-08
 69.94481     71.6 1.411e+04 2.566e-08
 69.95339     71.8 1.467e+04 3.557e-08
 69.96354     72.8 1.395e+04 2.287e-08
 69.97614     73.6 1.454e+04 3.118e-08
 69.99645     74.7 1.547e+04 4.225e-08
 70.01416     74.6 1.691e+04 5.475e-08
 70.02431     75.5 1.470e+04 4.329e-08
 70.03706     75.9 1.577e+04 4.280e-08
 70.05736     75.4 1.782e+04 4.849e-08
 70.07254     76.4 1.642e+04 3.895e-08
 70.08265     76.0 1.692e+04 4.062e-08
 70.09280     74.9 1.812e+04 5.149e-08
 70.09864     74.5 1.859e+04 6.960e-08
 70.10371     75.7 1.631e+04 4.715e-08
 70.11311     75.8 1.730e+04 6.498e-08
 70.12326     76.3 1.763e+04 8.013e-08
 70.13484     77.3 1.793e+04 9.858e-08
 70.14499     77.4 1.798e+04 9.994e-08
 70.15372     78.5 1.835e+04 1.269e-07
 70.16387     79.0 1.858e+04 1.404e-07
 70.17306     80.4 1.869e+04 1.509e-07
 70.18326     81.8 1.812e+04 1.230e-07
 70.19950     84.0 1.829e+04 1.164e-07
 70.21981     85.8 1.873e+04 1.158e-07
 70.24011     88.6 1.994e+04 1.284e-07
 70.25261     89.6 2.055e+04 1.304e-07
 70.25764     89.3 2.177e+04 1.092e-07
 70.26540     90.3 2.258e+04 1.234e-07
 70.27555     89.8 2.458e+04 1.586e-07
 70.28570     82.4 3.048e+04 3.323e-07
 70.29231     56.9 2.421e+04 3.158e-06
 70.29739     35.2 1.862e+04 1.032e-05
 70.30345     24.2 1.703e+04 1.482e-05
 70.30850     18.2 1.780e+04 1.099e-05
 70.31614      5.9 2.670e+04 1.430e-06
 70.32137     -7.3 3.539e+04 1.717e-07
 70.32644    -17.2 2.426e+04 3.219e-07
 70.33206    -23.5 1.857e+04 1.173e-07
 70.33714    -23.1 1.793e+04 1.327e-07
 70.34662    -22.3 1.778e+04 6.721e-08
 70.35677    -22.0 1.623e+04 3.454e-08
 70.36673    -21.3 1.418e+04 2.064e-08
 70.37181    -21.5 1.440e+04 2.262e-08
 70.37708    -21.0 1.299e+04 1.577e-08
 70.38723    -20.9 1.272e+04 1.375e-08
 70.39738    -21.3 1.421e+04 1.209e-08
 70.40648    -24.7 1.767e+04 1.161e-08
 70.41107    -24.9 1.630e+04 1.949e-08
 70.41212    -22.5 1.482e+04 2.197e-08
 70.41769    -29.0 1.830e+04 2.549e-08
 70.42784    -41.4 2.497e+04 2.959e-08
 70.43799    -54.8 2.790e+04 5.195e-08
 70.44623    -57.3 1.945e+04 5.958e-07
 70.45131    -53.9 2.163e+04 3.816e-07
 70.45830    -56.0 1.973e+04 1.254e-06
 70.46845    -58.0 1.909e+04 1.923e-06
 70.47860    -60.4 1.953e+04 1.580e-06
 70.48598    -63.1 2.082e+04 6.198e-07
 70.49106    -66.8 2.151e+04 2.912e-07
 70.49779    -70.3 1.999e+04 1.189e-07
 70.50287    -65.3 2.053e+04 1.676e-07
 70.50906    -68.2 1.860e+04 9.152e-08
 70.51921    -69.7 1.683e+04 6.171e-08
 70.52573    -70.0 1.556e+04 4.809e-08
 70.53081    -70.0 1.611e+04 5.364e-08
 70.54465    -69.7 1.448e+04 4.243e-08
 70.56050    -69.1 1.321e+04 3.548e-08
 70.57066    -69.1 1.405e+04 5.133e-08
 70.58531    -67.7 1.384e+04 4.947e-08
 70.60561    -66.5 1.362e+04 4.732e-08
 70.62592    -65.3 1.329e+04 4.245e-08
 70.64000    -64.3 1.282e+04 3.579e-08
 70.65016    -64.4 1.322e+04 4.122e-08
 70.66653    -63.8 1.255e+04 3.263e-08
 70.67939    -63.3 1.186e+04 2.559e-08
 70.68954    -62.6 1.241e+04 2.982e-08
 70.70714    -62.4 1.172e+04 2.355e-08
 70.71950    -61.9 1.117e+04 1.928e-08
 70.72966    -62.2 1.146e+04 2.160e-08
 70.74775    -61.4 1.108e+04 1.831e-08
 70.76805    -60.6 1.078e+04 1.583e-08
 70.78836    -59.8 1.054e+04 1.378e-08
 70.79900    -58.9 1.031e+04 1.211e-08
 70.80916    -59.2 1.041e+04 1.258e-08
 70.82897    -58.4 1.023e+04 1.135e-08
 70.84928    -57.6 1.010e+04 1.039e-08
 70.86089    -56.7 1.004e+04 9.641e-09
 70.86981    -56.5 1.042e+04 1.095e-08
 70.87850    -56.9 1.059e+04 1.134e-08
 70.88989    -56.3 1.054e+04 1.053e-08
 70.91019    -55.7 1.050e+04 1.004e-08
 70.93050    -55.0 1.048e+04 9.856e-09
 70.94785    -54.3 1.051e+04 9.697e-09
 70.95800    -54.8 1.072e+04 1.080e-08
 70.97111    -53.9 1.073e+04 1.075e-08
 70.99141    -53.4 1.087e+04 1.096e-08
 71.01172    -53.7 1.140e+04 1.188e-08
 71.02735    -55.0 1.240e+04 1.637e-08
 71.03750    -56.8 1.336e+04 2.816e-08
 71.04239    -57.5 1.439e+04 4.758e-08
 71.05254    -56.8 1.436e+04 4.526e-08
 71.07264    -56.9 1.533e+04 7.068e-08
 71.09294    -57.4 1.593e+04 8.548e-08
 71.10685    -58.6 1.601e+04 8.670e-08
 71.11700    -59.4 1.581e+04 7.687e-08
 71.13355    -60.5 1.490e+04 4.590e-08
 71.15386    -62.2 1.381e+04 2.587e-08
 71.17416    -63.4 1.296e+04 1.785e-08
 71.18635    -63.7 1.248e+04 1.500e-08
 71.19650    -63.8 1.262e+04 1.585e-08
 71.21373    -63.6 1.250e+04 1.540e-08
 71.22389    -63.3 1.278e+04 1.728e-08
 71.23508    -63.1 1.274e+04 1.833e-08
 71.25538    -62.7 1.289e+04 2.099e-08
 71.26585    -62.4 1.313e+04 2.450e-08
 71.27600    -62.5 1.354e+04 2.852e-08
 71.29600    -62.3 1.378e+04 3.226e-08
 71.31630    -62.1 1.398e+04 3.582e-08
 71.33520    -62.1 1.413e+04 3.893e-08
 71.34535    -62.1 1.417e+04 3.838e-08
 71.35691    -62.1 1.418e+04 3.697e-08
 71.37722    -62.2 1.413e+04 3.577e-08
 71.39523    -62.4 1.411e+04 3.427e-08
 71.40539    -62.9 1.373e+04 2.525e-08
 71.41470    -63.1 1.331e+04 1.829e-08
 71.42485    -63.0 1.325e+04 1.763e-08
 71.43813    -63.1 1.271e+04 1.196e-08
 71.45844    -63.4 1.211e+04 7.983e-09
 71.47874    -63.4 1.176e+04 6.214e-09
 71.49420    -63.1 1.154e+04 5.055e-09
 71.51460    -62.1 1.151e+04 4.787e-09
 71.55001    -60.9 1.122e+04 3.449e-09
 71.59062    -59.4 1.104e+04 2.670e-09
 71.63123    -57.9 1.102e+04 2.329e-09
 71.65339    -56.6 1.104e+04 2.197e-09
 71.67370    -55.6 1.107e+04 2.074e-09
 71.71245    -54.4 1.110e+04 1.883e-09
 71.74827    -53.2 1.114e+04 1.595e-09
 71.76858    -52.5 1.108e+04 9.489e-10
 71.79209    -51.4 1.114e+04 8.039e-10
 71.81239    -50.5 1.118e+04 7.483e-10
 71.83428    -49.6 1.110e+04 7.032e-10
 71.87490    -48.8 1.109e+04 9.440e-10
 71.91551    -48.1 1.124e+04 1.579e-09
 71.95109    -47.4 1.154e+04 2.852e-09
 71.97139    -46.9 1.172e+04 3.497e-09
 71.98648    -46.3 1.207e+04 5.034e-09
 72.00669    -46.5 1.218e+04 5.627e-09
 72.02699    -46.6 1.238e+04 6.379e-09
 72.04054    -47.1 1.242e+04 6.398e-09
 72.05070    -46.9 1.255e+04 7.171e-09
 72.06760    -47.3 1.265e+04 7.233e-09
 72.08791    -48.1 1.289e+04 7.428e-09
 72.10821    -49.0 1.311e+04 8.873e-09
 72.12004    -49.8 1.334e+04 1.189e-08
 72.12291    -49.8 1.345e+04 1.246e-08
 72.13138    -49.3 1.358e+04 1.380e-08
 72.14882    -50.0 1.380e+04 1.693e-08
 72.16913    -50.8 1.390e+04 1.875e-08
 72.18939    -51.6 1.389e+04 1.907e-08
 72.20969    -52.1 1.336e+04 1.259e-08
 72.23005    -52.7 1.316e+04 1.038e-08
 72.25035    -53.1 1.296e+04 8.344e-09
 72.26889    -53.4 1.276e+04 6.788e-09
 72.27904    -52.9 1.270e+04 5.944e-09
 72.29096    -52.9 1.257e+04 5.258e-09
 72.30273    -52.8 1.246e+04 4.700e-09
 72.31288    -52.9 1.245e+04 4.556e-09
 72.33157    -52.9 1.233e+04 3.941e-09
 72.34839    -52.9 1.226e+04 3.391e-09
 72.35854    -52.4 1.216e+04 3.731e-09
 72.37218    -52.6 1.208e+04 3.336e-09
 72.40274    -52.6 1.202e+04 3.101e-09
 72.42808    -52.4 1.182e+04 2.776e-09
 72.43814    -52.1 1.199e+04 3.770e-09
 72.45341    -52.3 1.187e+04 3.722e-09
 72.47417    -52.0 1.179e+04 4.190e-09
 72.49458    -52.3 1.161e+04 3.258e-09
 72.52467    -52.3 1.132e+04 2.813e-09
 72.56528    -52.1 1.106e+04 2.508e-09
 72.58708    -51.6 1.083e+04 2.335e-09
 72.60739    -51.1 1.074e+04 1.971e-09
 72.64650    -50.1 1.060e+04 1.733e-09
 72.68711    -49.2 1.050e+04 1.565e-09
 72.72578    -48.1 1.036e+04 1.449e-09
 72.74608    -47.2 1.028e+04 1.283e-09
 72.76833    -45.7 1.015e+04 1.250e-09
 72.80895    -44.1 1.004e+04 1.102e-09
 72.83727    -42.5 9.921e+03 8.979e-10
 72.85758    -42.5 9.913e+03 8.994e-10
 72.88478    -40.8 9.834e+03 7.692e-10
 72.90508    -39.8 9.820e+03 7.475e-10
 72.93078    -38.2 9.798e+03 7.146e-10
 72.97139    -37.1 9.883e+03 7.791e-10
 73.01200    -36.7 1.020e+04 1.547e-09
 73.04236    -36.0 1.051e+04 2.756e-09
 73.05373    -36.5 1.080e+04 3.861e-09
 73.06389    -36.0 1.058e+04 3.382e-09
 73.08287    -36.0 1.104e+04 5.682e-09
 73.10318    -36.2 1.137e+04 7.121e-09
 73.12308    -36.6 1.151e+04 7.595e-09
 73.13323    -36.4 1.121e+04 6.655e-09
 73.14379    -37.2 1.121e+04 6.504e-09
 73.17435    -37.7 1.103e+04 5.564e-09
 73.20027    -37.8 1.066e+04 3.912e-09
 73.20830    -37.8 1.055e+04 3.590e-09
 73.21283    -36.9 1.060e+04 3.858e-09
 73.22501    -36.9 1.057e+04 3.698e-09
 73.24532    -37.0 1.052e+04 3.130e-09
 73.26562    -36.9 1.052e+04 3.005e-09
 73.28208    -36.9 1.062e+04 3.036e-09
 73.29223    -36.8 1.050e+04 2.709e-09
 73.30623    -37.3 1.076e+04 3.293e-09
 73.32654    -37.9 1.093e+04 4.624e-09
 73.34684    -38.4 1.118e+04 6.643e-09
 73.36158    -38.9 1.146e+04 8.929e-09
 73.37173    -38.2 1.145e+04 8.613e-09
 73.38157    -38.8 1.158e+04 9.529e-09
 73.39173    -39.0 1.151e+04 9.287e-09
 73.40776    -40.1 1.139e+04 9.128e-09
 73.42807    -41.1 1.109e+04 8.143e-09
 73.45862    -41.6 1.107e+04 7.958e-09
 73.49933    -43.3 1.107e+04 7.254e-09
 73.52078    -45.0 1.094e+04 6.260e-09
 73.54108    -43.3 1.103e+04 6.317e-09
 73.56327    -44.8 1.102e+04 6.304e-09
 73.58357    -44.9 1.041e+04 4.102e-09
 73.62116    -45.7 1.033e+04 3.787e-09
 73.65947    -46.0 1.030e+04 3.569e-09
 73.67978    -45.8 1.065e+04 5.561e-09
 73.70238    -46.0 1.058e+04 5.191e-09
 73.74300    -45.5 1.058e+04 5.264e-09
 73.78361    -44.8 1.089e+04 5.921e-09
 73.81847    -44.1 1.122e+04 7.411e-09
 73.83878    -44.8 1.103e+04 6.712e-09
 73.86483    -44.4 1.124e+04 8.409e-09
 73.90544    -44.2 1.134e+04 9.357e-09
 73.92627    -44.1 1.124e+04 8.783e-09
 73.94657    -43.2 1.090e+04 8.229e-09
 73.97747    -42.7 1.082e+04 7.336e-09
 73.99777    -42.7 1.048e+04 6.666e-09
 74.02727    -41.9 1.043e+04 6.238e-09
 74.06788    -41.0 1.067e+04 6.548e-09
 74.09752    -40.3 1.126e+04 8.659e-09
 74.10757    -40.3 1.117e+04 8.206e-09
 74.11845    -40.3 1.121e+04 9.279e-09
 74.13627    -39.8 1.151e+04 1.264e-08
 74.14643    -39.9 1.147e+04 1.303e-08
 74.15906    -40.4 1.204e+04 1.426e-08
 74.17937    -48.5 1.753e+04 2.330e-08
 74.19320    -58.4 1.953e+04 1.017e-07
 74.19822    -58.3 1.980e+04 5.773e-08
 74.20465    -60.7 1.932e+04 2.107e-07
 74.21480    -62.0 1.895e+04 5.767e-07
 74.22075    -63.6 1.889e+04 9.788e-07
 74.22583    -64.6 1.883e+04 9.967e-07
 74.23511    -67.2 1.878e+04 9.874e-07
 74.24526    -69.4 1.881e+04 5.000e-07
 74.25541    -72.5 1.859e+04 1.661e-07
 74.26557    -77.9 1.636e+04 4.404e-08
 74.27887    -81.0 1.473e+04 2.561e-08
 74.28907    -79.6 1.549e+04 3.380e-08
 74.29527    -83.5 1.330e+04 1.279e-08
 74.30543    -84.5 1.302e+04 1.011e-08
 74.32151    -86.6 1.203e+04 5.470e-09
 74.34181    -87.3 1.173e+04 3.963e-09
 74.36212    -87.6 1.176e+04 3.244e-09
 74.37477    -88.1 1.179e+04 2.492e-09
 74.38493    -88.6 1.167e+04 2.266e-09
 74.40273    -88.9 1.158e+04 1.938e-09
 74.43328    -88.7 1.142e+04 1.665e-09
 74.45447    -88.0 1.115e+04 1.380e-09
 74.47477    -88.2 1.100e+04 1.254e-09
 74.51460    -86.8 1.099e+04 1.119e-09
 74.55521    -85.3 1.104e+04 1.060e-09
 74.59316    -83.9 1.109e+04 1.032e-09
 74.61347    -83.7 1.107e+04 1.063e-09
 74.63196    -82.4 1.118e+04 1.116e-09
 74.65226    -82.2 1.119e+04 1.146e-09
 74.67705    -81.2 1.125e+04 1.239e-09
 74.71766    -80.5 1.133e+04 1.312e-09
 74.75216    -80.0 1.143e+04 1.370e-09
 74.77247    -80.4 1.164e+04 2.216e-09
 74.79888    -80.2 1.172e+04 2.241e-09
 74.83949    -79.7 1.177e+04 2.195e-09
 74.88010    -79.1 1.182e+04 2.159e-09
 74.91116    -78.4 1.184e+04 2.037e-09
 74.93147    -79.3 1.203e+04 2.294e-09
 74.96132    -78.4 1.198e+04 1.785e-09
 74.99496    -77.2 1.201e+04 1.380e-09
 75.01526    -77.6 1.202e+04 1.360e-09
 75.04254    -76.2 1.210e+04 1.238e-09
 75.07016    -74.8 1.214e+04 1.217e-09
 75.09047    -75.1 1.216e+04 1.190e-09
 75.12377    -73.7 1.221e+04 1.282e-09
 75.16438    -72.4 1.225e+04 1.449e-09
 75.20499    -71.1 1.228e+04 1.552e-09
 75.22916    -69.8 1.230e+04 1.568e-09
 75.24947    -69.9 1.219e+04 1.478e-09
 75.28621    -68.7 1.223e+04 1.467e-09
 75.32682    -67.5 1.228e+04 1.470e-09
 75.35796    -66.7 1.245e+04 1.646e-09
 75.37826    -66.9 1.247e+04 1.878e-09
 75.38816    -66.2 1.249e+04 2.488e-09
 75.40847    -66.9 1.251e+04 2.963e-09
 75.44865    -66.8 1.273e+04 4.096e-09
 75.48926    -67.1 1.291e+04 5.379e-09
 75.52685    -67.8 1.313e+04 6.641e-09
 75.54716    -69.2 1.333e+04 7.065e-09
 75.56023    -69.4 1.343e+04 7.768e-09
 75.58044    -70.2 1.345e+04 8.434e-09
 75.60075    -70.9 1.341e+04 8.919e-09
 75.61631    -71.5 1.340e+04 9.161e-09
 75.62646    -72.3 1.343e+04 8.448e-09
 75.64136    -72.9 1.337e+04 8.053e-09
 75.66166    -73.4 1.330e+04 7.448e-09
 75.68197    -74.0 1.322e+04 6.684e-09
 75.69581    -74.8 1.312e+04 5.923e-09
 75.70596    -75.3 1.301e+04 5.113e-09
 75.72076    -76.1 1.287e+04 4.922e-09
 75.73091    -76.5 1.287e+04 4.939e-09
 75.74289    -76.9 1.277e+04 4.925e-09
 75.77344    -77.3 1.271e+04 5.065e-09
 75.81415    -78.0 1.259e+04 5.815e-09
 75.84485    -78.5 1.248e+04 6.120e-09
 75.86516    -78.0 1.230e+04 5.268e-09
 75.89537    -78.1 1.222e+04 5.518e-09
 75.93598    -78.1 1.184e+04 5.387e-09
 75.97659    -77.8 1.183e+04 3.820e-09
 76.00385    -77.0 1.162e+04 2.690e-09
 76.02416    -76.9 1.176e+04 2.938e-09
 76.05781    -75.7 1.159e+04 1.914e-09
 76.08395    -74.3 1.144e+04 1.478e-09
 76.10426    -74.3 1.156e+04 1.258e-09
 76.13904    -72.3 1.153e+04 1.182e-09
 76.16285    -70.3 1.154e+04 1.179e-09
 76.18316    -70.2 1.161e+04 1.267e-09
 76.22026    -68.5 1.168e+04 1.340e-09
 76.26087    -67.0 1.170e+04 1.652e-09
 76.30148    -65.6 1.172e+04 2.095e-09
 76.34209    -64.0 1.185e+04 2.441e-09
 76.38270    -62.6 1.183e+04 2.819e-09
 76.42331    -61.5 1.184e+04 2.890e-09
 76.44695    -60.4 1.184e+04 2.852e-09
 76.46388    -60.0 1.198e+04 3.330e-09
 76.48085    -59.6 1.203e+04 3.176e-09
 76.50453    -58.6 1.201e+04 3.110e-09
 76.54515    -57.4 1.202e+04 2.856e-09
 76.58576    -56.2 1.207e+04 2.465e-09
 76.61955    -54.8 1.212e+04 2.017e-09
 76.63985    -53.9 1.227e+04 1.774e-09
 76.66698    -52.5 1.231e+04 1.494e-09
 76.70759    -51.0 1.232e+04 1.307e-09
 76.74820    -49.5 1.233e+04 1.248e-09
 76.77855    -48.0 1.235e+04 1.287e-09
 76.79885    -47.0 1.231e+04 1.359e-09
 76.80995    -45.6 1.232e+04 1.726e-09
 76.83026    -45.2 1.239e+04 2.340e-09
 76.87003    -43.8 1.248e+04 2.757e-09
 76.91064    -42.7 1.251e+04 2.865e-09
 76.93755    -41.6 1.250e+04 2.546e-09
 76.95785    -40.7 1.254e+04 3.345e-09
 76.99186    -39.3 1.249e+04 2.680e-09
 77.03248    -37.9 1.249e+04 1.934e-09
 77.07309    -36.6 1.252e+04 1.523e-09
 77.09655    -35.2 1.253e+04 1.424e-09
 77.11685    -34.3 1.253e+04 1.668e-09
 77.15265    -33.0 1.259e+04 1.648e-09
 77.17295    -32.9 1.261e+04 2.087e-09
 77.19492    -32.1 1.272e+04 2.453e-09
 77.23524    -31.4 1.279e+04 3.197e-09
 77.25555    -31.0 1.288e+04 4.521e-09
 77.27614    -30.7 1.309e+04 5.436e-09
 77.31675    -30.9 1.320e+04 5.638e-09
 77.35736    -31.7 1.328e+04 5.632e-09
 77.39424    -33.2 1.354e+04 6.094e-09
 77.41454    -33.6 1.367e+04 8.817e-09
 77.42833    -34.7 1.402e+04 1.098e-08
 77.44854    -36.3 1.426e+04 1.592e-08
 77.46885    -37.6 1.437e+04 2.270e-08
 77.48370    -38.7 1.443e+04 2.522e-08
 77.49385    -38.7 1.414e+04 2.398e-08
 77.50946    -39.6 1.398e+04 2.362e-08
 77.52560    -40.3 1.389e+04 1.995e-08
 77.53576    -40.3 1.392e+04 1.923e-08
 77.55007    -40.9 1.388e+04 1.446e-08
 77.56320    -41.3 1.373e+04 1.057e-08
 77.57335    -40.9 1.361e+04 1.140e-08
 77.59068    -41.0 1.354e+04 8.637e-09
 77.61099    -41.0 1.354e+04 6.173e-09
 77.63129    -41.0 1.350e+04 4.460e-09
 77.64270    -40.9 1.341e+04 3.455e-09
 77.65285    -40.3 1.346e+04 3.880e-09
 77.67190    -40.2 1.347e+04 2.907e-09
 77.69221    -40.0 1.344e+04 2.398e-09
 77.71214    -39.9 1.340e+04 1.970e-09
 77.72229    -39.3 1.370e+04 2.292e-09
 77.73282    -39.1 1.364e+04 2.298e-09
 77.76337    -38.6 1.354e+04 2.773e-09
 77.80408    -37.6 1.344e+04 2.708e-09
 77.84469    -36.8 1.327e+04 2.572e-09
 77.87124    -36.1 1.315e+04 2.383e-09
 77.88488    -36.5 1.334e+04 5.123e-09
 77.89895    -36.2 1.330e+04 3.809e-09
 77.92591    -35.3 1.307e+04 4.669e-09
 77.96653    -34.1 1.291e+04 5.179e-09
 78.00714    -32.9 1.282e+04 5.163e-09
 78.03024    -31.9 1.272e+04 5.063e-09
 78.05054    -32.9 1.275e+04 6.348e-09
 78.08836    -32.0 1.257e+04 6.201e-09
 78.12897    -31.0 1.236e+04 6.264e-09
 78.16893    -29.9 1.216e+04 6.175e-09
 78.18924    -31.1 1.212e+04 6.587e-09
 78.21019    -29.8 1.183e+04 5.924e-09
 78.24164    -28.5 1.172e+04 5.756e-09
 78.26195    -29.2 1.184e+04 6.948e-09
 78.29141    -28.3 1.177e+04 7.126e-09
 78.32793    -27.6 1.167e+04 7.559e-09
 78.34824    -28.5 1.150e+04 6.957e-09
 78.36238    -27.5 1.150e+04 7.322e-09
 78.38259    -27.3 1.140e+04 7.051e-09
 78.40290    -26.6 1.122e+04 6.173e-09
 78.41739    -26.2 1.101e+04 4.636e-09
 78.42729    -26.7 1.090e+04 4.296e-09
 78.43310    -27.1 1.079e+04 3.774e-09
 78.45376    -26.0 1.063e+04 2.940e-09
 78.48693    -24.4 1.018e+04 1.531e-09
 78.50724    -24.5 1.005e+04 1.298e-09
 78.53508    -22.8 9.940e+03 9.697e-10
 78.57569    -20.8 9.862e+03 8.108e-10
 78.60464    -18.8 9.777e+03 7.582e-10
 78.62495    -19.0 9.727e+03 8.257e-10
 78.64593    -16.9 9.700e+03 8.406e-10
 78.66624    -16.5 9.690e+03 7.863e-10
 78.69752    -14.5 9.660e+03 8.501e-10
 78.73813    -12.5 9.655e+03 8.812e-10
 78.77874    -10.6 9.644e+03 8.521e-10
 78.80493     -8.9 9.615e+03 7.842e-10
 78.82524     -8.4 9.614e+03 1.076e-09
 78.85996     -6.8 9.597e+03 9.706e-10
 78.90058     -5.1 9.607e+03 9.372e-10
 78.94119     -3.7 9.692e+03 9.779e-10
 78.96393     -2.7 9.795e+03 1.209e-09
 78.97008     -2.9 9.919e+03 2.103e-09
 78.98795     -2.8 9.883e+03 2.101e-09
 79.02241     -1.7 1.005e+04 2.872e-09
 79.06302     -0.5 1.013e+04 3.339e-09
 79.10262      0.7 1.007e+04 3.061e-09
 79.12293      0.6 1.020e+04 3.504e-09
 79.14424      1.9 9.986e+03 2.110e-09
 79.18485      3.3 9.915e+03 1.550e-09
 79.22546      5.1 9.900e+03 1.423e-09
 79.26162      7.0 9.987e+03 1.451e-09
 79.28193      6.8 1.001e+04 1.444e-09
 79.30668      8.5 1.015e+04 2.008e-09
 79.33064      9.9 1.032e+04 3.044e-09
 79.35094     10.4 1.043e+04 3.795e-09
 79.38791     11.9 1.069e+04 5.875e-09
 79.42062     13.3 1.090e+04 6.855e-09
 79.44093     13.1 1.134e+04 1.005e-08
 79.46913     14.3 1.112e+04 7.443e-09
 79.50974     15.3 1.084e+04 4.060e-09
 79.55035     16.2 1.049e+04 2.848e-09
 79.57962     18.0 1.028e+04 2.276e-09
 79.59993     18.0 1.027e+04 2.549e-09
 79.63157     20.4 1.021e+04 1.807e-09
 79.67218     22.3 1.028e+04 1.277e-09
 79.69364     24.0 1.031e+04 1.200e-09
 79.71394     23.5 1.025e+04 1.230e-09
 79.73862     24.8 1.027e+04 1.345e-09
 79.75893     24.6 1.029e+04 1.408e-09
 79.79401     26.0 1.030e+04 1.812e-09
 79.83463     27.2 1.044e+04 1.907e-09
 79.87524     28.4 1.044e+04 1.724e-09
 79.89762     29.5 1.049e+04 1.371e-09
 79.91793     28.9 1.052e+04 1.348e-09
 79.95646     29.9 1.048e+04 1.127e-09
 79.99707     30.7 1.059e+04 1.201e-09
 80.03632     30.9 1.085e+04 1.610e-09
 80.05652     29.8 1.124e+04 3.107e-09
 80.06794     30.2 1.130e+04 3.663e-09
 80.08825     30.4 1.141e+04 4.144e-09
 80.10855     30.2 1.163e+04 4.690e-09
 80.12577     29.8 1.187e+04 5.409e-09
 80.13593     28.3 1.232e+04 8.147e-09
 80.14916     27.7 1.245e+04 9.250e-09
 80.16947     27.3 1.255e+04 1.018e-08
 80.18978     27.2 1.260e+04 1.029e-08
 80.20527     27.0 1.258e+04 9.905e-09
 80.21543     25.9 1.244e+04 8.644e-09
 80.22779     26.0 1.226e+04 6.497e-09
 80.23794     25.7 1.212e+04 5.735e-09
 80.25069     25.5 1.195e+04 4.175e-09
 80.27100     25.3 1.180e+04 3.102e-09
 80.28477     25.0 1.165e+04 2.566e-09
 80.29493     24.0 1.150e+04 2.317e-09
 80.32186     25.4 1.150e+04 2.063e-09
 80.35432     26.2 1.133e+04 1.699e-09
 80.37462     25.6 1.116e+04 1.538e-09
 80.39933     26.8 1.105e+04 1.519e-09
 80.41964     26.2 1.102e+04 1.744e-09
 80.44379     26.9 1.098e+04 1.945e-09
 80.48440     27.4 1.091e+04 2.188e-09
 80.51332     27.6 1.084e+04 2.029e-09
 80.53362     27.1 1.061e+04 1.839e-09
 80.56562     27.0 1.051e+04 1.367e-09
 80.60623     26.7 1.044e+04 1.134e-09
 80.64684     26.7 1.054e+04 1.106e-09
 80.67231     27.3 1.056e+04 1.211e-09
 80.69262     27.3 1.064e+04 1.582e-09
 80.72806     28.3 1.059e+04 1.603e-09
 80.76233     29.7 1.052e+04 1.441e-09
 80.78263     29.4 1.047e+04 1.561e-09
 80.80929     30.8 1.043e+04 1.250e-09
 80.83131     32.0 1.040e+04 1.029e-09
 80.85162     32.1 1.045e+04 1.095e-09
 80.89051     33.6 1.036e+04 1.035e-09
 80.93112     35.3 1.035e+04 1.050e-09
 80.97001     37.1 1.038e+04 1.096e-09
 80.99031     37.2 1.044e+04 1.324e-09
 81.01234     39.1 1.048e+04 1.369e-09
 81.05295     41.0 1.049e+04 1.459e-09
 81.09356     42.8 1.055e+04 1.708e-09
 81.12533     44.5 1.086e+04 2.217e-09
 81.14047     44.2 1.069e+04 2.149e-09
 81.14931     44.2 1.073e+04 2.348e-09
 81.17478     45.9 1.100e+04 3.186e-09
 81.21540     47.4 1.128e+04 4.391e-09
 81.25601     48.8 1.161e+04 5.035e-09
 81.28801     50.0 1.165e+04 4.884e-09
 81.30831     50.0 1.142e+04 4.528e-09
 81.33723     51.6 1.134e+04 4.083e-09
 81.37784     53.5 1.121e+04 3.166e-09
 81.41845     55.7 1.112e+04 2.322e-09
 81.44701     58.0 1.111e+04 1.708e-09
 81.46731     58.4 1.106e+04 1.554e-09
 81.48833     60.7 1.112e+04 1.251e-09
 81.50863     60.7 1.101e+04 1.349e-09
 81.54028     63.1 1.112e+04 1.204e-09
 81.58089     65.6 1.119e+04 1.190e-09
 81.60601     68.1 1.129e+04 1.210e-09
 81.62631     68.5 1.128e+04 1.161e-09
 81.66211     71.0 1.138e+04 1.154e-09
 81.70273     73.4 1.150e+04 1.200e-09
 81.74334     75.8 1.158e+04 1.329e-09
 81.76501     78.3 1.165e+04 1.577e-09
 81.78531     78.5 1.160e+04 1.361e-09
 81.82456     80.9 1.170e+04 1.757e-09
 81.85133     83.3 1.193e+04 2.317e-09
 81.87163     83.4 1.174e+04 1.719e-09
 81.90370     85.7 1.196e+04 2.258e-09
 81.92401     86.0 1.193e+04 2.248e-09
 81.94639     88.1 1.224e+04 2.901e-09
 81.97675     88.7 1.240e+04 3.253e-09
 81.99316     89.4 1.249e+04 3.460e-09
 82.00331     89.5 1.250e+04 3.659e-09
 82.01726     90.3 1.262e+04 3.851e-09
 82.03263     91.0 1.270e+04 3.956e-09
 82.04278     91.1 1.267e+04 3.955e-09
 82.05788     91.8 1.275e+04 4.097e-09
 82.07266     92.5 1.282e+04 3.958e-09
 82.08281     92.7 1.289e+04 4.748e-09
 82.09849     93.5 1.295e+04 4.574e-09
 82.11879     94.0 1.313e+04 4.269e-09
 82.14935     95.2 1.316e+04 3.981e-09
 82.19006     96.8 1.321e+04 3.480e-09
 82.21432     98.5 1.331e+04 3.012e-09
 82.22566     98.3 1.331e+04 3.425e-09
 82.24201     98.2 1.335e+04 4.259e-09
 82.27128     99.9 1.350e+04 3.729e-09
 82.31189    101.5 1.357e+04 3.698e-09
 82.35250    102.8 1.377e+04 3.882e-09
 82.38070    103.8 1.397e+04 4.449e-09
 82.40101    103.6 1.410e+04 7.357e-09
 82.43372    104.1 1.423e+04 8.970e-09
 82.47433    104.5 1.432e+04 1.034e-08
 82.51494    104.7 1.412e+04 1.123e-08
 82.53970    104.7 1.401e+04 1.091e-08
 82.56000    103.9 1.399e+04 1.097e-08
 82.57732    104.1 1.373e+04 8.838e-09
 82.59763    103.7 1.358e+04 8.266e-09
 82.63678    104.1 1.331e+04 5.904e-09
 82.67739    105.0 1.307e+04 4.005e-09
 82.69870    106.0 1.290e+04 2.767e-09
 82.71900    106.2 1.288e+04 2.285e-09
 82.75861    107.5 1.276e+04 1.802e-09
 82.79922    109.0 1.266e+04 1.459e-09
 82.83739    110.8 1.261e+04 1.201e-09
 82.85770    111.1 1.264e+04 1.143e-09
 82.88044    112.9 1.261e+04 9.664e-10
 82.92002    114.9 1.255e+04 8.923e-10
 82.94032    115.0 1.246e+04 8.516e-10
 82.96166    117.0 1.242e+04 9.109e-10
 82.99639    119.0 1.238e+04 9.994e-10
 83.01670    119.0 1.241e+04 9.910e-10
 83.04288    120.9 1.237e+04 1.120e-09
 83.08350    122.6 1.240e+04 1.335e-09
 83.12411    124.2 1.256e+04 1.675e-09
 83.15539    125.4 1.278e+04 2.133e-09
 83.17570    124.9 1.290e+04 2.304e-09
 83.19508    125.3 1.294e+04 2.720e-09
 83.21529    125.7 1.297e+04 3.339e-09
 83.24584    126.2 1.290e+04 4.385e-09
 83.28302    126.9 1.273e+04 5.384e-09
 83.30332    126.4 1.283e+04 6.562e-09
 83.31439    126.3 1.273e+04 6.907e-09
 83.33470    125.7 1.278e+04 5.985e-09
 83.36777    125.7 1.259e+04 5.311e-09
 83.40838    125.7 1.240e+04 4.659e-09
 83.44899    126.0 1.225e+04 4.261e-09
 83.47339    126.3 1.210e+04 4.129e-09
 83.49370    126.8 1.213e+04 3.748e-09
 83.53021    127.6 1.206e+04 4.218e-09
 83.57083    128.4 1.206e+04 4.890e-09
 83.61144    129.2 1.213e+04 5.729e-09
 83.63239    129.8 1.228e+04 6.825e-09
 83.64666    129.6 1.247e+04 7.710e-09
 83.66632    128.9 1.268e+04 9.976e-09
 83.69266    128.4 1.274e+04 1.027e-08
 83.73327    127.8 1.263e+04 9.417e-09
 83.77109    127.5 1.237e+04 7.152e-09
 83.79139    127.1 1.205e+04 4.627e-09
 83.81449    127.0 1.177e+04 2.894e-09
 83.85510    127.2 1.150e+04 2.136e-09
 83.89571    127.7 1.132e+04 2.048e-09
 83.93009    128.7 1.130e+04 2.085e-09
 83.95039    129.1 1.128e+04 2.117e-09
 83.97693    130.0 1.139e+04 2.453e-09
 84.00901    130.9 1.160e+04 2.897e-09
 84.02932    130.6 1.143e+04 2.635e-09
 84.05816    131.4 1.163e+04 3.017e-09
 84.08852    131.4 1.178e+04 3.354e-09
 84.09904    131.5 1.187e+04 3.585e-09
 84.10929    131.6 1.185e+04 3.526e-09
 84.13938    131.9 1.206e+04 3.546e-09
 84.17999    131.7 1.208e+04 3.325e-09
 84.22060    131.7 1.204e+04 2.880e-09
 84.24808    131.7 1.199e+04 2.364e-09
 84.26839    131.9 1.177e+04 2.048e-09
 84.30182    132.1 1.176e+04 1.806e-09
 84.34243    132.4 1.175e+04 1.729e-09
 84.37201    132.8 1.176e+04 1.741e-09
 84.39232    132.8 1.173e+04 1.838e-09
 84.40708    133.2 1.182e+04 1.890e-09
 84.42739    133.0 1.183e+04 1.760e-09
 84.46426    132.9 1.198e+04 1.847e-09
 84.50488    132.7 1.221e+04 2.046e-09
 84.54549    132.3 1.246e+04 2.274e-09
 84.56608    131.7 1.268e+04 2.389e-09
 84.58639    131.2 1.268e+04 2.240e-09
 84.62671    130.9 1.283e+04 2.431e-09
 84.65707    130.8 1.293e+04 2.812e-09
 84.67728    130.8 1.301e+04 2.833e-09
 84.69758    130.7 1.306e+04 2.767e-09
 84.71474    130.6 1.316e+04 2.623e-09
 84.72489    130.1 1.327e+04 3.333e-09
 84.73482    129.8 1.333e+04 3.356e-09
 84.74497    129.4 1.338e+04 4.141e-09
 84.75850    128.8 1.347e+04 4.532e-09
 84.77880    127.8 1.356e+04 5.749e-09
 84.79424    126.2 1.373e+04 9.221e-09
 84.80439    124.6 1.409e+04 1.674e-08
 84.81941    122.9 1.457e+04 2.748e-08
 84.83972    120.9 1.510e+04 4.056e-08
 84.86003    118.3 1.540e+04 4.393e-08
 84.87373    115.0 1.531e+04 4.049e-08
 84.88389    113.2 1.484e+04 3.333e-08
 84.90064    110.0 1.421e+04 2.310e-08
 84.91632    106.8 1.332e+04 1.390e-08
 84.92647    105.7 1.284e+04 9.620e-09
 84.94125    104.4 1.255e+04 6.599e-09
 84.95323    101.8 1.200e+04 4.015e-09
 84.96339    101.6 1.196e+04 3.870e-09
 84.99211     99.0 1.168e+04 3.204e-09
 85.02278     96.7 1.103e+04 2.333e-09
 85.04308     97.0 1.096e+04 2.270e-09
 85.07343     96.4 1.076e+04 2.321e-09
 85.09801     96.3 1.066e+04 2.607e-09
 85.11832     96.4 1.067e+04 2.684e-09
 85.15465     96.1 1.070e+04 3.067e-09
 85.18168     95.8 1.064e+04 3.281e-09
 85.20198     96.0 1.058e+04 3.190e-09
 85.23587     95.5 1.055e+04 3.187e-09
 85.27648     95.3 1.044e+04 3.107e-09
 85.31709     95.4 1.020e+04 2.713e-09
 85.34078     95.5 9.967e+03 2.047e-09
 85.36108     96.3 9.878e+03 1.929e-09
 85.39831     96.5 9.688e+03 1.451e-09
 85.43893     96.9 9.453e+03 1.265e-09
 85.46101     97.7 9.427e+03 1.281e-09
 85.48125     97.9 9.427e+03 1.405e-09
 85.52008     98.9 9.535e+03 1.745e-09
 85.56076     99.2 9.730e+03 2.219e-09
 85.60137     98.8 9.909e+03 2.793e-09
 85.63173     98.1 1.012e+04 3.929e-09
 85.64231     97.5 1.028e+04 4.885e-09
 85.64896     97.6 1.026e+04 4.736e-09
 85.65858     97.3 1.022e+04 4.638e-09
 85.67224     96.5 1.030e+04 4.912e-09
 85.69255     95.4 1.032e+04 4.974e-09
 85.71285     94.1 1.029e+04 4.905e-09
 85.72793     92.7 1.021e+04 4.738e-09
 85.73808     92.4 1.018e+04 4.685e-09
 85.75346     91.0 1.016e+04 4.661e-09
 85.77377     89.4 1.021e+04 4.791e-09
 85.79408     86.8 1.048e+04 5.526e-09
 85.80743     83.3 1.119e+04 8.454e-09
 85.81686     83.8 1.121e+04 8.586e-09
 85.82381     82.5 1.153e+04 1.088e-08
 85.83469     77.4 1.284e+04 1.926e-08
 85.85499     68.1 1.610e+04 4.179e-08
 85.87530     55.5 1.865e+04 8.386e-08
 85.88693     42.2 1.952e+04 9.712e-08
 85.89708     40.3 1.984e+04 9.985e-08
 85.91591     27.4 1.904e+04 6.636e-08
 85.93621     15.3 1.575e+04 2.658e-08
 85.95627      5.3 1.182e+04 1.235e-08
 85.96643      2.0 1.135e+04 9.996e-09
 85.97682     -1.8 1.081e+04 7.854e-09
 86.00738     -6.1 1.047e+04 6.450e-09
 86.04809     -8.1 9.952e+03 4.603e-09
 86.08870    -10.1 9.647e+03 3.655e-09
 86.11547    -10.5 9.558e+03 3.236e-09
 86.12552    -12.0 9.674e+03 3.611e-09
 86.13927    -11.8 9.655e+03 3.589e-09
 86.16660    -11.8 9.559e+03 3.350e-09
 86.18691    -11.5 9.596e+03 3.487e-09
 86.19477    -10.6 9.625e+03 2.948e-09
 86.20493    -11.4 9.700e+03 3.179e-09
 86.22049    -11.3 9.814e+03 3.284e-09
 86.24079    -11.6 1.008e+04 3.563e-09
 86.26110    -13.0 1.081e+04 4.572e-09
 86.27427    -14.9 1.144e+04 7.838e-09
 86.28443    -16.1 1.144e+04 9.572e-09
 86.30171    -16.6 1.185e+04 1.480e-08
 86.32202    -15.8 1.199e+04 2.057e-08
 86.34232    -14.9 1.210e+04 1.866e-08
 86.35377    -15.5 1.229e+04 1.131e-08
 86.35946    -16.7 1.200e+04 9.168e-09
 86.36831    -17.6 1.182e+04 7.209e-09
 86.38293    -19.5 1.089e+04 5.463e-09
 86.40324    -20.3 1.081e+04 3.853e-09
 86.42312    -20.9 1.073e+04 3.344e-09
 86.43327    -21.2 1.071e+04 3.314e-09
 86.45410    -22.4 1.088e+04 2.836e-09
 86.49481    -22.9 1.066e+04 2.563e-09
 86.52970    -22.9 1.052e+04 2.164e-09
 86.55001    -22.8 1.046e+04 1.750e-09
 86.57216    -22.7 1.042e+04 1.309e-09
 86.59247    -24.5 1.048e+04 1.243e-09
 86.61664    -24.4 1.034e+04 1.135e-09
 86.65725    -24.6 1.038e+04 1.335e-09
 86.69786    -25.0 1.079e+04 2.385e-09
 86.73116    -25.4 1.146e+04 5.155e-09
 86.75147    -28.0 1.221e+04 8.723e-09
 86.76883    -29.1 1.270e+04 1.424e-08
 86.78904    -30.2 1.323e+04 1.779e-08
 86.80935    -32.2 1.329e+04 1.906e-08
 86.82062    -33.9 1.308e+04 1.689e-08
 86.83077    -35.5 1.297e+04 1.484e-08
 86.84996    -37.9 1.255e+04 9.685e-09
 86.87026    -41.1 1.234e+04 7.816e-09
 86.88997    -45.8 1.287e+04 8.431e-09
 86.90012    -48.1 1.278e+04 8.456e-09
 86.90266    -53.7 1.358e+04 1.809e-08
 86.91281    -55.1 1.439e+04 2.854e-08
 86.93118    -58.7 1.503e+04 4.543e-08
 86.95149    -62.5 1.496e+04 4.970e-08
 86.96947    -66.0 1.395e+04 3.328e-08
 86.97962    -66.6 1.378e+04 3.112e-08
 86.99210    -69.9 1.218e+04 1.182e-08
 87.01240    -73.9 1.069e+04 4.260e-09
 87.03271    -77.4 9.767e+03 2.498e-09
 87.04897    -79.2 9.366e+03 2.150e-09
 87.05912    -79.4 9.280e+03 2.000e-09
 87.07332    -80.2 9.198e+03 1.981e-09
 87.10387    -81.2 9.042e+03 2.083e-09
 87.14458    -82.6 8.988e+03 2.504e-09
 87.18519    -83.7 8.879e+03 2.786e-09
 87.20816    -84.5 8.718e+03 2.899e-09
 87.22847    -84.1 8.515e+03 2.443e-09
 87.25570    -84.3 8.444e+03 2.596e-09
 87.27600    -85.0 8.311e+03 2.186e-09
 87.30703    -85.2 8.282e+03 2.243e-09
 87.34685    -85.2 8.075e+03 2.001e-09
 87.36716    -84.7 8.149e+03 2.073e-09
 87.38825    -85.0 7.987e+03 1.635e-09
 87.42886    -85.8 7.953e+03 1.432e-09
 87.46947    -87.2 7.996e+03 1.429e-09
 87.50585    -89.0 8.564e+03 2.276e-09
 87.52616    -89.5 8.805e+03 2.669e-09
 87.55069    -90.7 9.360e+03 4.509e-09
 87.58105    -91.2 9.747e+03 5.961e-09
 87.59531    -91.9 1.007e+04 6.911e-09
 87.60546    -91.9 9.937e+03 6.389e-09
 87.61850    -92.5 1.017e+04 7.010e-09
 87.62865    -92.8 9.798e+03 5.669e-09
 87.64187    -93.3 9.864e+03 5.463e-09
 87.66218    -93.7 9.956e+03 5.020e-09
 87.67481    -94.1 9.998e+03 4.447e-09
 87.68496    -93.7 9.865e+03 4.076e-09
 87.71304    -93.9 9.920e+03 3.580e-09
 87.75375    -93.6 1.004e+04 3.277e-09
 87.79436    -93.5 1.021e+04 3.300e-09
 87.82385    -95.2 1.143e+04 5.265e-09
 87.84416    -95.2 1.154e+04 6.713e-09
 87.86533    -97.3 1.230e+04 1.192e-08
 87.88554    -98.5 1.322e+04 2.153e-08
 87.90316    -99.7 1.399e+04 3.351e-08
 87.91331    -99.9 1.411e+04 3.506e-08
 87.92615   -101.7 1.444e+04 4.138e-08
 87.94645   -103.4 1.440e+04 4.091e-08
 87.96676   -105.0 1.384e+04 2.832e-08
 87.98150   -106.9 1.304e+04 1.569e-08
 87.98725   -106.2 1.337e+04 2.111e-08
 87.99281   -106.2 1.345e+04 2.145e-08
 88.00737   -107.7 1.273e+04 1.156e-08
 88.02767   -108.9 1.219e+04 6.708e-09
 88.04798   -109.6 1.196e+04 4.458e-09
 88.06216   -110.0 1.181e+04 3.350e-09
 88.07231   -109.7 1.188e+04 3.271e-09
 88.08859   -109.9 1.177e+04 2.692e-09
 88.11915   -110.1 1.172e+04 2.378e-09
 88.14185   -110.1 1.162e+04 1.885e-09
 88.16216   -109.5 1.185e+04 1.857e-09
 88.20046   -109.8 1.185e+04 1.455e-09
 88.24108   -110.3 1.185e+04 1.363e-09
 88.28055   -110.5 1.187e+04 1.449e-09
 88.30085   -109.5 1.175e+04 1.255e-09
 88.32230   -109.5 1.164e+04 1.416e-09
 88.34469   -109.3 1.159e+04 1.604e-09
 88.36500   -108.6 1.165e+04 1.769e-09
 88.40352   -108.3 1.162e+04 1.669e-09
 88.43955   -107.9 1.152e+04 1.473e-09
 88.45985   -106.8 1.149e+04 1.404e-09
 88.48474   -105.9 1.138e+04 1.198e-09
 88.52535   -104.7 1.128e+04 1.000e-09
 88.56596   -103.3 1.123e+04 8.565e-10
 88.59855   -101.7 1.122e+04 7.725e-10
 88.61885   -100.6 1.121e+04 7.716e-10
 88.64718    -98.9 1.118e+04 7.274e-10
 88.68739    -97.1 1.115e+04 7.066e-10
 88.70769    -96.1 1.120e+04 6.911e-10
 88.72841    -94.1 1.119e+04 6.863e-10
 88.75755    -92.4 1.126e+04 6.879e-10
 88.77785    -91.5 1.126e+04 6.886e-10
 88.80963    -90.2 1.132e+04 8.582e-10
 88.85024    -88.9 1.127e+04 1.340e-09
 88.89085    -87.5 1.130e+04 2.171e-09
 88.91655    -86.1 1.145e+04 3.183e-09
 88.93685    -85.4 1.133e+04 2.955e-09
 88.97207    -84.1 1.148e+04 3.618e-09
 89.01268    -82.8 1.161e+04 3.784e-09
 89.05039    -81.7 1.160e+04 3.453e-09
 89.07069    -81.0 1.167e+04 3.066e-09
 89.07555    -79.9 1.170e+04 2.505e-09
 89.09585    -79.0 1.171e+04 2.833e-09
 89.13451    -78.2 1.177e+04 2.577e-09
 89.17513    -77.5 1.180e+04 2.533e-09
 89.21424    -77.0 1.194e+04 2.914e-09
 89.23454    -76.6 1.193e+04 3.114e-09
 89.25635    -76.3 1.206e+04 3.585e-09
 89.29696    -76.1 1.222e+04 3.960e-09
 89.33757    -76.1 1.232e+04 4.143e-09
 89.37324    -76.1 1.239e+04 3.985e-09
 89.39354    -75.8 1.239e+04 4.275e-09
 89.41339    -75.7 1.241e+04 3.810e-09
 89.43369    -74.2 1.254e+04 4.875e-09
 89.45940    -74.2 1.268e+04 5.016e-09
 89.48976    -73.8 1.277e+04 4.779e-09
 89.50997    -73.7 1.293e+04 4.586e-09
 89.53028    -73.9 1.311e+04 4.509e-09
 89.54220    -77.1 1.423e+04 5.105e-09
 89.55235    -78.2 1.464e+04 7.533e-09
 89.57089    -81.8 1.537e+04 2.612e-08
 89.59119    -83.3 1.614e+04 7.103e-08
 89.60484    -84.7 1.673e+04 1.036e-07
 89.60987    -84.3 1.647e+04 9.117e-08
 89.61648    -84.9 1.654e+04 9.062e-08
 89.62663    -86.8 1.604e+04 5.643e-08
 89.63678    -88.0 1.574e+04 3.813e-08
 89.65206    -90.0 1.528e+04 2.222e-08
 89.67241    -92.9 1.495e+04 1.046e-08
 89.69104    -95.6 1.480e+04 7.900e-09
 89.70120    -95.3 1.453e+04 7.429e-09
 89.71302    -96.7 1.453e+04 7.395e-09
 89.73333    -98.3 1.459e+04 1.116e-08
 89.75364    -99.5 1.474e+04 2.030e-08
 89.77054   -100.2 1.494e+04 3.060e-08
 89.78070    -99.4 1.456e+04 2.149e-08
 89.78634   -100.2 1.455e+04 2.485e-08
 89.79649   -100.0 1.431e+04 2.113e-08
 89.81455   -100.5 1.422e+04 2.130e-08
 89.83486   -100.5 1.381e+04 1.813e-08
 89.85004   -100.3 1.355e+04 1.344e-08
 89.86020    -99.4 1.348e+04 1.142e-08
 89.87547    -99.2 1.337e+04 9.555e-09
 89.89577    -99.0 1.327e+04 8.072e-09
 89.91608    -98.7 1.313e+04 7.403e-09
 89.92954    -98.1 1.294e+04 6.733e-09
 89.93970    -97.1 1.309e+04 7.383e-09
 89.95669    -96.5 1.293e+04 6.870e-09
 89.96784    -95.8 1.274e+04 5.638e-09
 89.97799    -95.6 1.275e+04 5.657e-09
 89.99730    -95.1 1.257e+04 4.086e-09
 90.00914    -94.8 1.234e+04 2.725e-09
 90.01929    -93.4 1.254e+04 3.968e-09
 90.03791    -92.9 1.240e+04 3.003e-09
 90.06847    -91.8 1.229e+04 2.625e-09
 90.10918    -89.4 1.199e+04 1.816e-09
 90.13938    -86.9 1.184e+04 1.417e-09
 90.15783    -86.6 1.185e+04 1.363e-09
 90.16824    -85.5 1.191e+04 1.717e-09
 90.19040    -83.1 1.188e+04 1.604e-09
 90.23101    -80.9 1.194e+04 1.602e-09
 90.27162    -79.1 1.189e+04 2.074e-09
 90.30693    -77.4 1.181e+04 2.784e-09
 90.32724    -76.4 1.206e+04 3.800e-09
 90.35284    -75.0 1.209e+04 5.056e-09
 90.39345    -73.9 1.209e+04 5.496e-09
 90.43406    -73.0 1.190e+04 5.375e-09
 90.46593    -71.8 1.154e+04 4.093e-09
 90.48624    -70.9 1.207e+04 7.335e-09
 90.50238    -69.3 1.163e+04 4.522e-09
 90.52269    -69.2 1.168e+04 4.341e-09
 90.55590    -67.4 1.137e+04 2.325e-09
 90.59651    -65.6 1.119e+04 1.426e-09
 90.62493    -63.6 1.106e+04 1.212e-09
 90.64524    -62.5 1.127e+04 1.778e-09
 90.67773    -60.6 1.115e+04 1.610e-09
 90.71834    -58.6 1.110e+04 1.580e-09
 90.75895    -56.8 1.099e+04 1.696e-09
 90.78393    -55.1 1.098e+04 1.869e-09
 90.80424    -53.8 1.108e+04 2.212e-09
 90.84017    -52.2 1.101e+04 2.154e-09
 90.86538    -50.7 1.114e+04 2.280e-09
 90.88569    -50.6 1.138e+04 2.109e-09
 90.91114    -49.5 1.141e+04 2.320e-09
 90.93135    -49.5 1.149e+04 2.529e-09
 90.94273    -49.6 1.158e+04 3.173e-09
 90.95289    -48.9 1.142e+04 2.869e-09
 90.97196    -48.9 1.147e+04 3.619e-09
 90.99227    -48.8 1.155e+04 4.676e-09
 91.01208    -48.6 1.163e+04 5.825e-09
 91.02223    -48.0 1.144e+04 4.773e-09
 91.03288    -47.8 1.149e+04 5.347e-09
 91.04669    -47.7 1.150e+04 5.527e-09
 91.05684    -48.1 1.152e+04 5.772e-09
 91.08153    -47.8 1.131e+04 5.379e-09
 91.10193    -47.1 1.120e+04 4.488e-09
 91.12445    -46.3 1.097e+04 4.050e-09
 91.16506    -45.0 1.088e+04 3.685e-09
 91.20567    -43.7 1.094e+04 3.782e-09
 91.22838    -42.5 1.104e+04 4.260e-09
 91.24303    -42.9 1.109e+04 4.040e-09
 91.26093    -42.5 1.119e+04 5.532e-09
 91.28689    -41.1 1.113e+04 5.219e-09
 91.32750    -40.0 1.111e+04 5.471e-09
 91.36811    -38.7 1.112e+04 6.270e-09
 91.39962    -37.4 1.113e+04 7.080e-09
 91.41993    -36.7 1.094e+04 5.735e-09
 91.44933    -35.2 1.102e+04 6.562e-09
 91.48995    -33.7 1.099e+04 6.523e-09
 91.53056    -32.3 1.091e+04 5.910e-09
 91.55862    -30.9 1.080e+04 5.435e-09
 91.57884    -30.1 1.084e+04 5.527e-09
 91.61168    -28.6 1.070e+04 4.313e-09
 91.65239    -26.8 1.059e+04 3.800e-09
 91.69300    -25.2 1.049e+04 3.313e-09
 91.71762    -23.7 1.045e+04 3.183e-09
 91.73793    -23.2 1.043e+04 3.279e-09
 91.77422    -21.8 1.048e+04 3.387e-09
 91.81483    -20.4 1.049e+04 3.586e-09
 91.85544    -19.1 1.044e+04 3.493e-09
 91.87662    -18.2 1.034e+04 3.135e-09
 91.89693    -18.4 1.012e+04 2.376e-09
 91.93407    -18.1 1.003e+04 2.745e-09
 91.95438    -18.4 1.027e+04 4.457e-09
 91.97728    -17.5 1.030e+04 5.024e-09
 92.01532    -16.4 1.007e+04 3.957e-09
 92.03562    -16.5 9.805e+03 3.321e-09
 92.05850    -16.1 9.818e+03 1.525e-09
 92.09911    -16.8 9.629e+03 1.069e-09
 92.13972    -16.3 9.499e+03 1.150e-09
 92.17432    -15.3 9.461e+03 1.627e-09
 92.19462    -15.0 9.346e+03 1.208e-09
 92.22094    -13.8 9.492e+03 1.386e-09
 92.26155    -13.4 9.644e+03 1.325e-09
 92.29707    -13.4 9.796e+03 1.292e-09
 92.31738    -13.3 9.690e+03 1.355e-09
 92.33332    -14.9 1.032e+04 1.819e-09
 92.35362    -14.1 1.034e+04 1.753e-09
 92.38338    -15.9 1.050e+04 4.421e-09
 92.42400    -15.6 1.090e+04 7.653e-09
 92.46461    -16.6 1.064e+04 5.608e-09
 92.49232    -17.2 1.019e+04 2.089e-09
 92.51262    -16.3 1.007e+04 1.979e-09
 92.54583    -17.0 9.668e+03 1.227e-09
 92.58644    -16.2 9.467e+03 9.734e-10
 92.62705    -14.9 9.432e+03 8.327e-10
 92.65131    -13.3 9.505e+03 7.377e-10
 92.66403    -12.4 9.343e+03 5.873e-10
 92.68038    -11.9 9.331e+03 5.894e-10
 92.70827    -10.5 9.375e+03 4.841e-10
 92.74888     -9.0 9.376e+03 4.475e-10
 92.78949     -7.3 9.446e+03 4.397e-10
 92.81031     -5.7 9.601e+03 4.488e-10
 92.83062     -4.9 9.449e+03 4.136e-10
 92.87071     -3.5 9.486e+03 4.465e-10
 92.91133     -2.1 9.735e+03 5.148e-10
 92.94901     -0.9 9.734e+03 7.988e-10
 92.96931      0.2 9.712e+03 5.953e-10
 92.99255      1.9 9.607e+03 8.691e-10
 93.02307      3.8 9.650e+03 1.135e-09
 93.04337      4.6 9.604e+03 1.014e-09
 93.07377      6.4 9.785e+03 1.268e-09
 93.10801      8.0 1.001e+04 1.504e-09
 93.12831      8.7 9.892e+03 1.344e-09
 93.15499     10.1 1.009e+04 1.865e-09
 93.19560     11.2 1.039e+04 2.545e-09
 93.23621     11.5 1.067e+04 3.323e-09
 93.26701     11.1 1.106e+04 5.002e-09
 93.28731     11.7 1.113e+04 5.524e-09
 93.31743     10.0 1.181e+04 8.503e-09
 93.34641      7.9 1.278e+04 1.279e-08
 93.35647      7.3 1.302e+04 1.581e-08
 93.36800      3.9 1.413e+04 2.622e-08
 93.38587      2.7 1.369e+04 4.247e-08
 93.39603      3.6 1.427e+04 4.908e-08
 93.40861      3.0 1.372e+04 4.195e-08
 93.42581      2.4 1.398e+04 1.544e-08
 93.43596      2.0 1.412e+04 1.410e-08
 93.44922     -2.8 1.305e+04 6.978e-09
 93.46953     -4.5 1.212e+04 5.457e-09
 93.48984     -4.2 1.200e+04 4.955e-09
 93.50531     -3.7 1.210e+04 3.744e-09
 93.51546     -3.6 1.198e+04 3.028e-09
 93.53045     -3.8 1.202e+04 2.350e-09
 93.56100     -4.1 1.221e+04 1.467e-09
 93.58501     -3.9 1.199e+04 9.567e-10
 93.60531     -2.8 1.214e+04 9.989e-10
 93.64232     -2.8 1.218e+04 9.267e-10
 93.68293     -3.6 1.202e+04 1.352e-09
 93.72354     -3.7 1.174e+04 2.463e-09
 93.74897     -3.8 1.176e+04 3.853e-09
 93.75902     -3.9 1.170e+04 3.856e-09
 93.77411     -4.1 1.166e+04 3.731e-09
 93.80467     -4.5 1.145e+04 2.743e-09
 93.84538     -4.5 1.116e+04 1.576e-09
 93.88270     -5.0 1.107e+04 9.824e-10
 93.90301     -6.4 1.119e+04 1.103e-09
 93.92660     -6.2 1.109e+04 1.491e-09
 93.96721     -5.8 1.095e+04 2.222e-09
 94.00782     -4.9 1.106e+04 3.352e-09
 94.04170     -4.2 1.112e+04 4.531e-09
 94.06201     -4.8 1.074e+04 2.886e-09
 94.08904     -4.1 1.070e+04 2.377e-09
 94.11207     -3.6 1.067e+04 1.835e-09
 94.13237     -3.3 1.060e+04 1.923e-09
 94.17026     -2.8 1.066e+04 1.905e-09
 94.20070     -2.3 1.082e+04 2.625e-09
 94.22101     -2.2 1.072e+04 2.534e-09
 94.24123     -1.4 1.102e+04 3.780e-09
 94.26144     -1.4 1.138e+04 4.242e-09
 94.28000     -1.4 1.150e+04 5.285e-09
 94.29016     -1.2 1.147e+04 5.837e-09
 94.29337     -1.3 1.184e+04 6.495e-09
 94.30352     -1.4 1.175e+04 6.159e-09
 94.32236     -1.9 1.200e+04 7.456e-09
 94.34266     -2.4 1.216e+04 8.413e-09
 94.35950     -2.4 1.208e+04 9.727e-09
 94.36966     -2.4 1.214e+04 1.088e-08
 94.38327     -2.5 1.224e+04 1.074e-08
 94.40358     -2.7 1.238e+04 8.836e-09
 94.42389     -2.6 1.225e+04 8.339e-09
 94.45444     -3.1 1.236e+04 4.772e-09
 94.47506     -4.0 1.208e+04 3.644e-09
 94.49537     -4.4 1.193e+04 3.672e-09
 94.51870     -3.8 1.184e+04 4.307e-09
 94.53900     -4.1 1.188e+04 4.700e-09
 94.57637     -2.7 1.174e+04 3.815e-09
 94.61698     -1.3 1.207e+04 1.596e-09
 94.65739     -1.2 1.196e+04 8.886e-10
 94.67770     -1.0 1.184e+04 7.827e-10
 94.69820     -0.1 1.176e+04 6.770e-10
 94.73881      0.7 1.188e+04 7.427e-10
 94.77943      1.4 1.185e+04 1.031e-09
 94.81639      3.0 1.144e+04 1.577e-09
 94.83442      4.0 1.148e+04 1.221e-09
 94.83806      3.2 1.149e+04 1.747e-09
 94.86065      4.7 1.125e+04 1.586e-09
 94.90126      5.6 1.109e+04 1.281e-09
 94.94187      6.6 1.101e+04 9.765e-10
 94.97539      7.3 1.089e+04 8.606e-10
 94.99570      8.6 1.094e+04 8.167e-10
 95.02309      9.7 1.081e+04 8.231e-10
 95.06370     10.7 1.070e+04 8.943e-10
 95.10431     11.9 1.047e+04 1.037e-09
 95.13439     13.3 1.030e+04 1.122e-09
 95.15470     14.4 1.042e+04 1.101e-09
 95.18076     15.7 1.030e+04 1.182e-09
 95.20106     15.3 1.024e+04 1.110e-09
 95.22614     16.7 1.017e+04 1.140e-09
 95.26676     17.8 1.016e+04 1.273e-09
 95.29339     19.1 1.011e+04 1.695e-09
 95.31370     20.3 1.023e+04 1.802e-09
 95.34798     21.8 1.030e+04 2.193e-09
 95.38859     23.2 1.034e+04 2.169e-09
 95.42920     24.5 1.036e+04 1.797e-09
 95.45239     25.0 1.047e+04 1.495e-09
 95.47270     25.9 1.064e+04 2.021e-09
 95.51042     26.4 1.069e+04 1.993e-09
 95.54376     26.7 1.075e+04 2.076e-09
 95.56406     27.6 1.078e+04 2.193e-09
 95.59109     28.1 1.108e+04 2.890e-09
 95.61139     28.5 1.127e+04 3.429e-09
 95.62200     28.4 1.135e+04 3.488e-09
 95.64221     28.4 1.136e+04 3.621e-09
 95.66252     28.3 1.151e+04 4.035e-09
 95.68054     28.2 1.160e+04 4.059e-09
 95.69070     28.3 1.162e+04 4.270e-09
 95.70313     28.7 1.169e+04 3.620e-09
 95.72343     28.6 1.173e+04 3.405e-09
 95.74999     29.7 1.175e+04 2.194e-09
 95.77039     30.0 1.193e+04 2.676e-09
 95.79470     30.7 1.182e+04 1.405e-09
 95.83531     31.3 1.178e+04 9.885e-10
 95.87592     32.7 1.178e+04 1.001e-09
 95.90675     33.9 1.181e+04 1.161e-09
 95.91962     34.5 1.197e+04 1.240e-09
 95.92939     35.0 1.211e+04 1.265e-09
 95.95714     36.5 1.251e+04 1.664e-09
 95.98750     36.8 1.270e+04 2.186e-09
 95.99854     36.8 1.272e+04 2.472e-09
 96.00869     36.8 1.270e+04 2.589e-09
 96.02801     36.8 1.294e+04 3.993e-09
 96.04832     36.9 1.334e+04 5.797e-09
 96.06789     37.0 1.385e+04 7.692e-09
 96.07804     37.5 1.373e+04 1.040e-08
 96.08806     37.4 1.425e+04 1.231e-08
 96.09821     37.3 1.442e+04 1.509e-08
 96.10924     36.0 1.491e+04 2.019e-08
 96.12954     34.4 1.525e+04 2.885e-08
 96.14739     32.8 1.535e+04 3.582e-08
 96.15754     32.7 1.574e+04 4.036e-08
 96.17015     30.4 1.583e+04 4.293e-08
 96.19046     28.4 1.553e+04 4.438e-08
 96.21076     26.8 1.525e+04 4.407e-08
 96.22689     27.1 1.468e+04 3.642e-08
 96.23704     27.6 1.433e+04 2.082e-08
 96.25137     26.2 1.463e+04 1.257e-08
 96.26966     26.7 1.384e+04 6.148e-09
 96.29006     23.2 1.375e+04 4.470e-09
 96.30649     25.3 1.305e+04 3.094e-09
 96.31654     25.6 1.320e+04 2.646e-09
 96.33260     25.6 1.363e+04 2.463e-09
 96.36315     26.9 1.323e+04 2.173e-09
 96.38608     29.2 1.315e+04 2.152e-09
 96.40639     30.2 1.311e+04 1.914e-09
 96.44447     32.8 1.307e+04 2.129e-09
 96.48508     35.1 1.312e+04 2.392e-09
 96.52478     37.3 1.312e+04 2.689e-09
 96.54508     38.1 1.305e+04 2.325e-09
 96.56630     39.7 1.306e+04 2.767e-09
 96.60691     41.5 1.303e+04 3.445e-09
 96.63275     43.3 1.302e+04 4.274e-09
 96.65306     42.3 1.301e+04 4.663e-09
 96.68378     43.8 1.308e+04 4.768e-09
 96.70408     44.5 1.302e+04 3.127e-09
 96.72875     46.1 1.299e+04 2.851e-09
 96.76936     47.8 1.298e+04 2.292e-09
 96.80997     49.5 1.302e+04 1.814e-09
 96.84278     51.3 1.289e+04 1.732e-09
 96.86308     52.4 1.280e+04 1.093e-09
 96.89119     54.4 1.275e+04 1.168e-09
 96.93180     56.3 1.264e+04 1.472e-09
 96.97241     58.5 1.258e+04 2.449e-09
 96.99575     61.0 1.283e+04 4.542e-09
 97.00481     59.6 1.282e+04 2.970e-09
 97.02208     61.0 1.253e+04 2.110e-09
 97.05363     63.1 1.275e+04 3.292e-09
 97.08118     63.5 1.307e+04 4.978e-09
 97.09123     64.1 1.275e+04 4.384e-09
 97.10420     64.7 1.281e+04 5.576e-09
 97.12451     65.2 1.290e+04 6.579e-09
 97.14481     65.6 1.309e+04 7.047e-09
 97.16058     65.8 1.333e+04 7.185e-09
 97.17073     67.1 1.320e+04 6.691e-09
 97.17706     67.2 1.328e+04 7.238e-09
 97.18721     67.0 1.314e+04 5.587e-09
 97.20573     67.1 1.324e+04 6.200e-09
 97.22603     67.0 1.337e+04 7.070e-09
 97.24008     66.9 1.344e+04 8.376e-09
 97.25023     67.7 1.317e+04 7.913e-09
 97.26665     67.7 1.325e+04 9.303e-09
 97.28695     67.8 1.326e+04 1.117e-08
 97.30726     67.9 1.328e+04 1.296e-08
 97.31958     68.1 1.349e+04 1.352e-08
 97.32973     69.3 1.326e+04 1.214e-08
 97.34787     69.3 1.340e+04 1.235e-08
 97.35855     69.4 1.342e+04 1.197e-08
 97.36871     69.0 1.373e+04 1.556e-08
 97.38848     69.1 1.376e+04 1.339e-08
 97.39908     68.9 1.392e+04 1.004e-08
 97.40923     70.5 1.360e+04 1.170e-08
 97.42909     70.6 1.376e+04 8.493e-09
 97.44939     70.3 1.379e+04 6.116e-09
 97.46843     70.0 1.342e+04 5.097e-09
 97.47858     71.9 1.368e+04 5.369e-09
 97.49001     71.5 1.340e+04 5.014e-09
 97.51031     71.6 1.298e+04 4.936e-09
 97.52990     72.0 1.289e+04 5.370e-09
 97.54005     71.3 1.285e+04 6.212e-09
 97.54793     71.7 1.263e+04 6.920e-09
 97.55808     72.9 1.287e+04 6.564e-09
 97.58148     73.8 1.261e+04 7.522e-09
 97.61747     75.3 1.256e+04 9.275e-09
 97.63768     76.3 1.271e+04 1.125e-08
 97.65245     76.9 1.274e+04 1.224e-08
 97.67275     77.4 1.267e+04 1.250e-08
 97.70135     79.2 1.280e+04 1.374e-08
 97.72175     77.4 1.275e+04 1.371e-08
 97.74402     77.9 1.259e+04 1.313e-08
 97.77647     78.2 1.224e+04 1.123e-08
 97.79668     79.2 1.243e+04 1.224e-08
 97.82514     79.4 1.216e+04 1.048e-08
 97.86585     79.2 1.181e+04 9.160e-09
 97.90646     78.9 1.156e+04 8.500e-09
 97.93547     78.7 1.120e+04 7.440e-09
 97.94552     78.7 1.175e+04 1.172e-08
 97.95703     78.8 1.150e+04 1.046e-08
 97.98759     79.6 1.137e+04 9.971e-09
 98.02829     80.0 1.092e+04 7.384e-09
 98.06444     80.7 1.059e+04 5.639e-09
 98.08475     79.5 1.014e+04 3.476e-09
 98.09447     80.5 9.839e+03 3.151e-09
 98.11477     81.2 9.905e+03 3.816e-09
 98.15013     82.6 9.792e+03 3.741e-09
 98.19074     84.0 9.779e+03 3.774e-09
 98.23135     85.2 9.795e+03 3.970e-09
 98.25347     86.3 9.968e+03 4.767e-09
 98.27377     87.2 9.886e+03 4.564e-09
 98.31257     88.0 1.014e+04 5.834e-09
 98.35318     88.5 1.032e+04 6.645e-09
 98.39216     88.8 1.033e+04 6.574e-09
 98.41247     90.1 9.907e+03 4.479e-09
 98.42744     90.6 9.789e+03 3.919e-09
 98.44775     90.8 9.159e+03 2.161e-09
 98.47501     91.4 9.142e+03 2.102e-09
 98.51563     92.1 9.168e+03 2.130e-09
 98.55116     93.0 9.271e+03 2.260e-09
 98.57147     94.9 8.873e+03 1.697e-09
 98.59685     96.2 9.020e+03 1.895e-09
 98.63746     97.6 9.268e+03 2.229e-09
 98.67807     99.0 9.528e+03 2.643e-09
 98.71016    100.1 9.734e+03 2.937e-09
 98.73047    102.1 9.608e+03 2.945e-09
 98.74904    102.5 9.760e+03 3.240e-09
 98.76925    103.2 9.982e+03 3.707e-09
 98.78947    103.5 1.026e+04 4.412e-09
 98.80031    104.6 1.054e+04 5.505e-09
 98.81055    104.7 1.060e+04 5.877e-09
 98.83016    104.6 1.092e+04 7.765e-09
 98.85047    104.6 1.131e+04 1.101e-08
 98.86897    104.6 1.170e+04 1.493e-08
 98.87912    105.3 1.169e+04 1.434e-08
 98.89108    105.1 1.220e+04 1.736e-08
 98.91139    104.4 1.227e+04 1.667e-08
 98.93169    103.5 1.220e+04 1.458e-08
 98.94847    103.0 1.179e+04 1.042e-08
 98.95862    103.4 1.199e+04 1.198e-08
 98.97174    102.9 1.160e+04 9.398e-09
 98.98190    102.8 1.180e+04 1.017e-08
 99.00286    103.2 1.114e+04 5.765e-09
 99.02816    103.1 1.063e+04 3.027e-09
 99.03822    103.2 1.102e+04 4.946e-09
 99.05352    103.1 1.075e+04 3.736e-09
 99.07383    103.3 1.054e+04 2.703e-09
 99.09413    103.4 1.046e+04 2.276e-09
 99.12469    104.5 1.045e+04 2.259e-09
 99.15344    105.9 1.045e+04 1.999e-09
 99.17374    105.8 1.070e+04 2.598e-09
 99.18716    107.2 1.073e+04 2.337e-09
 99.19722    107.0 1.079e+04 2.927e-09
 99.21597    107.4 1.081e+04 2.776e-09
 99.23627    108.2 1.083e+04 2.551e-09
 99.25631    108.5 1.086e+04 2.439e-09
 99.26647    108.5 1.092e+04 2.778e-09
 99.28713    109.3 1.106e+04 2.583e-09
 99.32585    110.1 1.116e+04 2.368e-09
 99.34606    110.1 1.134e+04 2.813e-09
 99.35811    110.5 1.141e+04 2.579e-09
 99.37841    110.7 1.146e+04 2.461e-09
 99.39872    111.1 1.154e+04 2.301e-09
 99.41531    111.4 1.160e+04 2.264e-09
 99.42546    111.3 1.166e+04 2.657e-09
 99.43933    111.7 1.167e+04 2.662e-09
 99.45963    112.0 1.173e+04 2.730e-09
 99.47994    112.4 1.181e+04 2.990e-09
 99.49481    112.9 1.191e+04 3.431e-09
 99.50496    112.7 1.213e+04 4.574e-09
 99.51624    112.8 1.233e+04 5.548e-09
 99.52640    113.4 1.256e+04 6.074e-09
 99.54085    112.9 1.294e+04 8.550e-09
 99.56116    111.9 1.359e+04 1.505e-08
 99.57431    111.0 1.445e+04 2.879e-08
 99.58446    109.7 1.525e+04 4.854e-08
 99.60177    108.7 1.545e+04 5.153e-08
 99.62208    107.9 1.528e+04 4.258e-08
 99.64238    107.1 1.489e+04 2.383e-08
 99.65381    105.6 1.465e+04 8.544e-09
 99.66396    102.6 1.407e+04 3.643e-09
 99.69324     99.5 1.288e+04 2.907e-09
 99.73395     99.4 1.276e+04 2.960e-09
 99.77456     99.4 1.288e+04 3.093e-09
 99.80285     99.2 1.315e+04 3.476e-09
 99.81291     99.2 1.296e+04 3.115e-09
 99.82513     99.2 1.302e+04 3.321e-09
 99.84544     99.1 1.313e+04 4.024e-09
 99.86574     99.2 1.317e+04 4.667e-09
 99.87924     99.3 1.327e+04 5.534e-09
 99.89964     99.5 1.317e+04 5.502e-09
 99.93701     99.8 1.335e+04 7.261e-09
 99.96176    100.1 1.353e+04 9.405e-09
 99.97181    101.2 1.361e+04 1.013e-08
 99.98757    101.2 1.371e+04 1.172e-08
100.00788    101.0 1.379e+04 1.178e-08
