# Columns:
#   distance along LOS (in CHIMPs)
#   peculiar velocity  (in km/s)
#   temperature (K)
#   HI number density
# pos=(102.936,149.482,124.746), angles=(1.52291,3.05772)
  0.00688     31.2 1.189e+04 1.726e-09
  0.02169     31.7 1.200e+04 1.428e-09
  0.03211     32.4 1.194e+04 1.947e-09
  0.05173     33.1 1.187e+04 1.651e-09
  0.08848     33.9 1.176e+04 1.968e-09
  0.12772     34.7 1.169e+04 2.150e-09
  0.16697     35.4 1.165e+04 2.296e-09
  0.20621     36.1 1.169e+04 2.455e-09
  0.24546     37.0 1.175e+04 2.705e-09
  0.28470     38.0 1.179e+04 3.142e-09
  0.32395     39.2 1.179e+04 3.650e-09
  0.36319     40.6 1.177e+04 3.940e-09
  0.40244     42.0 1.177e+04 4.040e-09
  0.44168     43.4 1.180e+04 4.143e-09
  0.48093     44.7 1.186e+04 4.445e-09
  0.50100     45.8 1.200e+04 5.245e-09
  0.52063     46.7 1.204e+04 4.717e-09
  0.55942     47.4 1.230e+04 6.652e-09
  0.59866     47.9 1.258e+04 9.220e-09
  0.63791     48.1 1.281e+04 1.049e-08
  0.67715     48.2 1.294e+04 1.111e-08
  0.71640     48.3 1.304e+04 1.216e-08
  0.75565     48.7 1.318e+04 1.362e-08
  0.79489     49.1 1.335e+04 1.438e-08
  0.82212     49.6 1.336e+04 1.392e-08
  0.84175     50.7 1.288e+04 1.020e-08
  0.86347     50.7 1.314e+04 1.083e-08
  0.88300     51.0 1.324e+04 1.124e-08
  0.90262     51.6 1.333e+04 1.146e-08
  0.92224     52.0 1.339e+04 1.178e-08
  0.94187     52.4 1.353e+04 1.229e-08
  0.95989     52.7 1.371e+04 1.306e-08
  0.96970     52.4 1.354e+04 1.212e-08
  0.98111     52.6 1.372e+04 1.318e-08
  1.00073     52.8 1.395e+04 1.518e-08
  1.02036     53.0 1.407e+04 1.806e-08
  1.03998     53.4 1.410e+04 2.151e-08
  1.05960     53.6 1.413e+04 2.510e-08
  1.07922     53.8 1.416e+04 2.763e-08
  1.09885     53.8 1.416e+04 2.786e-08
  1.11847     53.8 1.407e+04 2.699e-08
  1.13809     53.8 1.387e+04 2.437e-08
  1.15771     53.9 1.363e+04 2.118e-08
  1.17734     54.0 1.342e+04 1.741e-08
  1.19434     54.0 1.326e+04 1.438e-08
  1.20415     54.3 1.304e+04 1.510e-08
  1.21658     54.5 1.295e+04 1.277e-08
  1.23196     54.5 1.289e+04 1.151e-08
  1.24177     55.0 1.319e+04 1.199e-08
  1.26574     55.1 1.283e+04 8.985e-09
  1.30508     55.8 1.272e+04 6.436e-09
  1.34432     56.6 1.274e+04 4.560e-09
  1.38357     57.5 1.276e+04 3.561e-09
  1.41291     57.9 1.287e+04 3.361e-09
  1.42878     58.1 1.294e+04 3.399e-09
  1.43860     57.6 1.315e+04 4.948e-09
  1.45205     57.3 1.305e+04 5.208e-09
  1.47168     57.0 1.290e+04 6.116e-09
  1.49130     56.9 1.283e+04 7.528e-09
  1.51092     56.7 1.297e+04 8.181e-09
  1.53054     56.3 1.297e+04 7.983e-09
  1.55017     55.7 1.284e+04 7.300e-09
  1.56979     54.9 1.256e+04 6.398e-09
  1.58941     54.2 1.224e+04 5.634e-09
  1.60903     53.6 1.200e+04 5.071e-09
  1.62866     53.5 1.184e+04 4.647e-09
  1.64199     53.6 1.172e+04 4.270e-09
  1.65180     53.5 1.187e+04 4.850e-09
  1.66323     53.7 1.178e+04 4.453e-09
  1.67304     53.8 1.166e+04 3.973e-09
  1.68753     54.2 1.160e+04 3.689e-09
  1.70715     54.8 1.154e+04 3.441e-09
  1.72677     55.4 1.149e+04 3.257e-09
  1.74639     56.1 1.142e+04 3.195e-09
  1.76602     56.9 1.140e+04 3.206e-09
  1.78564     57.8 1.139e+04 3.258e-09
  1.80526     58.8 1.140e+04 3.507e-09
  1.82488     59.4 1.143e+04 3.804e-09
  1.84451     60.3 1.149e+04 4.430e-09
  1.86413     61.1 1.157e+04 5.050e-09
  1.88375     62.0 1.174e+04 6.114e-09
  1.89768     62.8 1.182e+04 7.071e-09
  1.90759     62.2 1.159e+04 5.342e-09
  1.93300     63.7 1.183e+04 6.949e-09
  1.97225     64.8 1.199e+04 8.404e-09
  2.01149     65.8 1.198e+04 8.480e-09
  2.05074     66.8 1.189e+04 7.958e-09
  2.08998     67.9 1.175e+04 6.855e-09
  2.12923     69.0 1.158e+04 5.613e-09
  2.16848     70.1 1.145e+04 4.993e-09
  2.20772     71.3 1.145e+04 5.014e-09
  2.24697     72.6 1.148e+04 5.228e-09
  2.28621     73.9 1.156e+04 5.775e-09
  2.32546     74.8 1.176e+04 6.696e-09
  2.35696     74.9 1.208e+04 7.930e-09
  2.37658     74.2 1.173e+04 6.600e-09
  2.40395     73.7 1.227e+04 8.565e-09
  2.43328     72.3 1.267e+04 1.026e-08
  2.45224     70.6 1.306e+04 1.265e-08
  2.46205     70.1 1.296e+04 1.196e-08
  2.47243     68.6 1.321e+04 1.422e-08
  2.49205     67.2 1.357e+04 1.961e-08
  2.51168     66.0 1.394e+04 2.455e-08
  2.53130     64.8 1.401e+04 2.479e-08
  2.55092     63.9 1.387e+04 2.256e-08
  2.57054     63.3 1.352e+04 1.815e-08
  2.60008     62.2 1.305e+04 1.047e-08
  2.63942     61.6 1.259e+04 7.904e-09
  2.67866     61.6 1.235e+04 7.904e-09
  2.71791     61.9 1.237e+04 8.664e-09
  2.75715     62.4 1.239e+04 1.090e-08
  2.78649     62.1 1.266e+04 1.450e-08
  2.80602     62.2 1.280e+04 1.719e-08
  2.82564     62.3 1.295e+04 1.963e-08
  2.84526     61.3 1.392e+04 2.791e-08
  2.86227     61.2 1.391e+04 2.639e-08
  2.87208     61.0 1.336e+04 1.893e-08
  2.88451     60.7 1.329e+04 1.622e-08
  2.90413     60.2 1.306e+04 1.440e-08
  2.92375     59.9 1.277e+04 1.358e-08
  2.94337     59.7 1.261e+04 1.317e-08
  2.96300     59.8 1.251e+04 1.305e-08
  2.98262     59.9 1.242e+04 1.302e-08
  3.00224     60.0 1.236e+04 1.306e-08
  3.02187     60.0 1.228e+04 1.319e-08
  3.04149     59.9 1.216e+04 1.354e-08
  3.06010     59.9 1.207e+04 1.407e-08
  3.06991     58.2 1.231e+04 1.486e-08
  3.08073     58.4 1.226e+04 1.505e-08
  3.10036     58.7 1.217e+04 1.523e-08
  3.11998     59.0 1.219e+04 1.513e-08
  3.13960     59.4 1.218e+04 1.488e-08
  3.15922     59.8 1.220e+04 1.468e-08
  3.17885     60.2 1.227e+04 1.492e-08
  3.19847     60.5 1.251e+04 1.586e-08
  3.21809     60.4 1.287e+04 1.796e-08
  3.23771     60.1 1.341e+04 2.278e-08
  3.25734     59.5 1.400e+04 3.171e-08
  3.27230     58.8 1.467e+04 4.607e-08
  3.28211     59.2 1.409e+04 3.466e-08
  3.29455     58.5 1.481e+04 5.174e-08
  3.30436     57.6 1.429e+04 4.261e-08
  3.31620     57.0 1.462e+04 4.142e-08
  3.33583     55.4 1.472e+04 3.784e-08
  3.35545     53.0 1.474e+04 3.460e-08
  3.37507     50.3 1.450e+04 3.301e-08
  3.39470     48.1 1.404e+04 2.997e-08
  3.41432     46.6 1.343e+04 2.499e-08
  3.43394     45.5 1.284e+04 1.818e-08
  3.45356     44.3 1.242e+04 1.229e-08
  3.47319     42.8 1.207e+04 8.853e-09
  3.49281     41.5 1.163e+04 8.162e-09
  3.51243     40.7 1.158e+04 8.310e-09
  3.52900     40.0 1.155e+04 9.223e-09
  3.53881     39.6 1.146e+04 8.018e-09
  3.55168     39.0 1.146e+04 8.806e-09
  3.57130     38.4 1.145e+04 8.783e-09
  3.59092     37.8 1.138e+04 8.245e-09
  3.61054     36.9 1.124e+04 7.383e-09
  3.63017     35.9 1.113e+04 7.179e-09
  3.64979     34.9 1.110e+04 7.407e-09
  3.66941     34.3 1.106e+04 8.075e-09
  3.68233     34.2 1.101e+04 7.985e-09
  3.69215     34.2 1.103e+04 7.981e-09
  3.70866     34.2 1.092e+04 7.308e-09
  3.72828     34.1 1.080e+04 5.939e-09
  3.74790     33.5 1.069e+04 4.663e-09
  3.76344     32.6 1.052e+04 4.059e-09
  3.77325     32.6 1.032e+04 3.496e-09
  3.78715     32.3 1.029e+04 3.514e-09
  3.80677     32.3 1.029e+04 3.524e-09
  3.82639     32.4 1.028e+04 3.458e-09
  3.84602     32.7 1.029e+04 3.200e-09
  3.86564     32.8 1.038e+04 2.792e-09
  3.88526     32.7 1.049e+04 2.734e-09
  3.90488     32.7 1.055e+04 2.766e-09
  3.93442     33.3 1.077e+04 3.387e-09
  3.97376     33.4 1.135e+04 5.912e-09
  4.01300     32.7 1.223e+04 1.145e-08
  4.04234     31.5 1.314e+04 2.220e-08
  4.06186     30.9 1.347e+04 2.851e-08
  4.08149     30.9 1.334e+04 2.733e-08
  4.09237     30.8 1.305e+04 2.330e-08
  4.10218     30.3 1.298e+04 2.235e-08
  4.13064     30.0 1.218e+04 1.206e-08
  4.16998     30.3 1.150e+04 6.527e-09
  4.20923     31.1 1.095e+04 4.361e-09
  4.23253     32.9 1.089e+04 4.361e-09
  4.25215     32.8 1.104e+04 4.797e-09
  4.28772     34.8 1.122e+04 5.869e-09
  4.32697     36.3 1.167e+04 8.129e-09
  4.36621     37.3 1.191e+04 8.991e-09
  4.40546     37.8 1.183e+04 8.025e-09
  4.44470     37.8 1.127e+04 5.544e-09
  4.48395     37.3 1.088e+04 3.739e-09
  4.52319     37.1 1.087e+04 3.539e-09
  4.56244     37.2 1.100e+04 4.320e-09
  4.60168     38.3 1.119e+04 5.384e-09
  4.64093     40.2 1.115e+04 5.414e-09
  4.68017     42.2 1.112e+04 4.797e-09
  4.70142     44.5 1.116e+04 3.998e-09
  4.72105     45.1 1.104e+04 2.453e-09
  4.75866     47.6 1.115e+04 2.309e-09
  4.79791     50.4 1.120e+04 2.389e-09
  4.83715     53.4 1.125e+04 2.650e-09
  4.87640     56.7 1.133e+04 3.181e-09
  4.90281     60.3 1.160e+04 4.051e-09
  4.92243     60.4 1.122e+04 2.756e-09
  4.95489     63.9 1.154e+04 3.427e-09
  4.98423     66.2 1.182e+04 4.061e-09
  5.00375     67.2 1.202e+04 4.524e-09
  5.02337     68.0 1.252e+04 6.121e-09
  5.04300     68.0 1.315e+04 1.029e-08
  5.06262     67.9 1.397e+04 2.101e-08
  5.08224     67.5 1.510e+04 4.726e-08
  5.10186     66.9 1.629e+04 9.843e-08
  5.12149     65.8 1.715e+04 1.443e-07
  5.14111     63.9 1.728e+04 1.358e-07
  5.16031     62.0 1.703e+04 7.813e-08
  5.17012     63.2 1.746e+04 1.059e-07
  5.18036     60.5 1.697e+04 4.150e-08
  5.19998     56.0 1.582e+04 1.178e-08
  5.21960     51.3 1.343e+04 6.129e-09
  5.23922     50.4 1.292e+04 5.050e-09
  5.25885     50.7 1.278e+04 5.014e-09
  5.27847     51.5 1.280e+04 5.044e-09
  5.29809     52.5 1.281e+04 5.146e-09
  5.31265     53.5 1.286e+04 5.260e-09
  5.32246     54.1 1.268e+04 4.935e-09
  5.33734     55.1 1.282e+04 5.125e-09
  5.35696     55.3 1.319e+04 5.906e-09
  5.37658     54.9 1.375e+04 9.038e-09
  5.39476     54.5 1.429e+04 1.806e-08
  5.40457     55.2 1.352e+04 1.049e-08
  5.41583     55.2 1.389e+04 1.614e-08
  5.43545     55.3 1.424e+04 2.373e-08
  5.45507     55.5 1.451e+04 3.108e-08
  5.47469     55.7 1.465e+04 3.212e-08
  5.49432     55.9 1.451e+04 2.732e-08
  5.51394     56.0 1.429e+04 1.913e-08
  5.53356     55.7 1.407e+04 1.262e-08
  5.55319     55.3 1.379e+04 9.192e-09
  5.57281     55.3 1.342e+04 8.138e-09
  5.59243     55.8 1.329e+04 8.366e-09
  5.61205     56.4 1.330e+04 9.290e-09
  5.62921     56.7 1.359e+04 1.176e-08
  5.63902     56.5 1.338e+04 1.044e-08
  5.65130     56.4 1.368e+04 1.698e-08
  5.67092     56.5 1.420e+04 2.870e-08
  5.69054     56.7 1.473e+04 3.743e-08
  5.71017     56.5 1.478e+04 3.589e-08
  5.72268     56.0 1.467e+04 2.749e-08
  5.73249     56.7 1.489e+04 3.475e-08
  5.74941     55.2 1.462e+04 2.236e-08
  5.76903     52.8 1.417e+04 1.527e-08
  5.78866     50.8 1.391e+04 1.456e-08
  5.80828     49.4 1.393e+04 1.530e-08
  5.82790     48.4 1.423e+04 1.822e-08
  5.84753     44.4 1.546e+04 3.514e-08
  5.86219     40.0 1.710e+04 6.261e-08
  5.86846     36.8 1.778e+04 1.141e-07
  5.87337     36.4 1.760e+04 9.583e-08
  5.88177     34.3 1.801e+04 1.943e-07
  5.89158     32.4 1.817e+04 2.490e-07
  5.90139     32.0 1.740e+04 1.896e-07
  5.91120     31.6 1.723e+04 1.754e-07
  5.92597     31.4 1.612e+04 7.301e-08
  5.94564     25.7 1.511e+04 1.611e-08
  5.96526     17.8 1.188e+04 6.592e-09
  5.98488     16.6 1.123e+04 6.197e-09
  6.00451     16.7 1.109e+04 6.180e-09
  6.02413     16.9 1.098e+04 6.114e-09
  6.04375     17.3 1.079e+04 5.682e-09
  6.06337     17.5 1.073e+04 5.300e-09
  6.08300     17.9 1.053e+04 5.067e-09
  6.09810     18.0 1.057e+04 5.180e-09
  6.10791     18.3 1.055e+04 4.959e-09
  6.12224     18.9 1.040e+04 5.249e-09
  6.13271     19.2 1.041e+04 5.609e-09
  6.14252     18.9 1.043e+04 5.523e-09
  6.16149     19.2 1.043e+04 6.387e-09
  6.18111     19.7 1.049e+04 7.003e-09
  6.20073     20.0 1.058e+04 7.808e-09
  6.22036     20.1 1.076e+04 9.237e-09
  6.23998     20.1 1.103e+04 1.128e-08
  6.25960     19.7 1.141e+04 1.423e-08
  6.27922     19.0 1.180e+04 1.811e-08
  6.29885     18.6 1.195e+04 2.102e-08
  6.31847     18.3 1.185e+04 2.152e-08
  6.33255     17.9 1.162e+04 2.002e-08
  6.34236     18.2 1.142e+04 1.796e-08
  6.35771     17.5 1.083e+04 1.263e-08
  6.37734     16.3 1.024e+04 8.807e-09
  6.39696     15.2 9.713e+03 6.647e-09
  6.41658     14.4 9.376e+03 5.966e-09
  6.43620     14.1 9.317e+03 6.038e-09
  6.45583     14.0 9.346e+03 6.501e-09
  6.47545     14.1 9.409e+03 7.226e-09
  6.49507     14.2 9.510e+03 7.912e-09
  6.51469     13.9 9.706e+03 8.718e-09
  6.53293     13.4 9.888e+03 9.887e-09
  6.54274     12.7 9.908e+03 1.047e-08
  6.55394     12.7 9.812e+03 1.084e-08
  6.56699     13.0 9.600e+03 1.017e-08
  6.57680     13.2 9.588e+03 9.771e-09
  6.59319     12.9 9.428e+03 8.068e-09
  6.61281     11.8 9.345e+03 7.111e-09
  6.63243     10.6 9.155e+03 6.861e-09
  6.65205     10.0 9.162e+03 6.953e-09
  6.67168      3.9 1.277e+04 9.703e-09
  6.69130     -7.2 1.683e+04 3.607e-08
  6.70597    -12.2 1.654e+04 8.606e-08
  6.71573    -14.1 1.720e+04 1.066e-07
  6.72554    -17.6 1.741e+04 1.702e-07
  6.73535    -19.3 1.766e+04 1.762e-07
  6.74275    -21.7 1.776e+04 1.198e-07
  6.74766    -22.0 1.808e+04 1.257e-07
  6.75497    -28.8 1.568e+04 4.506e-08
  6.76479    -34.8 1.186e+04 2.173e-08
  6.77460    -35.7 1.139e+04 1.874e-08
  6.78936    -36.9 1.087e+04 1.317e-08
  6.80144    -39.3 9.343e+03 5.749e-09
  6.81125    -39.1 8.908e+03 5.039e-09
  6.82866    -40.5 8.089e+03 3.208e-09
  6.84828    -40.8 7.816e+03 2.699e-09
  6.87781    -40.9 7.817e+03 2.540e-09
  6.91715    -39.9 7.791e+03 2.349e-09
  6.95640    -38.4 7.667e+03 2.089e-09
  6.99564    -36.9 7.633e+03 1.998e-09
  7.02627    -35.4 7.677e+03 2.000e-09
  7.04589    -33.7 7.487e+03 1.644e-09
  7.07414    -32.5 7.724e+03 1.911e-09
  7.11338    -31.5 8.012e+03 2.307e-09
  7.15263    -31.0 8.341e+03 2.928e-09
  7.18196    -30.8 8.576e+03 3.690e-09
  7.20149    -30.9 8.731e+03 4.385e-09
  7.23102    -30.0 8.966e+03 5.278e-09
  7.27036    -29.3 9.166e+03 5.848e-09
  7.30961    -28.6 9.189e+03 5.446e-09
  7.34337    -27.6 9.115e+03 4.167e-09
  7.36290    -27.0 9.055e+03 4.042e-09
  7.37809    -26.2 9.005e+03 3.299e-09
  7.39771    -26.1 8.992e+03 3.255e-09
  7.42725    -25.2 9.032e+03 2.949e-09
  7.46659    -23.4 9.018e+03 2.673e-09
  7.49516    -21.5 9.145e+03 2.491e-09
  7.51479    -19.9 8.980e+03 2.491e-09
  7.54508    -17.8 9.187e+03 2.431e-09
  7.58432    -15.9 9.302e+03 2.552e-09
  7.62357    -14.0 9.564e+03 2.939e-09
  7.65291    -13.0 9.934e+03 3.120e-09
  7.67243    -12.6 1.004e+04 3.409e-09
  7.70196    -11.0 1.048e+04 4.716e-09
  7.74131    -10.7 1.088e+04 6.560e-09
  7.78055    -11.6 1.132e+04 1.056e-08
  7.81980    -12.4 1.133e+04 1.464e-08
  7.85904    -13.0 1.106e+04 1.453e-08
  7.89829    -13.3 1.013e+04 8.944e-09
  7.93753    -13.5 9.150e+03 5.030e-09
  7.96406    -12.8 8.575e+03 3.821e-09
  7.98368    -12.9 8.379e+03 3.410e-09
  8.01602    -11.2 8.119e+03 3.008e-09
  8.05527     -9.1 7.934e+03 2.697e-09
  8.09451     -7.1 7.871e+03 2.509e-09
  8.13376     -5.2 7.983e+03 2.607e-09
  8.16344     -3.7 8.310e+03 3.508e-09
  8.18306     -4.2 8.262e+03 3.097e-09
  8.21225     -1.9 8.523e+03 3.507e-09
  8.25149     -0.2 9.011e+03 3.689e-09
  8.29074     -0.3 9.796e+03 5.416e-09
  8.32008     -0.6 1.083e+04 1.065e-08
  8.33960     -0.8 1.151e+04 1.566e-08
  8.35922     -1.1 1.265e+04 2.783e-08
  8.37885     -0.8 1.377e+04 4.520e-08
  8.39847     -0.4 1.465e+04 6.218e-08
  8.41809     -0.8 1.533e+04 7.148e-08
  8.43276     -1.8 1.558e+04 7.532e-08
  8.44257     -1.1 1.563e+04 8.136e-08
  8.45734     -2.0 1.587e+04 8.108e-08
  8.47696     -3.2 1.598e+04 7.962e-08
  8.49658     -4.8 1.621e+04 8.530e-08
  8.51620     -6.1 1.624e+04 9.846e-08
  8.53583     -6.6 1.608e+04 1.083e-07
  8.55545     -7.1 1.602e+04 1.037e-07
  8.57327     -9.3 1.659e+04 9.789e-08
  8.58308     -7.0 1.533e+04 7.372e-08
  8.59469     -9.2 1.611e+04 7.795e-08
  8.61432    -12.5 1.677e+04 7.605e-08
  8.63394    -16.6 1.643e+04 6.209e-08
  8.65356    -20.5 1.535e+04 4.902e-08
  8.66720    -23.0 1.400e+04 3.656e-08
  8.67702    -23.2 1.472e+04 4.629e-08
  8.69281    -25.0 1.326e+04 2.766e-08
  8.71243    -26.2 1.201e+04 1.633e-08
  8.73205    -27.1 1.136e+04 1.200e-08
  8.75168    -28.2 1.131e+04 1.140e-08
  8.77130    -31.7 1.285e+04 1.527e-08
  8.79092    -35.2 1.489e+04 4.151e-08
  8.81054    -36.0 1.635e+04 9.614e-08
  8.83017    -36.8 1.716e+04 1.330e-07
  8.84979    -39.3 1.718e+04 1.289e-07
  8.86941    -42.2 1.588e+04 7.177e-08
  8.88903    -45.1 1.454e+04 4.827e-08
  8.90165    -46.0 1.398e+04 4.265e-08
  8.91146    -46.9 1.426e+04 4.797e-08
  8.92828    -46.8 1.394e+04 4.321e-08
  8.94790    -46.6 1.360e+04 3.823e-08
  8.96752    -46.4 1.303e+04 3.111e-08
  8.98330    -45.9 1.242e+04 2.477e-08
  8.99311    -45.1 1.318e+04 3.394e-08
  9.00677    -44.6 1.256e+04 2.656e-08
  9.02639    -44.0 1.206e+04 2.132e-08
  9.04602    -43.2 1.171e+04 1.777e-08
  9.06564    -42.3 1.141e+04 1.486e-08
  9.08526    -41.5 1.116e+04 1.242e-08
  9.10488    -40.6 1.091e+04 1.047e-08
  9.12451    -39.6 1.075e+04 9.247e-09
  9.13610    -38.6 1.069e+04 8.632e-09
  9.14591    -38.8 1.067e+04 8.278e-09
  9.16375    -37.8 1.058e+04 7.639e-09
  9.18337    -36.8 1.051e+04 7.139e-09
  9.20300    -35.7 1.049e+04 6.812e-09
  9.22262    -34.8 1.048e+04 6.541e-09
  9.24224    -33.8 1.050e+04 6.341e-09
  9.26186    -32.9 1.058e+04 6.230e-09
  9.28149    -32.3 1.067e+04 6.407e-09
  9.30111    -31.5 1.079e+04 6.856e-09
  9.32073    -30.7 1.092e+04 7.396e-09
  9.34035    -29.9 1.103e+04 7.826e-09
  9.35998    -29.0 1.114e+04 8.090e-09
  9.37054    -28.1 1.120e+04 8.169e-09
  9.38036    -28.1 1.091e+04 5.710e-09
  9.39333    -27.3 1.099e+04 5.865e-09
  9.40314    -27.1 1.083e+04 5.049e-09
  9.41885    -26.2 1.094e+04 5.464e-09
  9.43847    -25.2 1.111e+04 6.141e-09
  9.45809    -24.3 1.131e+04 7.069e-09
  9.47771    -23.5 1.166e+04 8.473e-09
  9.49734    -23.3 1.227e+04 1.150e-08
  9.51696    -24.4 1.329e+04 1.988e-08
  9.53658    -26.2 1.459e+04 4.302e-08
  9.55620    -26.9 1.585e+04 9.157e-08
  9.57583    -26.7 1.664e+04 1.355e-07
  9.59049    -27.2 1.644e+04 1.237e-07
  9.59825    -27.0 1.627e+04 1.152e-07
  9.60289    -26.9 1.635e+04 1.157e-07
  9.60494    -27.2 1.595e+04 9.006e-08
  9.61012    -28.0 1.519e+04 6.060e-08
  9.61988    -28.1 1.504e+04 4.664e-08
  9.63465    -30.6 1.439e+04 2.717e-08
  9.65432    -34.2 1.435e+04 1.914e-08
  9.67394    -38.0 1.451e+04 1.799e-08
  9.69356    -41.4 1.419e+04 2.165e-08
  9.71319    -42.9 1.388e+04 2.770e-08
  9.73281    -43.6 1.384e+04 3.071e-08
  9.75243    -44.7 1.347e+04 2.436e-08
  9.77205    -46.0 1.295e+04 1.634e-08
  9.79168    -47.3 1.229e+04 1.019e-08
  9.80336    -48.3 1.176e+04 7.269e-09
  9.81318    -49.4 1.167e+04 7.389e-09
  9.82963    -49.4 1.145e+04 6.332e-09
  9.83944    -48.7 1.155e+04 6.681e-09
  9.85054    -48.3 1.140e+04 5.543e-09
  9.87017    -47.6 1.127e+04 4.662e-09
  9.88979    -46.9 1.116e+04 3.806e-09
  9.90941    -46.2 1.106e+04 3.149e-09
  9.93894    -45.3 1.097e+04 2.761e-09
  9.97829    -43.6 1.079e+04 2.339e-09
 10.01753    -41.4 1.056e+04 1.869e-09
 10.05678    -39.2 1.043e+04 1.500e-09
 10.09602    -36.8 1.040e+04 1.242e-09
 10.13527    -34.3 1.042e+04 1.054e-09
 10.17451    -31.7 1.047e+04 9.004e-10
 10.21376    -28.9 1.053e+04 7.841e-10
 10.25300    -26.1 1.062e+04 7.039e-10
 10.28891    -23.2 1.072e+04 6.475e-10
 10.30853    -22.6 1.082e+04 6.616e-10
 10.33149    -19.7 1.093e+04 6.271e-10
 10.37074    -16.9 1.097e+04 6.208e-10
 10.40998    -14.3 1.126e+04 6.289e-10
 10.44923    -12.1 1.129e+04 8.030e-10
 10.48847     -9.7 1.119e+04 1.234e-09
 10.52772     -6.8 1.120e+04 1.858e-09
 10.56697     -3.6 1.138e+04 2.206e-09
 10.60400     -1.1 1.169e+04 2.004e-09
 10.62362     -1.4 1.181e+04 2.686e-09
 10.64546      0.7 1.225e+04 2.217e-09
 10.68470      2.6 1.243e+04 2.627e-09
 10.72395      4.9 1.249e+04 3.426e-09
 10.75780      7.5 1.269e+04 4.012e-09
 10.77742      8.5 1.249e+04 3.807e-09
 10.80244     11.1 1.293e+04 5.413e-09
 10.83177     12.9 1.311e+04 6.442e-09
 10.85130     13.6 1.326e+04 6.994e-09
 10.87092     14.4 1.353e+04 8.479e-09
 10.89054     15.2 1.393e+04 1.085e-08
 10.91017     15.0 1.445e+04 1.699e-08
 10.92979     14.3 1.519e+04 3.773e-08
 10.94941     14.4 1.596e+04 8.619e-08
 10.96903     14.7 1.641e+04 1.356e-07
 10.98866     15.6 1.606e+04 1.104e-07
 11.00186     16.3 1.533e+04 5.279e-08
 11.01167     16.5 1.610e+04 1.041e-07
 11.02365     16.7 1.532e+04 5.121e-08
 11.03346     15.8 1.525e+04 3.512e-08
 11.04752     14.7 1.477e+04 1.018e-08
 11.06715     14.9 1.417e+04 6.209e-09
 11.08677     14.8 1.385e+04 4.324e-09
 11.11630     15.0 1.349e+04 3.806e-09
 11.15564     16.5 1.347e+04 4.498e-09
 11.19489     18.4 1.371e+04 6.974e-09
 11.22423     18.6 1.401e+04 9.181e-09
 11.23631     17.4 1.468e+04 1.449e-08
 11.24612     17.3 1.492e+04 1.701e-08
 11.26337     16.1 1.536e+04 3.941e-08
 11.28300     15.6 1.587e+04 6.724e-08
 11.30262     15.2 1.571e+04 5.457e-08
 11.32224     14.7 1.558e+04 2.461e-08
 11.34186     12.2 1.528e+04 1.217e-08
 11.36149     10.6 1.467e+04 7.818e-09
 11.38111     11.1 1.424e+04 7.993e-09
 11.40073     11.1 1.378e+04 5.909e-09
 11.42396     11.2 1.353e+04 5.191e-09
 11.44368     10.7 1.365e+04 2.480e-09
 11.46961     11.4 1.341e+04 1.791e-09
 11.50885     12.6 1.315e+04 2.052e-09
 11.54810     14.1 1.273e+04 2.944e-09
 11.58734     15.8 1.265e+04 3.027e-09
 11.62659     17.4 1.237e+04 2.625e-09
 11.66583     18.8 1.233e+04 1.912e-09
 11.69559     20.1 1.232e+04 1.496e-09
 11.71521     20.2 1.233e+04 1.447e-09
 11.74432     21.8 1.223e+04 1.550e-09
 11.78357     23.5 1.221e+04 1.533e-09
 11.82281     25.3 1.223e+04 1.399e-09
 11.86206     26.9 1.229e+04 1.293e-09
 11.90130     28.4 1.231e+04 1.324e-09
 11.94055     30.1 1.237e+04 1.452e-09
 11.97980     31.8 1.248e+04 1.535e-09
 12.01904     33.5 1.253e+04 1.524e-09
 12.05829     35.2 1.258e+04 1.509e-09
 12.09753     36.9 1.264e+04 1.574e-09
 12.13678     38.5 1.270e+04 1.947e-09
 12.16448     40.0 1.280e+04 2.840e-09
 12.18410     39.9 1.288e+04 4.907e-09
 12.20536     41.0 1.322e+04 6.073e-09
 12.22488     41.4 1.339e+04 6.477e-09
 12.24393     41.8 1.343e+04 6.492e-09
 12.25374     41.3 1.373e+04 7.023e-09
 12.26413     41.6 1.376e+04 6.975e-09
 12.28375     41.9 1.379e+04 6.925e-09
 12.30337     42.2 1.370e+04 6.825e-09
 12.32300     42.7 1.356e+04 6.601e-09
 12.34262     43.0 1.361e+04 6.503e-09
 12.36224     42.2 1.410e+04 7.471e-09
 12.38186     39.9 1.474e+04 1.305e-08
 12.39873     37.9 1.499e+04 2.995e-08
 12.40854     36.3 1.516e+04 5.095e-08
 12.42111     35.5 1.545e+04 6.487e-08
 12.44073     33.8 1.561e+04 5.329e-08
 12.46035     30.2 1.567e+04 3.788e-08
 12.47998     25.7 1.517e+04 3.113e-08
 12.49960     22.4 1.441e+04 2.799e-08
 12.51922     21.0 1.372e+04 2.355e-08
 12.53885     20.1 1.343e+04 1.699e-08
 12.55847     18.9 1.319e+04 1.149e-08
 12.57809     17.7 1.278e+04 9.305e-09
 12.59771     18.3 1.237e+04 6.784e-09
 12.61734     18.3 1.237e+04 6.367e-09
 12.63328     19.9 1.219e+04 5.023e-09
 12.64309     19.6 1.207e+04 5.128e-09
 12.65396     20.0 1.211e+04 4.536e-09
 12.66377     20.6 1.223e+04 5.053e-09
 12.67620     21.8 1.199e+04 3.979e-09
 12.69583     21.8 1.204e+04 3.520e-09
 12.72536     23.5 1.163e+04 2.586e-09
 12.76470     25.4 1.151e+04 2.209e-09
 12.80395     27.6 1.156e+04 2.259e-09
 12.84319     29.4 1.156e+04 2.322e-09
 12.86772     30.7 1.154e+04 2.601e-09
 12.87744     30.5 1.156e+04 2.523e-09
 12.89205     31.1 1.161e+04 2.899e-09
 12.91168     31.8 1.167e+04 3.275e-09
 12.93130     32.2 1.177e+04 3.665e-09
 12.95092     32.1 1.190e+04 4.169e-09
 12.97054     31.9 1.200e+04 4.945e-09
 12.99017     31.7 1.205e+04 5.909e-09
 13.00979     31.6 1.208e+04 6.659e-09
 13.02941     31.5 1.213e+04 7.011e-09
 13.04903     31.0 1.218e+04 7.103e-09
 13.06399     30.5 1.222e+04 7.320e-09
 13.07380     29.8 1.228e+04 6.907e-09
 13.08828     28.2 1.258e+04 7.671e-09
 13.10207     25.2 1.341e+04 1.119e-08
 13.11188     22.6 1.370e+04 1.049e-08
 13.12752     19.9 1.421e+04 2.358e-08
 13.14715     18.2 1.412e+04 2.785e-08
 13.16677     17.2 1.380e+04 2.177e-08
 13.18639     14.3 1.379e+04 1.460e-08
 13.20601     11.1 1.382e+04 1.449e-08
 13.22564      7.0 1.442e+04 2.007e-08
 13.24526      5.0 1.468e+04 3.751e-08
 13.26488      3.3 1.548e+04 4.822e-08
 13.28451      0.8 1.591e+04 5.279e-08
 13.30413     -2.6 1.622e+04 5.454e-08
 13.32375     -7.5 1.692e+04 7.393e-08
 13.33652    -12.2 1.728e+04 1.115e-07
 13.34633    -10.3 1.666e+04 6.684e-08
 13.36300    -13.3 1.652e+04 1.009e-07
 13.38262    -14.6 1.612e+04 9.791e-08
 13.40224    -16.4 1.556e+04 3.407e-08
 13.42186    -23.2 1.330e+04 7.692e-09
 13.44149    -27.0 1.121e+04 5.089e-09
 13.46111    -27.6 1.118e+04 4.806e-09
 13.47402    -28.5 1.126e+04 4.883e-09
 13.48383    -28.3 1.139e+04 5.619e-09
 13.50035    -29.5 1.135e+04 6.892e-09
 13.51998    -30.1 1.139e+04 8.539e-09
 13.53960    -30.3 1.146e+04 9.404e-09
 13.55922    -30.8 1.145e+04 9.440e-09
 13.57097    -31.4 1.131e+04 8.117e-09
 13.58078    -31.1 1.148e+04 8.796e-09
 13.59847    -31.8 1.134e+04 7.160e-09
 13.61809    -32.4 1.117e+04 5.960e-09
 13.63771    -32.9 1.094e+04 5.174e-09
 13.65734    -33.0 1.076e+04 4.657e-09
 13.67696    -32.8 1.067e+04 4.223e-09
 13.70649    -32.4 1.054e+04 3.197e-09
 13.74583    -32.5 1.038e+04 2.454e-09
 13.78508    -32.3 1.021e+04 1.912e-09
 13.82432    -32.1 1.020e+04 1.663e-09
 13.86357    -32.0 1.024e+04 1.554e-09
 13.88425    -32.1 1.026e+04 1.454e-09
 13.90387    -32.6 1.013e+04 1.168e-09
 13.94206    -32.7 1.012e+04 1.153e-09
 13.98130    -32.5 1.005e+04 1.153e-09
 14.02043    -31.9 1.000e+04 1.236e-09
 14.05968    -31.8 1.011e+04 1.432e-09
 14.09904    -31.4 1.041e+04 2.206e-09
 14.12838    -30.6 1.075e+04 3.104e-09
 14.14790    -30.7 1.082e+04 3.327e-09
 14.16752    -30.4 1.108e+04 4.258e-09
 14.18715    -30.6 1.109e+04 4.514e-09
 14.20677    -30.6 1.108e+04 4.535e-09
 14.22639    -30.4 1.103e+04 4.114e-09
 14.24601    -30.1 1.102e+04 3.428e-09
 14.26450    -30.1 1.102e+04 2.751e-09
 14.27431    -30.6 1.106e+04 2.545e-09
 14.29517    -30.3 1.109e+04 2.230e-09
 14.33451    -29.6 1.113e+04 2.229e-09
 14.36385    -29.1 1.128e+04 2.614e-09
 14.38337    -28.7 1.133e+04 3.167e-09
 14.40300    -27.7 1.149e+04 4.009e-09
 14.42262    -26.9 1.165e+04 4.595e-09
 14.44224    -26.2 1.186e+04 5.288e-09
 14.46186    -25.5 1.226e+04 6.358e-09
 14.48149    -25.4 1.282e+04 8.514e-09
 14.49894    -27.8 1.456e+04 1.574e-08
 14.50875    -29.9 1.481e+04 3.101e-08
 14.51578    -31.2 1.650e+04 5.655e-08
 14.52554    -37.3 1.920e+04 1.037e-07
 14.53535    -45.0 2.055e+04 3.559e-07
 14.54516    -52.2 2.019e+04 6.889e-07
 14.55497    -58.8 2.007e+04 8.100e-07
 14.56479    -64.8 1.997e+04 5.806e-07
 14.57460    -69.7 1.943e+04 2.169e-07
 14.58441    -73.2 1.716e+04 8.332e-08
 14.59422    -74.9 1.490e+04 4.545e-08
 14.60403    -75.1 1.408e+04 3.301e-08
 14.61880    -73.6 1.363e+04 2.549e-08
 14.63847    -72.5 1.237e+04 1.034e-08
 14.65809    -72.7 1.129e+04 4.248e-09
 14.67771    -73.0 1.080e+04 2.734e-09
 14.69430    -72.3 1.043e+04 2.269e-09
 14.70411    -73.6 1.026e+04 2.117e-09
 14.72687    -72.7 1.005e+04 1.949e-09
 14.76621    -70.8 9.775e+03 1.791e-09
 14.80546    -69.2 9.658e+03 1.752e-09
 14.84470    -68.0 9.584e+03 1.817e-09
 14.88395    -66.9 9.588e+03 2.020e-09
 14.92319    -66.0 9.592e+03 2.218e-09
 14.95822    -65.2 9.589e+03 2.273e-09
 14.97784    -65.1 9.467e+03 2.243e-09
 15.00168    -64.3 9.461e+03 2.259e-09
 15.04093    -63.8 9.471e+03 2.258e-09
 15.08017    -63.7 9.574e+03 2.446e-09
 15.11942    -63.8 9.690e+03 3.019e-09
 15.15866    -63.8 9.749e+03 3.509e-09
 15.19791    -63.7 9.734e+03 3.562e-09
 15.23715    -63.4 9.458e+03 2.655e-09
 15.27640    -63.2 9.097e+03 1.564e-09
 15.31564    -62.9 8.831e+03 1.071e-09
 15.35489    -62.2 8.714e+03 9.862e-10
 15.39413    -61.0 8.626e+03 9.968e-10
 15.42711    -59.7 8.597e+03 1.037e-09
 15.44674    -59.1 8.528e+03 8.731e-10
 15.47263    -57.8 8.560e+03 9.489e-10
 15.50475    -56.6 8.657e+03 1.109e-09
 15.52437    -56.7 8.705e+03 1.131e-09
 15.55112    -55.6 8.844e+03 1.320e-09
 15.59036    -54.6 8.999e+03 1.549e-09
 15.62961    -53.7 9.158e+03 1.811e-09
 15.66885    -52.9 9.314e+03 2.128e-09
 15.70810    -52.0 9.478e+03 2.466e-09
 15.74734    -51.1 9.663e+03 2.683e-09
 15.78659    -50.3 9.750e+03 2.723e-09
 15.82583    -49.5 9.840e+03 2.452e-09
 15.86508    -48.7 9.881e+03 1.948e-09
 15.89601    -48.2 9.913e+03 1.656e-09
 15.91563    -48.1 1.001e+04 1.955e-09
 15.94357    -47.8 1.008e+04 1.757e-09
 15.98281    -47.6 1.013e+04 1.767e-09
 16.02206    -47.1 1.019e+04 1.849e-09
 16.06130    -46.1 1.021e+04 1.816e-09
 16.10055    -44.7 1.036e+04 1.329e-09
 16.13979    -43.4 1.067e+04 9.895e-10
 16.17904    -42.0 1.078e+04 9.277e-10
 16.21829    -40.4 1.096e+04 9.778e-10
 16.25753    -38.9 1.101e+04 1.212e-09
 16.29678    -37.2 1.108e+04 1.595e-09
 16.32481    -35.5 1.121e+04 2.053e-09
 16.34443    -35.9 1.120e+04 1.696e-09
 16.36490    -34.1 1.134e+04 2.202e-09
 16.38452    -35.0 1.154e+04 2.874e-09
 16.41451    -33.3 1.168e+04 2.809e-09
 16.45376    -31.6 1.175e+04 2.593e-09
 16.49300    -29.7 1.184e+04 2.201e-09
 16.53225    -27.6 1.191e+04 1.660e-09
 16.57149    -25.3 1.194e+04 1.188e-09
 16.61074    -23.1 1.188e+04 8.624e-10
 16.64998    -20.8 1.189e+04 6.536e-10
 16.68923    -18.4 1.191e+04 5.343e-10
 16.72847    -16.1 1.192e+04 4.743e-10
 16.76772    -13.8 1.190e+04 4.665e-10
 16.80696    -11.5 1.185e+04 5.188e-10
 16.83380     -9.4 1.175e+04 6.426e-10
 16.85342     -9.6 1.192e+04 5.134e-10
 16.88546     -7.6 1.177e+04 7.737e-10
 16.92470     -5.5 1.167e+04 1.205e-09
 16.96395     -3.4 1.159e+04 1.640e-09
 17.00319     -1.6 1.155e+04 1.739e-09
 17.04244      0.5 1.161e+04 1.433e-09
 17.08168      2.3 1.176e+04 1.120e-09
 17.12093      3.8 1.189e+04 1.016e-09
 17.14487      5.3 1.188e+04 1.180e-09
 17.16449      5.6 1.193e+04 7.163e-10
 17.19942      7.2 1.193e+04 8.986e-10
 17.23866      9.1 1.193e+04 1.216e-09
 17.27791     11.1 1.197e+04 1.535e-09
 17.30269     13.0 1.212e+04 1.889e-09
 17.32231     12.9 1.223e+04 1.513e-09
 17.35640     14.4 1.231e+04 1.759e-09
 17.39564     15.6 1.227e+04 2.467e-09
 17.43489     16.7 1.218e+04 3.506e-09
 17.47413     17.9 1.216e+04 4.450e-09
 17.51338     19.0 1.215e+04 4.652e-09
 17.55262     19.7 1.215e+04 4.356e-09
 17.59187     20.5 1.213e+04 3.821e-09
 17.63112     21.4 1.217e+04 3.008e-09
 17.67036     22.3 1.224e+04 2.229e-09
 17.70961     23.2 1.213e+04 1.765e-09
 17.74885     24.3 1.188e+04 1.519e-09
 17.77158     25.6 1.165e+04 1.356e-09
 17.79121     25.4 1.157e+04 1.364e-09
 17.82734     27.0 1.145e+04 1.201e-09
 17.86659     28.6 1.140e+04 1.029e-09
 17.90583     30.1 1.122e+04 9.833e-10
 17.94508     31.8 1.112e+04 1.012e-09
 17.96493     33.5 1.099e+04 1.093e-09
 17.98456     33.7 1.103e+04 1.092e-09
 18.02357     35.4 1.091e+04 1.255e-09
 18.06281     37.1 1.080e+04 1.324e-09
 18.10206     38.7 1.074e+04 1.259e-09
 18.14130     40.3 1.070e+04 1.131e-09
 18.18055     41.7 1.065e+04 1.049e-09
 18.21979     43.2 1.064e+04 1.054e-09
 18.24048     44.9 1.063e+04 1.118e-09
 18.26010     44.0 1.051e+04 1.391e-09
 18.29829     45.4 1.062e+04 1.781e-09
 18.33753     46.7 1.080e+04 2.443e-09
 18.37678     48.2 1.084e+04 2.718e-09
 18.41602     50.0 1.078e+04 2.664e-09
 18.45527     51.7 1.071e+04 2.393e-09
 18.49451     53.2 1.061e+04 2.140e-09
 18.53376     54.6 1.041e+04 2.030e-09
 18.57300     56.0 1.030e+04 2.055e-09
 18.61225     57.2 1.016e+04 2.242e-09
 18.65149     58.2 1.007e+04 2.648e-09
 18.68975     59.3 1.011e+04 3.247e-09
 18.70927     58.3 1.009e+04 2.902e-09
 18.71998     58.4 1.013e+04 3.140e-09
 18.73960     58.5 1.019e+04 3.513e-09
 18.75922     58.4 1.025e+04 4.084e-09
 18.77499     58.3 1.033e+04 4.919e-09
 18.78480     58.4 1.034e+04 4.603e-09
 18.79847     58.1 1.048e+04 6.031e-09
 18.81809     58.0 1.069e+04 8.093e-09
 18.83771     57.8 1.099e+04 1.083e-08
 18.85734     57.6 1.137e+04 1.379e-08
 18.87696     56.8 1.179e+04 1.657e-08
 18.89658     55.6 1.211e+04 1.885e-08
 18.91620     54.1 1.217e+04 1.996e-08
 18.93381     52.8 1.204e+04 1.938e-08
 18.94362     52.4 1.156e+04 1.585e-08
 18.95545     51.8 1.118e+04 1.308e-08
 18.97507     51.1 1.079e+04 9.792e-09
 18.99469     50.2 1.047e+04 7.190e-09
 19.01432     49.2 1.022e+04 5.839e-09
 19.03394     48.6 1.001e+04 5.585e-09
 19.05356     48.3 9.962e+03 5.668e-09
 19.07318     48.4 9.949e+03 5.815e-09
 19.09281     48.5 9.990e+03 5.873e-09
 19.11243     48.5 1.002e+04 5.638e-09
 19.13205     48.6 1.001e+04 5.448e-09
 19.15854     48.6 1.003e+04 5.235e-09
 19.17826     49.8 9.733e+03 4.526e-09
 19.20093     50.5 9.601e+03 4.010e-09
 19.24017     51.3 9.500e+03 3.630e-09
 19.27942     52.3 9.530e+03 3.588e-09
 19.31866     53.2 9.593e+03 3.574e-09
 19.35791     54.0 9.656e+03 3.517e-09
 19.39715     54.7 9.721e+03 3.321e-09
 19.43640     55.3 9.699e+03 2.893e-09
 19.47564     56.0 9.573e+03 2.167e-09
 19.51489     56.9 9.383e+03 1.383e-09
 19.55413     58.0 9.282e+03 7.725e-10
 19.58543     59.0 9.246e+03 4.478e-10
 19.60506     58.8 9.179e+03 4.818e-10
 19.62754     60.3 9.120e+03 3.971e-10
 19.64716     60.8 9.148e+03 3.959e-10
 19.67187     62.6 9.129e+03 3.966e-10
 19.71112     64.6 9.154e+03 4.121e-10
 19.75036     66.6 9.218e+03 4.569e-10
 19.78961     68.6 9.367e+03 5.249e-10
 19.82885     70.7 9.547e+03 6.365e-10
 19.86810     72.8 9.610e+03 7.841e-10
 19.90734     75.1 9.659e+03 9.263e-10
 19.94659     77.3 9.723e+03 1.038e-09
 19.98583     79.5 9.798e+03 1.116e-09
 20.02508     81.7 9.868e+03 1.182e-09
 20.06432     83.8 9.948e+03 1.270e-09
 20.09643     85.9 1.003e+04 1.410e-09
 20.11605     85.1 1.005e+04 1.376e-09
 20.14281     87.1 1.018e+04 1.562e-09
 20.18206     89.1 1.043e+04 1.822e-09
 20.22130     90.8 1.072e+04 2.108e-09
 20.25064     91.7 1.079e+04 2.313e-09
 20.27017     92.5 1.084e+04 2.632e-09
 20.28979     93.2 1.091e+04 3.272e-09
 20.30941     94.0 1.104e+04 4.288e-09
 20.32903     94.6 1.123e+04 5.718e-09
 20.34049     95.1 1.148e+04 7.544e-09
 20.35030     94.3 1.161e+04 7.753e-09
 20.36828     94.5 1.196e+04 1.024e-08
 20.38790     94.5 1.230e+04 1.335e-08
 20.40530     94.5 1.258e+04 1.675e-08
 20.41511     94.9 1.260e+04 1.846e-08
 20.42715     95.0 1.288e+04 2.228e-08
 20.44677     95.1 1.301e+04 2.383e-08
 20.46639     95.1 1.301e+04 2.371e-08
 20.48601     95.4 1.289e+04 2.266e-08
 20.50564     95.8 1.267e+04 2.023e-08
 20.52526     96.4 1.242e+04 1.748e-08
 20.54488     97.0 1.220e+04 1.549e-08
 20.56450     97.6 1.207e+04 1.471e-08
 20.57494     98.5 1.210e+04 1.500e-08
 20.58475     97.5 1.260e+04 2.004e-08
 20.60375     97.7 1.319e+04 2.543e-08
 20.62337     97.7 1.413e+04 3.634e-08
 20.64300     97.6 1.494e+04 5.046e-08
 20.65766     97.8 1.510e+04 5.451e-08
 20.66743     97.4 1.555e+04 6.499e-08
 20.67724     97.1 1.604e+04 8.150e-08
 20.68705     96.9 1.642e+04 9.852e-08
 20.69206     96.8 1.671e+04 1.138e-07
 20.69697     95.5 1.675e+04 1.182e-07
 20.70667     95.2 1.677e+04 1.159e-07
 20.71648     94.5 1.677e+04 1.080e-07
 20.72629     93.4 1.665e+04 9.425e-08
 20.73611     92.0 1.640e+04 7.924e-08
 20.74592     90.1 1.601e+04 6.656e-08
 20.75573     88.0 1.558e+04 5.814e-08
 20.76554     86.0 1.516e+04 5.481e-08
 20.77535     84.3 1.507e+04 5.482e-08
 20.78516     82.7 1.509e+04 5.522e-08
 20.79497     81.1 1.515e+04 5.680e-08
 20.80438     79.5 1.530e+04 6.014e-08
 20.80929     78.5 1.465e+04 4.604e-08
 20.81460     77.2 1.479e+04 4.794e-08
 20.82014     76.0 1.498e+04 4.980e-08
 20.82504     76.7 1.427e+04 3.757e-08
 20.83422     75.4 1.450e+04 3.819e-08
 20.84403     74.2 1.459e+04 3.771e-08
 20.85384     72.3 1.481e+04 3.838e-08
 20.86365     70.8 1.476e+04 3.859e-08
 20.87842     69.3 1.471e+04 3.659e-08
 20.89809     67.1 1.445e+04 3.390e-08
 20.91771     64.2 1.441e+04 3.460e-08
 20.93733     61.2 1.487e+04 4.639e-08
 20.95696     59.2 1.553e+04 6.576e-08
 20.97658     57.3 1.564e+04 6.884e-08
 20.99620     56.0 1.529e+04 6.216e-08
 21.01583     55.4 1.451e+04 4.523e-08
 21.03402     54.7 1.351e+04 2.898e-08
 21.04383     55.5 1.319e+04 2.368e-08
 21.05507     54.2 1.230e+04 1.550e-08
 21.07469     53.3 1.179e+04 1.304e-08
 21.09432     53.2 1.161e+04 1.253e-08
 21.11394     53.3 1.158e+04 1.237e-08
 21.13356     53.5 1.152e+04 1.207e-08
 21.15318     53.8 1.140e+04 1.145e-08
 21.17281     54.0 1.123e+04 1.051e-08
 21.19243     54.3 1.104e+04 9.360e-09
 21.21205     54.7 1.083e+04 8.097e-09
 21.22536     55.1 1.061e+04 6.783e-09
 21.23517     55.4 1.043e+04 6.047e-09
 21.25130     55.8 1.024e+04 5.130e-09
 21.26847     56.5 9.986e+03 4.064e-09
 21.27828     56.5 9.889e+03 3.463e-09
 21.29054     56.7 9.789e+03 3.066e-09
 21.32007     58.2 9.579e+03 2.749e-09
 21.35942     60.2 9.389e+03 2.268e-09
 21.39866     62.4 9.415e+03 2.124e-09
 21.43791     64.5 9.464e+03 2.178e-09
 21.47715     66.6 9.605e+03 2.414e-09
 21.50311     68.8 9.891e+03 2.886e-09
 21.52273     69.6 9.922e+03 2.870e-09
 21.54573     70.4 1.006e+04 3.229e-09
 21.56526     71.1 1.019e+04 3.536e-09
 21.58488     71.8 1.040e+04 3.895e-09
 21.60450     72.6 1.061e+04 4.282e-09
 21.62413     73.2 1.078e+04 4.664e-09
 21.63539     73.9 1.087e+04 5.052e-09
 21.64520     74.5 1.088e+04 5.038e-09
 21.66337     75.2 1.093e+04 5.482e-09
 21.68300     75.9 1.098e+04 6.052e-09
 21.70262     76.5 1.103e+04 6.767e-09
 21.72224     77.2 1.111e+04 7.633e-09
 21.73736     77.8 1.123e+04 8.727e-09
 21.74717     78.3 1.124e+04 8.789e-09
 21.76149     78.9 1.134e+04 9.868e-09
 21.78111     79.3 1.147e+04 1.069e-08
 21.80073     79.7 1.157e+04 1.124e-08
 21.82035     79.9 1.164e+04 1.162e-08
 21.83998     80.0 1.174e+04 1.217e-08
 21.85960     80.1 1.193e+04 1.335e-08
 21.87922     80.0 1.225e+04 1.559e-08
 21.89884     79.6 1.276e+04 1.946e-08
 21.91847     79.0 1.351e+04 2.596e-08
 21.93809     77.9 1.451e+04 3.708e-08
 21.95771     76.0 1.569e+04 5.667e-08
 21.97181     73.5 1.678e+04 8.935e-08
 21.98162     74.3 1.732e+04 1.336e-07
 21.99696     71.9 1.777e+04 1.578e-07
 22.01658     69.6 1.797e+04 1.634e-07
 22.03561     66.7 1.790e+04 1.504e-07
 22.04542     65.7 1.693e+04 9.400e-08
 22.05583     62.7 1.626e+04 6.886e-08
 22.07545     59.6 1.577e+04 5.386e-08
 22.09507     56.2 1.553e+04 4.615e-08
 22.11469     51.7 1.549e+04 4.320e-08
 22.13432     46.1 1.539e+04 4.127e-08
 22.15394     39.1 1.558e+04 4.134e-08
 22.17356     31.9 1.566e+04 4.293e-08
 22.19318     25.8 1.523e+04 4.438e-08
 22.20626     20.6 1.492e+04 4.688e-08
 22.21607     18.3 1.521e+04 5.153e-08
 22.23243     14.3 1.434e+04 4.721e-08
 22.25205     12.5 1.354e+04 3.811e-08
 22.27167     11.4 1.275e+04 2.798e-08
 22.29130     10.1 1.202e+04 2.000e-08
 22.31092      8.6 1.144e+04 1.476e-08
 22.33054      7.3 1.096e+04 1.203e-08
 22.35017      6.5 1.060e+04 1.068e-08
 22.36979      6.2 1.035e+04 9.550e-09
 22.38941      6.2 1.015e+04 8.292e-09
 22.40903      6.0 9.946e+03 6.927e-09
 22.42866      5.6 9.834e+03 5.836e-09
 22.44070      5.0 9.714e+03 5.356e-09
 22.44788      5.3 9.631e+03 5.143e-09
 22.45545      5.6 9.773e+03 5.602e-09
 22.46790      5.2 9.795e+03 5.636e-09
 22.48752      4.6 9.925e+03 5.989e-09
 22.50715      2.9 1.055e+04 7.457e-09
 22.52677     -1.2 1.204e+04 1.280e-08
 22.54639     -3.2 1.250e+04 2.525e-08
 22.56601     -2.9 1.247e+04 3.292e-08
 22.58564     -1.7 1.214e+04 2.153e-08
 22.60526     -4.2 1.261e+04 1.068e-08
 22.62488     -8.6 1.122e+04 6.906e-09
 22.64450    -10.4 1.078e+04 6.059e-09
 22.66413    -11.9 1.125e+04 6.825e-09
 22.67515    -14.9 1.215e+04 8.490e-09
 22.68496    -14.6 1.222e+04 9.166e-09
 22.70337    -18.3 1.259e+04 1.532e-08
 22.72300    -20.0 1.305e+04 2.420e-08
 22.74262    -20.8 1.340e+04 2.824e-08
 22.76224    -23.0 1.338e+04 1.987e-08
 22.78186    -26.8 1.270e+04 1.142e-08
 22.80149    -29.5 1.220e+04 8.921e-09
 22.82111    -30.6 1.204e+04 7.663e-09
 22.84073    -31.2 1.197e+04 6.113e-09
 22.85567    -31.7 1.186e+04 4.640e-09
 22.86549    -31.6 1.193e+04 5.003e-09
 22.87998    -32.0 1.169e+04 3.766e-09
 22.89960    -32.2 1.145e+04 2.995e-09
 22.90969    -32.2 1.123e+04 2.422e-09
 22.91951    -32.0 1.133e+04 2.873e-09
 22.93884    -31.8 1.123e+04 2.699e-09
 22.96838    -30.8 1.111e+04 2.431e-09
 23.00772    -29.3 1.091e+04 2.170e-09
 23.04696    -27.6 1.077e+04 2.050e-09
 23.08621    -25.8 1.070e+04 1.973e-09
 23.12545    -24.1 1.061e+04 1.958e-09
 23.16470    -22.4 1.056e+04 1.995e-09
 23.20395    -21.1 1.054e+04 2.290e-09
 23.24319    -20.1 1.044e+04 2.736e-09
 23.28244    -19.4 1.035e+04 2.966e-09
 23.32168    -18.9 1.020e+04 2.695e-09
 23.35906    -19.3 1.010e+04 1.952e-09
 23.37859    -18.5 1.036e+04 2.563e-09
 23.39016    -20.2 1.025e+04 2.161e-09
 23.40979    -21.5 9.991e+03 2.344e-09
 23.43932    -21.9 9.890e+03 3.046e-09
 23.47866    -22.6 9.688e+03 3.419e-09
 23.51791    -22.8 9.747e+03 3.565e-09
 23.55715    -23.2 9.749e+03 3.641e-09
 23.59640    -23.9 9.704e+03 3.512e-09
 23.63564    -24.8 9.779e+03 3.523e-09
 23.66612    -25.8 1.002e+04 4.254e-09
 23.68574    -25.9 9.635e+03 3.087e-09
 23.71413    -26.1 9.876e+03 3.954e-09
 23.74347    -26.4 9.991e+03 4.215e-09
 23.76300    -26.5 9.971e+03 4.018e-09
 23.78262    -26.6 9.904e+03 3.301e-09
 23.80224    -26.6 9.871e+03 2.981e-09
 23.82786    -26.9 9.791e+03 2.532e-09
 23.84758    -27.1 9.558e+03 2.028e-09
 23.87111    -27.5 9.554e+03 1.698e-09
 23.91036    -28.2 9.723e+03 1.753e-09
 23.93970    -28.5 1.015e+04 2.656e-09
 23.95922    -29.0 1.022e+04 2.859e-09
 23.97884    -29.5 1.065e+04 4.467e-09
 23.99847    -30.6 1.095e+04 5.406e-09
 24.01809    -31.4 1.121e+04 6.076e-09
 24.03771    -32.2 1.133e+04 6.072e-09
 24.06724    -35.2 1.124e+04 5.268e-09
 24.10659    -38.8 1.126e+04 4.971e-09
 24.14583    -42.2 1.117e+04 4.821e-09
 24.18508    -44.6 1.124e+04 5.362e-09
 24.22432    -46.2 1.147e+04 6.417e-09
 24.26357    -47.5 1.176e+04 7.188e-09
 24.29685    -48.8 1.191e+04 7.741e-09
 24.31647    -49.1 1.203e+04 9.318e-09
 24.34206    -50.2 1.193e+04 8.411e-09
 24.38130    -51.2 1.176e+04 8.039e-09
 24.42055    -51.9 1.166e+04 7.921e-09
 24.45979    -52.1 1.159e+04 7.616e-09
 24.48618    -51.8 1.147e+04 6.652e-09
 24.50580    -51.8 1.129e+04 5.394e-09
 24.53828    -50.9 1.112e+04 4.326e-09
 24.57753    -49.7 1.098e+04 3.082e-09
 24.61678    -48.4 1.090e+04 2.045e-09
 24.65602    -47.1 1.086e+04 1.432e-09
 24.69527    -46.0 1.095e+04 1.148e-09
 24.73451    -44.9 1.097e+04 1.093e-09
 24.76574    -44.0 1.112e+04 1.214e-09
 24.78537    -44.0 1.102e+04 1.418e-09
 24.81300    -43.2 1.102e+04 1.670e-09
 24.85225    -42.2 1.097e+04 1.770e-09
 24.89149    -41.1 1.084e+04 1.651e-09
 24.93074    -40.1 1.072e+04 1.416e-09
 24.96998    -39.0 1.062e+04 1.258e-09
 25.00923    -37.9 1.052e+04 1.200e-09
 25.04847    -36.8 1.047e+04 1.186e-09
 25.08772    -35.7 1.042e+04 1.258e-09
 25.12696    -35.0 1.043e+04 1.411e-09
 25.16621    -34.3 1.046e+04 1.708e-09
 25.20545    -33.8 1.049e+04 2.009e-09
 25.23464    -33.4 1.048e+04 2.116e-09
 25.25426    -33.1 1.031e+04 1.667e-09
 25.28394    -32.5 1.028e+04 1.695e-09
 25.30624    -31.8 1.021e+04 1.486e-09
 25.32587    -31.6 1.012e+04 1.482e-09
 25.36244    -30.8 1.013e+04 1.226e-09
 25.40168    -30.2 1.016e+04 1.086e-09
 25.44093    -29.8 1.027e+04 1.076e-09
 25.48017    -29.8 1.043e+04 1.379e-09
 25.51942    -29.5 1.047e+04 2.094e-09
 25.55866    -29.0 1.056e+04 2.696e-09
 25.59791    -28.7 1.054e+04 2.879e-09
 25.63715    -28.1 1.023e+04 2.551e-09
 25.67640    -26.9 9.992e+03 1.777e-09
 25.70353    -25.6 9.823e+03 1.241e-09
 25.72315    -24.6 9.815e+03 1.265e-09
 25.75489    -23.1 9.730e+03 1.008e-09
 25.79413    -21.4 9.651e+03 9.355e-10
 25.83338    -19.6 9.592e+03 9.413e-10
 25.87262    -17.5 9.477e+03 1.091e-09
 25.91187    -15.1 9.364e+03 1.257e-09
 25.95111    -12.7 9.271e+03 1.336e-09
 25.99036    -10.3 9.250e+03 1.291e-09
 26.02961     -8.1 9.177e+03 1.233e-09
 26.06885     -5.6 9.068e+03 1.258e-09
 26.10668     -2.9 9.061e+03 1.128e-09
 26.12631     -2.2 9.080e+03 1.358e-09
 26.14734     -0.0 9.090e+03 1.054e-09
 26.17243      2.3 9.033e+03 1.052e-09
 26.19205      2.7 9.100e+03 1.083e-09
 26.22583      4.6 9.044e+03 1.402e-09
 26.26508      6.8 9.138e+03 2.089e-09
 26.30432      8.8 9.367e+03 2.970e-09
 26.34357     10.3 9.702e+03 4.155e-09
 26.38281     11.6 9.998e+03 5.404e-09
 26.42206     12.7 1.015e+04 6.116e-09
 26.46130     13.6 1.015e+04 6.295e-09
 26.50055     14.6 9.975e+03 5.849e-09
 26.53979     16.1 9.574e+03 4.561e-09
 26.57904     18.0 9.053e+03 3.099e-09
 26.61828     20.1 8.582e+03 1.831e-09
 26.64132     22.0 8.317e+03 1.074e-09
 26.66094     22.9 8.611e+03 1.836e-09
 26.69677     24.9 8.372e+03 1.256e-09
 26.73602     27.0 8.108e+03 9.463e-10
 26.77527     29.0 8.184e+03 9.645e-10
 26.81451     30.9 8.262e+03 1.226e-09
 26.85376     33.0 8.423e+03 1.627e-09
 26.89300     35.1 8.610e+03 2.126e-09
 26.92675     36.9 8.802e+03 2.529e-09
 26.94637     37.6 8.598e+03 2.069e-09
 26.97149     39.2 8.661e+03 2.253e-09
 27.01074     40.6 8.619e+03 2.193e-09
 27.04998     41.9 8.411e+03 1.926e-09
 27.08923     43.1 8.295e+03 1.771e-09
 27.11021     44.1 8.342e+03 1.800e-09
 27.11993     43.8 8.483e+03 2.259e-09
 27.13809     43.8 8.609e+03 2.287e-09
 27.15771     43.1 8.892e+03 2.757e-09
 27.17733     42.0 9.108e+03 4.463e-09
 27.19696     41.0 9.667e+03 6.849e-09
 27.21658     41.0 9.948e+03 9.467e-09
 27.23620     41.5 9.998e+03 1.075e-08
 27.25582     41.8 9.851e+03 1.009e-08
 27.27545     42.0 9.629e+03 8.900e-09
 27.29507     42.0 9.267e+03 7.525e-09
 27.31469     42.0 8.910e+03 6.417e-09
 27.33432     42.2 8.633e+03 5.627e-09
 27.34446     42.5 8.428e+03 5.011e-09
 27.34673     42.3 8.235e+03 4.529e-09
 27.35620     42.4 8.264e+03 4.663e-09
 27.37356     42.9 8.121e+03 4.270e-09
 27.39318     43.4 7.992e+03 3.976e-09
 27.41281     43.9 7.879e+03 3.810e-09
 27.43243     44.5 7.845e+03 3.791e-09
 27.45205     45.2 7.851e+03 3.814e-09
 27.47167     45.9 7.880e+03 3.888e-09
 27.49130     46.4 7.960e+03 4.102e-09
 27.51092     46.8 8.131e+03 4.519e-09
 27.53054     47.1 8.336e+03 5.110e-09
 27.55016     47.4 8.540e+03 5.723e-09
 27.56910     47.6 8.713e+03 6.258e-09
 27.57891     48.0 8.542e+03 5.886e-09
 27.58941     48.2 8.607e+03 6.025e-09
 27.60903     48.3 8.657e+03 6.101e-09
 27.62866     48.3 8.720e+03 6.208e-09
 27.64828     48.1 8.814e+03 6.430e-09
 27.66790     48.0 8.918e+03 6.747e-09
 27.68752     48.0 8.992e+03 7.086e-09
 27.70715     48.0 9.040e+03 7.376e-09
 27.72677     48.0 9.051e+03 7.526e-09
 27.74639     48.1 9.069e+03 7.577e-09
 27.75642     48.1 9.094e+03 7.548e-09
 27.76623     48.2 9.280e+03 8.316e-09
 27.78564     48.0 9.360e+03 8.504e-09
 27.80355     47.6 9.563e+03 9.021e-09
 27.81336     47.3 1.004e+04 1.111e-08
 27.82488     45.5 1.082e+04 1.450e-08
 27.84450     42.8 1.222e+04 2.334e-08
 27.86413     40.4 1.382e+04 4.268e-08
 27.88375     38.9 1.487e+04 6.704e-08
 27.90337     34.0 1.747e+04 1.074e-07
 27.91804     26.6 2.011e+04 2.022e-07
 27.92558     20.9 2.028e+04 2.742e-07
 27.93048     19.0 2.010e+04 3.186e-07
 27.93761     15.7 1.926e+04 2.794e-07
 27.94743     12.8 1.850e+04 2.152e-07
 27.96219      8.6 1.676e+04 7.789e-08
 27.98186     -2.0 1.483e+04 1.384e-08
 28.00149    -12.9 1.003e+04 5.938e-09
 28.02111    -14.0 9.779e+03 5.727e-09
 28.03799    -14.5 9.858e+03 6.272e-09
 28.04781    -15.8 1.022e+04 7.576e-09
 28.06035    -21.1 1.341e+04 1.264e-08
 28.07502    -26.8 1.652e+04 3.680e-08
 28.08478    -29.1 1.790e+04 4.647e-08
 28.09460    -33.4 1.932e+04 1.628e-07
 28.10441    -36.3 1.877e+04 5.112e-07
 28.11422    -36.5 1.841e+04 1.430e-06
 28.12403    -36.8 1.820e+04 2.050e-06
 28.13384    -37.7 1.818e+04 2.191e-06
 28.14365    -39.0 1.871e+04 1.035e-06
 28.15346    -41.6 1.992e+04 2.287e-07
 28.16003    -46.5 1.905e+04 6.907e-08
 28.16311    -47.1 1.835e+04 6.216e-08
 28.16640    -47.8 1.803e+04 5.514e-08
 28.17809    -54.5 1.467e+04 2.077e-08
 28.19771    -58.1 1.238e+04 1.460e-08
 28.21733    -59.2 1.200e+04 1.387e-08
 28.23696    -59.6 1.196e+04 1.390e-08
 28.25658    -59.8 1.190e+04 1.342e-08
 28.27244    -60.0 1.173e+04 1.238e-08
 28.28225    -59.9 1.172e+04 1.164e-08
 28.29582    -60.0 1.158e+04 1.064e-08
 28.31545    -60.2 1.146e+04 9.478e-09
 28.33507    -60.3 1.136e+04 8.707e-09
 28.35469    -60.4 1.134e+04 7.939e-09
 28.37432    -60.3 1.126e+04 7.539e-09
 28.39394    -60.2 1.125e+04 7.160e-09
 28.41356    -60.1 1.127e+04 6.870e-09
 28.43318    -59.9 1.132e+04 6.641e-09
 28.45281    -59.7 1.136e+04 6.555e-09
 28.47243    -59.4 1.146e+04 6.522e-09
 28.49205    -59.2 1.161e+04 6.568e-09
 28.50689    -59.7 1.205e+04 7.479e-09
 28.51670    -60.0 1.244e+04 9.671e-09
 28.53130    -61.2 1.303e+04 1.630e-08
 28.55092    -62.1 1.390e+04 2.925e-08
 28.56667    -62.2 1.488e+04 4.792e-08
 28.57648    -63.1 1.449e+04 4.120e-08
 28.59016    -63.3 1.488e+04 4.566e-08
 28.60979    -64.4 1.496e+04 4.145e-08
 28.62941    -65.8 1.446e+04 2.359e-08
 28.64903    -68.1 1.379e+04 1.379e-08
 28.66865    -69.8 1.333e+04 1.157e-08
 28.68828    -70.1 1.314e+04 1.127e-08
 28.70790    -70.0 1.301e+04 1.153e-08
 28.72752    -69.4 1.292e+04 1.159e-08
 28.74133    -68.7 1.289e+04 1.156e-08
 28.75115    -68.5 1.247e+04 8.731e-09
 28.76677    -68.1 1.256e+04 9.749e-09
 28.78639    -67.6 1.274e+04 1.175e-08
 28.80601    -67.1 1.305e+04 1.459e-08
 28.82564    -66.7 1.346e+04 1.845e-08
 28.84526    -66.6 1.383e+04 2.311e-08
 28.86488    -66.9 1.427e+04 2.800e-08
 28.88450    -68.4 1.496e+04 3.403e-08
 28.90413    -70.9 1.577e+04 4.255e-08
 28.92375    -73.8 1.648e+04 5.656e-08
 28.93842    -76.2 1.717e+04 8.264e-08
 28.94818    -77.0 1.719e+04 8.511e-08
 28.95799    -78.9 1.700e+04 8.614e-08
 28.96780    -79.7 1.659e+04 8.270e-08
 28.97568    -80.3 1.617e+04 7.617e-08
 28.97958    -80.7 1.649e+04 8.637e-08
 28.98151    -81.1 1.596e+04 7.380e-08
 28.98743    -81.5 1.559e+04 6.421e-08
 28.99724    -81.9 1.524e+04 5.668e-08
 29.00705    -82.0 1.494e+04 5.066e-08
 29.01686    -82.1 1.470e+04 4.613e-08
 29.02667    -82.1 1.453e+04 4.270e-08
 29.04144    -82.4 1.426e+04 3.719e-08
 29.06111    -82.2 1.393e+04 3.046e-08
 29.08073    -82.2 1.359e+04 2.422e-08
 29.10035    -82.7 1.332e+04 1.934e-08
 29.11998    -83.4 1.306e+04 1.612e-08
 29.13960    -84.2 1.285e+04 1.477e-08
 29.15922    -84.6 1.271e+04 1.468e-08
 29.17884    -84.9 1.263e+04 1.517e-08
 29.19847    -85.2 1.253e+04 1.499e-08
 29.21023    -85.4 1.235e+04 1.443e-08
 29.22004    -85.2 1.163e+04 1.013e-08
 29.23771    -85.2 1.159e+04 1.020e-08
 29.25733    -85.1 1.161e+04 1.038e-08
 29.27696    -85.2 1.166e+04 1.075e-08
 29.29658    -85.2 1.176e+04 1.146e-08
 29.31620    -85.1 1.192e+04 1.247e-08
 29.33582    -84.8 1.207e+04 1.349e-08
 29.35545    -84.3 1.214e+04 1.416e-08
 29.37507    -83.6 1.216e+04 1.438e-08
 29.38674    -82.7 1.203e+04 1.375e-08
 29.39655    -83.0 1.215e+04 1.459e-08
 29.41432    -82.0 1.194e+04 1.282e-08
 29.43394    -80.8 1.172e+04 1.092e-08
 29.44468    -79.5 1.153e+04 9.215e-09
 29.45449    -78.9 1.130e+04 7.107e-09
 29.47318    -77.8 1.121e+04 6.346e-09
 29.49281    -76.5 1.110e+04 5.762e-09
 29.51243    -75.1 1.098e+04 5.385e-09
 29.53205    -73.7 1.090e+04 5.182e-09
 29.55167    -72.4 1.089e+04 5.086e-09
 29.57130    -71.0 1.089e+04 5.054e-09
 29.59092    -69.5 1.090e+04 5.013e-09
 29.61054    -67.9 1.089e+04 4.955e-09
 29.64007    -65.9 1.096e+04 4.935e-09
 29.67942    -61.8 1.094e+04 5.130e-09
 29.71866    -58.5 1.114e+04 5.916e-09
 29.75791    -55.1 1.138e+04 7.056e-09
 29.78705    -52.6 1.143e+04 7.114e-09
 29.79677    -52.4 1.163e+04 7.943e-09
 29.80677    -51.3 1.186e+04 8.799e-09
 29.82639    -49.6 1.222e+04 1.016e-08
 29.84601    -49.5 1.269e+04 1.298e-08
 29.86564    -50.8 1.432e+04 2.782e-08
 29.88526    -52.6 1.645e+04 8.188e-08
 29.89993    -54.0 1.773e+04 1.731e-07
 29.90857    -54.8 1.842e+04 3.432e-07
 29.91347    -54.7 1.834e+04 3.061e-07
 29.91950    -55.1 1.879e+04 6.299e-07
 29.92931    -56.6 1.892e+04 8.360e-07
 29.93912    -59.0 1.895e+04 8.314e-07
 29.94893    -61.2 1.923e+04 4.707e-07
 29.95875    -64.8 1.933e+04 2.019e-07
 29.96856    -69.7 1.805e+04 1.123e-07
 29.97837    -73.2 1.683e+04 9.137e-08
 29.98818    -75.1 1.649e+04 8.238e-08
 29.99678    -76.7 1.631e+04 7.251e-08
 30.00168    -77.1 1.631e+04 7.400e-08
 30.00780    -78.8 1.589e+04 5.862e-08
 30.01761    -80.4 1.551e+04 4.464e-08
 30.02579    -81.8 1.525e+04 3.635e-08
 30.03069    -81.2 1.544e+04 4.282e-08
 30.04219    -82.9 1.516e+04 3.259e-08
 30.06186    -86.2 1.460e+04 2.087e-08
 30.08148    -89.5 1.322e+04 1.465e-08
 30.10111    -90.9 1.229e+04 1.326e-08
 30.12073    -91.0 1.189e+04 1.253e-08
 30.13820    -90.6 1.147e+04 1.088e-08
 30.14802    -89.6 1.160e+04 1.201e-08
 30.15998    -89.0 1.126e+04 1.043e-08
 30.17960    -88.3 1.086e+04 8.188e-09
 30.19699    -87.7 1.047e+04 5.989e-09
 30.20680    -88.2 1.039e+04 5.128e-09
 30.21884    -87.6 1.009e+04 3.555e-09
 30.23847    -87.2 9.864e+03 2.656e-09
 30.25809    -86.7 9.731e+03 2.257e-09
 30.27771    -86.3 9.711e+03 2.166e-09
 30.30724    -86.0 9.788e+03 2.305e-09
 30.34659    -84.8 1.023e+04 4.365e-09
 30.37275    -83.2 1.054e+04 6.583e-09
 30.38246    -82.3 1.061e+04 6.838e-09
 30.39545    -81.8 1.117e+04 9.990e-09
 30.41507    -81.5 1.171e+04 1.333e-08
 30.43469    -81.4 1.210e+04 1.558e-08
 30.45432    -81.4 1.221e+04 1.617e-08
 30.47394    -81.9 1.220e+04 1.599e-08
 30.49356    -82.1 1.202e+04 1.365e-08
 30.51318    -82.2 1.172e+04 1.094e-08
 30.53281    -82.3 1.143e+04 8.729e-09
 30.55243    -82.3 1.122e+04 7.227e-09
 30.58196    -82.2 1.106e+04 6.009e-09
 30.60711    -81.9 1.092e+04 4.505e-09
 30.61683    -81.4 1.098e+04 5.054e-09
 30.63092    -81.3 1.103e+04 4.824e-09
 30.65054    -81.2 1.107e+04 4.697e-09
 30.67016    -81.4 1.128e+04 5.158e-09
 30.68979    -81.6 1.145e+04 5.694e-09
 30.70941    -81.8 1.164e+04 6.311e-09
 30.73894    -82.1 1.177e+04 6.864e-09
 30.77828    -82.0 1.189e+04 7.313e-09
 30.81753    -81.6 1.197e+04 7.018e-09
 30.84174    -80.8 1.205e+04 6.509e-09
 30.86136    -79.4 1.166e+04 5.680e-09
 30.89602    -78.7 1.171e+04 5.610e-09
 30.93527    -78.5 1.211e+04 5.823e-09
 30.97451    -78.6 1.269e+04 7.805e-09
 31.00385    -79.3 1.324e+04 1.142e-08
 31.01705    -79.7 1.353e+04 1.544e-08
 31.02686    -79.8 1.355e+04 1.566e-08
 31.04299    -80.5 1.383e+04 2.058e-08
 31.06262    -81.2 1.400e+04 2.318e-08
 31.07599    -81.9 1.404e+04 2.375e-08
 31.08580    -81.9 1.389e+04 1.766e-08
 31.10186    -82.8 1.392e+04 1.758e-08
 31.12148    -83.5 1.392e+04 1.482e-08
 31.14111    -84.2 1.378e+04 1.126e-08
 31.16073    -85.0 1.354e+04 8.892e-09
 31.18035    -85.5 1.326e+04 7.741e-09
 31.19998    -85.7 1.306e+04 7.282e-09
 31.21960    -85.7 1.296e+04 7.086e-09
 31.23922    -85.4 1.288e+04 6.925e-09
 31.25884    -85.0 1.277e+04 6.796e-09
 31.27847    -84.4 1.265e+04 6.733e-09
 31.29809    -83.7 1.260e+04 6.725e-09
 31.31044    -82.9 1.255e+04 6.835e-09
 31.32025    -82.7 1.232e+04 4.413e-09
 31.33733    -81.8 1.223e+04 4.730e-09
 31.35696    -80.9 1.222e+04 5.248e-09
 31.37658    -79.9 1.226e+04 6.025e-09
 31.39620    -78.8 1.235e+04 7.100e-09
 31.41582    -77.8 1.248e+04 8.326e-09
 31.42708    -76.7 1.262e+04 9.508e-09
 31.43689    -76.4 1.268e+04 9.643e-09
 31.45507    -75.4 1.278e+04 1.030e-08
 31.47469    -74.5 1.280e+04 1.051e-08
 31.49432    -73.8 1.277e+04 1.055e-08
 31.51394    -73.0 1.262e+04 9.980e-09
 31.53356    -72.2 1.253e+04 9.338e-09
 31.54489    -71.5 1.244e+04 8.746e-09
 31.55470    -70.7 1.271e+04 1.113e-08
 31.57281    -70.0 1.257e+04 1.052e-08
 31.59243    -69.4 1.246e+04 1.005e-08
 31.61205    -68.9 1.247e+04 9.800e-09
 31.63167    -68.7 1.249e+04 9.703e-09
 31.65130    -68.6 1.257e+04 1.014e-08
 31.67092    -68.9 1.261e+04 1.134e-08
 31.69054    -69.2 1.270e+04 1.318e-08
 31.71016    -69.4 1.282e+04 1.569e-08
 31.72979    -69.5 1.292e+04 1.839e-08
 31.74941    -69.4 1.295e+04 2.044e-08
 31.76903    -69.3 1.294e+04 2.102e-08
 31.77933    -68.9 1.284e+04 2.051e-08
 31.78914    -68.2 1.285e+04 2.145e-08
 31.80828    -67.8 1.254e+04 2.065e-08
 31.82730    -67.3 1.241e+04 1.789e-08
 31.83711    -67.6 1.239e+04 1.654e-08
 31.84752    -67.2 1.224e+04 1.481e-08
 31.86715    -66.7 1.214e+04 1.359e-08
 31.88677    -65.9 1.208e+04 1.274e-08
 31.90639    -65.2 1.206e+04 1.222e-08
 31.92601    -64.4 1.205e+04 1.204e-08
 31.94564    -63.6 1.210e+04 1.209e-08
 31.96526    -62.9 1.219e+04 1.231e-08
 31.98488    -62.0 1.226e+04 1.246e-08
 32.00397    -61.2 1.232e+04 1.252e-08
 32.01378    -61.3 1.246e+04 1.438e-08
 32.02413    -60.4 1.249e+04 1.445e-08
 32.04375    -59.5 1.250e+04 1.441e-08
 32.06337    -58.6 1.253e+04 1.415e-08
 32.08299    -57.6 1.254e+04 1.324e-08
 32.10262    -56.4 1.252e+04 1.209e-08
 32.12224    -55.4 1.244e+04 1.078e-08
 32.15177    -54.3 1.222e+04 9.132e-09
 32.19111    -51.4 1.188e+04 6.996e-09
 32.22880    -48.7 1.187e+04 5.763e-09
 32.24842    -49.7 1.255e+04 1.113e-08
 32.26960    -46.9 1.256e+04 1.046e-08
 32.29894    -44.7 1.244e+04 9.113e-09
 32.31847    -43.3 1.260e+04 9.577e-09
 32.33809    -42.2 1.287e+04 1.020e-08
 32.35771    -41.4 1.308e+04 1.245e-08
 32.37733    -40.5 1.343e+04 1.659e-08
 32.39696    -40.1 1.416e+04 2.434e-08
 32.41658    -39.9 1.522e+04 3.830e-08
 32.43620    -40.1 1.626e+04 6.176e-08
 32.45582    -40.4 1.704e+04 1.010e-07
 32.47286    -40.7 1.728e+04 1.547e-07
 32.48262    -40.1 1.783e+04 4.861e-07
 32.49007    -40.3 1.784e+04 4.963e-07
 32.49988    -40.3 1.755e+04 4.295e-07
 32.50969    -39.8 1.727e+04 3.391e-07
 32.51950    -39.3 1.708e+04 2.590e-07
 32.53427    -39.0 1.683e+04 1.809e-07
 32.55394    -37.7 1.618e+04 9.598e-08
 32.57356    -36.5 1.585e+04 5.384e-08
 32.59318    -35.6 1.556e+04 3.890e-08
 32.61281    -34.7 1.531e+04 3.186e-08
 32.63243    -33.8 1.489e+04 2.685e-08
 32.64736    -32.7 1.456e+04 2.353e-08
 32.65717    -32.7 1.406e+04 1.858e-08
 32.67167    -31.4 1.388e+04 1.735e-08
 32.69130    -30.1 1.375e+04 1.658e-08
 32.70731    -28.8 1.356e+04 1.585e-08
 32.71712    -29.2 1.287e+04 1.268e-08
 32.74045    -27.5 1.268e+04 1.255e-08
 32.77979    -24.5 1.262e+04 1.246e-08
 32.80913    -22.3 1.303e+04 1.344e-08
 32.82865    -21.3 1.295e+04 1.291e-08
 32.84828    -19.6 1.294e+04 1.233e-08
 32.86790    -18.0 1.301e+04 1.192e-08
 32.88752    -16.5 1.329e+04 1.178e-08
 32.90715    -15.6 1.324e+04 1.055e-08
 32.92677    -14.0 1.331e+04 1.019e-08
 32.94176    -12.8 1.343e+04 1.036e-08
 32.95157    -13.2 1.255e+04 5.116e-09
 32.96601    -11.6 1.306e+04 5.863e-09
 32.98564    -10.9 1.317e+04 6.278e-09
 33.00526     -9.8 1.331e+04 8.971e-09
 33.02488     -8.6 1.383e+04 1.509e-08
 33.04450     -7.4 1.458e+04 2.829e-08
 33.05739     -6.7 1.564e+04 5.577e-08
 33.06720     -6.5 1.519e+04 3.330e-08
 33.08375     -5.4 1.661e+04 7.666e-08
 33.09842     -5.3 1.806e+04 1.538e-07
 33.10818     -5.1 1.872e+04 2.411e-07
 33.11799     -5.4 1.930e+04 4.501e-07
 33.12780     -6.1 1.904e+04 9.322e-07
 33.13761     -7.0 1.834e+04 1.773e-06
 33.14742     -7.7 1.786e+04 2.966e-06
 33.15724    -10.1 1.774e+04 3.888e-06
 33.16705    -14.6 1.814e+04 2.814e-06
 33.17611    -17.2 1.874e+04 1.407e-06
 33.18101    -16.3 1.956e+04 3.822e-07
 33.18667    -18.1 1.909e+04 3.005e-07
 33.19648    -19.3 1.854e+04 2.403e-07
 33.20629    -19.5 1.838e+04 2.146e-07
 33.21610    -19.7 1.817e+04 1.886e-07
 33.22592    -19.6 1.807e+04 1.712e-07
 33.23573    -19.8 1.769e+04 1.467e-07
 33.24554    -19.4 1.736e+04 1.231e-07
 33.25535    -19.4 1.676e+04 9.319e-08
 33.26231    -19.1 1.615e+04 6.754e-08
 33.26721    -18.0 1.777e+04 1.350e-07
 33.27497    -18.2 1.718e+04 8.578e-08
 33.28478    -18.3 1.649e+04 5.749e-08
 33.29333    -19.7 1.559e+04 3.892e-08
 33.29823    -20.1 1.482e+04 3.294e-08
 33.30441    -20.6 1.430e+04 2.784e-08
 33.31422    -21.3 1.377e+04 2.263e-08
 33.32403    -21.3 1.374e+04 2.175e-08
 33.33879    -21.6 1.363e+04 1.838e-08
 33.35847    -21.4 1.343e+04 1.776e-08
 33.37809    -21.0 1.327e+04 1.767e-08
 33.39771    -21.0 1.328e+04 2.295e-08
 33.41065    -20.6 1.369e+04 3.349e-08
 33.42046    -19.7 1.296e+04 2.234e-08
 33.43696    -19.3 1.349e+04 2.692e-08
 33.45658    -19.2 1.405e+04 2.972e-08
 33.46742    -19.8 1.444e+04 2.959e-08
 33.47723    -20.2 1.344e+04 8.102e-09
 33.49582    -21.3 1.325e+04 7.290e-09
 33.51545    -22.3 1.303e+04 7.236e-09
 33.53507    -23.1 1.264e+04 7.897e-09
 33.55469    -23.5 1.230e+04 8.694e-09
 33.57431    -23.5 1.216e+04 9.857e-09
 33.59394    -23.3 1.202e+04 1.057e-08
 33.61356    -23.1 1.185e+04 1.061e-08
 33.63318    -22.7 1.162e+04 9.729e-09
 33.64510    -22.1 1.134e+04 8.211e-09
 33.65491    -21.6 1.125e+04 7.843e-09
 33.67243    -21.0 1.101e+04 6.587e-09
 33.69205    -20.5 1.082e+04 5.138e-09
 33.71167    -20.2 1.062e+04 3.850e-09
 33.73130    -19.9 1.040e+04 2.954e-09
 33.75092    -19.7 1.011e+04 2.394e-09
 33.77054    -19.3 9.897e+03 2.205e-09
 33.80007    -18.2 9.839e+03 2.062e-09
 33.83942    -16.6 9.724e+03 2.017e-09
 33.87866    -14.7 9.675e+03 2.379e-09
 33.90800    -12.7 9.860e+03 2.598e-09
 33.92752    -12.5 1.011e+04 3.253e-09
 33.94714    -11.7 1.050e+04 4.773e-09
 33.96677    -11.9 1.062e+04 6.720e-09
 33.98639    -10.6 1.108e+04 1.062e-08
 34.00601    -10.1 1.140e+04 1.405e-08
 34.02564     -9.0 1.173e+04 1.853e-08
 34.04526     -7.9 1.211e+04 1.917e-08
 34.06488     -6.7 1.280e+04 1.635e-08
 34.08450     -5.9 1.323e+04 1.160e-08
 34.10413     -5.7 1.308e+04 6.783e-09
 34.12375     -4.5 1.289e+04 9.857e-09
 34.14337     -5.6 1.245e+04 6.420e-09
 34.16299     -6.5 1.178e+04 5.710e-09
 34.18262     -6.8 1.081e+04 7.019e-09
 34.20224     -7.0 1.078e+04 9.665e-09
 34.22186     -6.0 1.103e+04 1.300e-08
 34.24148     -5.0 1.124e+04 1.424e-08
 34.26111     -4.5 1.122e+04 1.206e-08
 34.27767     -4.9 1.110e+04 9.006e-09
 34.28748     -5.4 1.138e+04 9.573e-09
 34.30035     -6.7 1.102e+04 7.478e-09
 34.31998     -7.5 1.074e+04 6.611e-09
 34.33863     -7.7 1.052e+04 6.416e-09
 34.34844     -7.3 1.131e+04 9.974e-09
 34.35922     -6.6 1.086e+04 8.234e-09
 34.37884     -5.8 1.055e+04 6.179e-09
 34.39847     -5.2 1.039e+04 4.376e-09
 34.41809     -4.8 1.031e+04 3.238e-09
 34.43771     -4.5 1.025e+04 2.797e-09
 34.45733     -3.9 1.021e+04 2.633e-09
 34.47696     -3.3 1.011e+04 2.633e-09
 34.50649     -2.4 9.902e+03 3.482e-09
 34.54583     -0.2 9.839e+03 4.573e-09
 34.57327      2.3 9.993e+03 5.369e-09
 34.59289      2.7 1.036e+04 5.973e-09
 34.62432      4.7 1.060e+04 5.447e-09
 34.66357      6.2 1.067e+04 4.512e-09
 34.70281      7.9 1.058e+04 3.728e-09
 34.74206      9.8 1.051e+04 2.637e-09
 34.77139     11.0 1.007e+04 1.736e-09
 34.79092     11.0 1.011e+04 1.682e-09
 34.80752     11.1 1.018e+04 1.854e-09
 34.81733     10.2 1.065e+04 2.789e-09
 34.83016      9.8 1.104e+04 3.958e-09
 34.84979      9.1 1.166e+04 6.011e-09
 34.86941      8.3 1.219e+04 8.601e-09
 34.88903      8.7 1.198e+04 1.169e-08
 34.90865      9.1 1.127e+04 1.308e-08
 34.92828     10.5 1.070e+04 1.006e-08
 34.94790     11.3 1.040e+04 6.706e-09
 34.96752     11.6 1.022e+04 3.833e-09
 34.98714     11.1 9.941e+03 2.560e-09
 35.00677     11.4 9.500e+03 1.924e-09
 35.02639     11.6 9.463e+03 1.872e-09
 35.04206     13.2 9.132e+03 1.296e-09
 35.06178     10.9 9.060e+03 1.468e-09
 35.08812     12.9 8.808e+03 1.562e-09
 35.10774     13.0 8.681e+03 1.761e-09
 35.13451     15.0 8.617e+03 1.659e-09
 35.17376     16.8 8.802e+03 1.778e-09
 35.21300     17.2 9.454e+03 3.050e-09
 35.25225     18.0 1.020e+04 6.749e-09
 35.29149     19.2 1.036e+04 8.638e-09
 35.33074     21.0 9.952e+03 6.882e-09
 35.36998     22.8 9.370e+03 3.691e-09
 35.40923     23.8 8.907e+03 1.943e-09
 35.44847     25.2 8.659e+03 1.470e-09
 35.48772     27.4 8.673e+03 1.461e-09
 35.51106     29.6 8.822e+03 1.532e-09
 35.53068     29.6 8.525e+03 1.093e-09
 35.56621     31.6 8.663e+03 1.157e-09
 35.60545     33.4 8.903e+03 1.377e-09
 35.64470     34.9 9.358e+03 1.978e-09
 35.68394     35.1 9.663e+03 2.781e-09
 35.71328     35.3 9.871e+03 3.955e-09
 35.73281     35.6 1.011e+04 4.957e-09
 35.74531     35.9 1.045e+04 5.522e-09
 35.75512     36.1 1.032e+04 5.538e-09
 35.77205     36.1 1.055e+04 5.492e-09
 35.79167     35.9 1.065e+04 5.302e-09
 35.81130     35.8 1.074e+04 4.948e-09
 35.83092     36.1 1.076e+04 4.161e-09
 35.85054     36.2 1.083e+04 3.616e-09
 35.88007     36.5 1.063e+04 2.951e-09
 35.90818     37.2 1.041e+04 2.665e-09
 35.92780     36.9 1.067e+04 3.167e-09
 35.95866     38.0 1.030e+04 2.690e-09
 35.97995     39.4 9.994e+03 2.123e-09
 35.99957     39.4 1.033e+04 2.087e-09
 36.03715     40.5 1.003e+04 1.649e-09
 36.07640     41.8 9.906e+03 1.674e-09
 36.11564     43.4 9.774e+03 1.902e-09
 36.15489     45.3 9.781e+03 2.675e-09
 36.18422     46.8 9.891e+03 3.194e-09
 36.20375     47.4 9.969e+03 3.419e-09
 36.21420     48.2 1.003e+04 3.747e-09
 36.22401     47.9 1.008e+04 4.103e-09
 36.24299     48.8 1.020e+04 4.630e-09
 36.26262     49.8 1.028e+04 4.837e-09
 36.28224     50.7 1.028e+04 4.775e-09
 36.30186     51.7 1.026e+04 4.517e-09
 36.31802     52.6 1.026e+04 4.048e-09
 36.32783     52.4 1.035e+04 4.420e-09
 36.34111     53.1 1.034e+04 3.858e-09
 36.36073     53.6 1.041e+04 3.283e-09
 36.38035     53.9 1.045e+04 2.908e-09
 36.39997     54.2 1.044e+04 2.864e-09
 36.41960     54.5 1.050e+04 2.920e-09
 36.43884     54.4 1.064e+04 3.183e-09
 36.44865     54.1 1.082e+04 3.723e-09
 36.45884     54.0 1.107e+04 4.315e-09
 36.47847     53.4 1.149e+04 5.530e-09
 36.49809     52.3 1.205e+04 8.507e-09
 36.51771     51.0 1.277e+04 1.546e-08
 36.53733     50.1 1.354e+04 2.569e-08
 36.55696     48.8 1.375e+04 2.772e-08
 36.57658     47.8 1.343e+04 2.353e-08
 36.59620     46.8 1.269e+04 1.393e-08
 36.61582     44.8 1.199e+04 6.615e-09
 36.63545     41.7 1.126e+04 3.385e-09
 36.65507     40.0 1.038e+04 2.858e-09
 36.67328     40.0 1.038e+04 2.876e-09
 36.68309     40.4 1.024e+04 2.633e-09
 36.69431     40.7 1.026e+04 2.700e-09
 36.71394     40.8 1.041e+04 3.003e-09
 36.72805     40.0 1.120e+04 4.030e-09
 36.73786     35.3 1.423e+04 1.383e-08
 36.75318     33.3 1.567e+04 4.691e-08
 36.77281     33.0 1.624e+04 1.041e-07
 36.79243     33.3 1.619e+04 1.177e-07
 36.81205     33.7 1.592e+04 9.097e-08
 36.83167     33.2 1.584e+04 5.842e-08
 36.85130     31.0 1.588e+04 3.178e-08
 36.87092     28.1 1.480e+04 1.887e-08
 36.89054     25.7 1.308e+04 1.411e-08
 36.90773     25.1 1.202e+04 1.198e-08
 36.91754     25.2 1.281e+04 1.479e-08
 36.92979     25.3 1.199e+04 1.130e-08
 36.94941     25.2 1.167e+04 7.550e-09
 36.97894     23.0 1.145e+04 4.782e-09
 37.01828     21.0 1.052e+04 3.481e-09
 37.05753     20.7 1.033e+04 3.131e-09
 37.09677     20.8 1.031e+04 2.563e-09
 37.13602     20.6 1.035e+04 2.014e-09
 37.17526     20.3 1.018e+04 1.779e-09
 37.21451     20.4 9.977e+03 1.783e-09
 37.25376     21.0 9.834e+03 1.734e-09
 37.29300     22.1 9.709e+03 1.467e-09
 37.33225     22.8 9.727e+03 1.105e-09
 37.36701     23.4 9.735e+03 1.082e-09
 37.38663     23.4 9.747e+03 1.036e-09
 37.41074     23.8 9.825e+03 1.226e-09
 37.44998     24.2 9.937e+03 1.674e-09
 37.48923     24.4 1.002e+04 2.063e-09
 37.52847     24.3 1.012e+04 2.314e-09
 37.54830     23.8 1.023e+04 2.574e-09
 37.56793     25.4 1.028e+04 2.758e-09
 37.60696     24.8 1.035e+04 2.762e-09
 37.64621     23.1 1.058e+04 2.917e-09
 37.67554     21.5 1.085e+04 3.183e-09
 37.69507     19.3 1.151e+04 3.849e-09
 37.71469     14.3 1.642e+04 5.718e-09
 37.73431      7.1 1.699e+04 3.185e-08
 37.75394      6.5 1.581e+04 1.116e-07
 37.77356      7.7 1.598e+04 1.304e-07
 37.79318      8.4 1.619e+04 7.320e-08
 37.81280      6.2 1.594e+04 2.042e-08
 37.83243      1.4 1.292e+04 7.462e-09
 37.84552     -0.5 1.140e+04 5.052e-09
 37.85533      0.0 1.182e+04 7.120e-09
 37.87167      0.1 1.130e+04 6.121e-09
 37.89130      0.8 1.125e+04 5.831e-09
 37.91092      1.7 1.083e+04 6.685e-09
 37.93054      2.6 1.112e+04 6.020e-09
 37.94833      3.7 1.079e+04 7.052e-09
 37.95814      4.2 1.090e+04 7.273e-09
 37.96979      5.6 1.099e+04 6.503e-09
 37.98941      6.3 1.135e+04 5.455e-09
 38.00903      6.9 1.103e+04 5.494e-09
 38.02865      7.7 1.125e+04 4.329e-09
 38.04828      8.4 1.124e+04 4.277e-09
 38.06790      8.7 1.134e+04 4.524e-09
 38.07996      7.6 1.189e+04 5.563e-09
 38.08978      8.6 1.123e+04 3.216e-09
 38.10714      6.9 1.269e+04 4.100e-09
 38.12677      6.3 1.269e+04 7.940e-09
 38.14639      6.6 1.261e+04 1.727e-08
 38.16601      7.3 1.354e+04 2.662e-08
 38.18564      7.8 1.391e+04 2.958e-08
 38.20526      8.3 1.392e+04 2.619e-08
 38.22488      8.7 1.384e+04 2.034e-08
 38.24450      8.9 1.351e+04 1.442e-08
 38.26413      9.1 1.322e+04 9.820e-09
 38.28375      9.4 1.248e+04 7.125e-09
 38.30337      9.8 1.258e+04 4.993e-09
 38.31441     10.3 1.237e+04 5.092e-09
 38.32422     10.3 1.224e+04 4.694e-09
 38.34262     11.2 1.241e+04 4.142e-09
 38.35836     11.7 1.254e+04 4.224e-09
 38.36817     12.9 1.264e+04 4.984e-09
 38.38186     13.3 1.269e+04 5.079e-09
 38.40148     13.6 1.275e+04 5.412e-09
 38.42111     13.9 1.272e+04 6.213e-09
 38.44073     14.5 1.270e+04 6.819e-09
 38.46035     14.9 1.284e+04 6.794e-09
 38.47997     15.4 1.274e+04 6.474e-09
 38.49960     16.2 1.267e+04 5.385e-09
 38.51922     16.7 1.257e+04 4.600e-09
 38.53884     17.4 1.250e+04 3.588e-09
 38.54886     17.7 1.244e+04 3.134e-09
 38.55867     17.5 1.253e+04 3.100e-09
 38.57809     18.2 1.235e+04 2.595e-09
 38.59771     18.6 1.231e+04 2.336e-09
 38.62724     20.6 1.215e+04 2.065e-09
 38.66659     22.4 1.204e+04 1.646e-09
 38.70583     24.3 1.200e+04 1.537e-09
 38.74508     26.0 1.206e+04 1.802e-09
 38.76849     26.0 1.198e+04 2.707e-09
 38.77738     26.5 1.205e+04 2.621e-09
 38.78331     26.3 1.212e+04 3.264e-09
 38.79394     27.1 1.206e+04 4.393e-09
 38.81356     28.0 1.200e+04 6.146e-09
 38.83318     29.0 1.208e+04 7.740e-09
 38.85280     30.0 1.203e+04 8.446e-09
 38.87243     30.2 1.210e+04 8.605e-09
 38.90196     30.4 1.180e+04 7.354e-09
 38.94130     30.9 1.164e+04 6.724e-09
 38.98055     31.2 1.154e+04 6.581e-09
 39.01979     31.6 1.145e+04 6.440e-09
 39.05904     32.1 1.121e+04 5.885e-09
 39.09828     32.5 1.099e+04 4.479e-09
 39.13753     32.0 1.094e+04 3.581e-09
 39.16880     30.7 1.104e+04 3.754e-09
 39.18843     31.0 1.088e+04 3.665e-09
 39.21602     29.5 1.085e+04 3.483e-09
 39.24258     28.5 1.067e+04 2.968e-09
 39.26221     27.3 1.060e+04 2.312e-09
 39.29451     26.6 1.048e+04 1.937e-09
 39.33375     26.6 1.038e+04 1.608e-09
 39.37300     27.1 1.033e+04 1.273e-09
 39.41225     27.9 1.035e+04 1.120e-09
 39.45149     28.3 1.039e+04 1.206e-09
 39.49074     28.7 1.056e+04 1.682e-09
 39.52998     29.5 1.071e+04 2.130e-09
 39.56923     30.6 1.073e+04 2.040e-09
 39.60847     31.5 1.079e+04 1.727e-09
 39.64772     32.5 1.078e+04 1.690e-09
 39.68696     33.6 1.083e+04 1.813e-09
 39.71148     35.1 1.091e+04 1.910e-09
 39.73110     34.0 1.079e+04 2.179e-09
 39.76545     35.8 1.078e+04 2.031e-09
 39.80470     38.0 1.093e+04 1.935e-09
 39.84394     39.5 1.112e+04 2.057e-09
 39.87328     40.2 1.132e+04 2.289e-09
 39.89280     40.8 1.156e+04 2.810e-09
 39.91243     40.7 1.187e+04 3.543e-09
 39.93205     38.8 1.287e+04 6.629e-09
 39.94573     36.3 1.374e+04 1.794e-08
 39.95554     34.6 1.425e+04 3.424e-08
 39.97130     33.9 1.424e+04 3.784e-08
 39.98867     31.8 1.500e+04 3.277e-08
 39.99848     30.4 1.471e+04 3.130e-08
 40.01054     20.6 1.731e+04 6.029e-08
 40.03016     14.8 1.630e+04 9.954e-08
 40.04979     12.8 1.571e+04 6.026e-08
 40.06941      6.3 1.553e+04 2.745e-08
 40.08903      0.7 1.320e+04 1.827e-08
 40.10865     -0.8 1.265e+04 1.471e-08
 40.12828     -1.3 1.261e+04 1.227e-08
 40.14790     -1.6 1.240e+04 1.054e-08
 40.16752     -1.4 1.216e+04 9.747e-09
 40.18027     -0.2 1.247e+04 9.984e-09
 40.19999     -0.3 1.206e+04 7.619e-09
 40.23640     -0.0 1.235e+04 1.022e-08
 40.26573     -0.0 1.287e+04 1.802e-08
 40.28526      0.8 1.317e+04 2.005e-08
 40.30488      1.1 1.325e+04 1.963e-08
 40.32450      1.0 1.321e+04 1.656e-08
 40.35403      0.5 1.300e+04 1.431e-08
 40.39338      0.3 1.290e+04 1.322e-08
 40.43262      0.5 1.273e+04 1.135e-08
 40.47187      1.4 1.242e+04 8.267e-09
 40.51111      2.4 1.219e+04 5.488e-09
 40.55036      3.3 1.207e+04 3.756e-09
 40.58960      4.0 1.210e+04 3.186e-09
 40.62885      5.0 1.196e+04 3.551e-09
 40.64926      6.3 1.182e+04 4.269e-09
 40.66889      6.4 1.173e+04 3.523e-09
 40.70734      8.1 1.173e+04 3.125e-09
 40.74658      9.4 1.177e+04 2.261e-09
 40.78583     10.2 1.156e+04 1.944e-09
 40.80893     11.8 1.131e+04 1.790e-09
 40.82855     11.9 1.114e+04 1.767e-09
 40.86432     14.0 1.113e+04 1.663e-09
 40.90357     16.0 1.110e+04 1.617e-09
 40.94281     18.2 1.105e+04 1.580e-09
 40.98206     20.3 1.108e+04 1.524e-09
 41.02130     22.5 1.114e+04 1.539e-09
 41.06055     24.4 1.118e+04 1.668e-09
 41.09854     26.2 1.120e+04 2.032e-09
 41.11816     26.6 1.137e+04 1.751e-09
 41.13904     28.5 1.156e+04 2.489e-09
 41.16837     29.4 1.174e+04 3.019e-09
 41.18790     29.8 1.185e+04 3.220e-09
 41.20752     30.2 1.202e+04 3.695e-09
 41.21876     30.6 1.211e+04 4.126e-09
 41.22858     30.4 1.208e+04 4.343e-09
 41.24677     30.7 1.221e+04 4.950e-09
 41.26639     31.2 1.235e+04 5.484e-09
 41.29592     31.7 1.245e+04 5.564e-09
 41.33526     31.9 1.255e+04 5.866e-09
 41.37451     32.1 1.254e+04 5.726e-09
 41.41375     32.3 1.247e+04 5.377e-09
 41.45300     32.8 1.223e+04 4.527e-09
 41.49225     33.9 1.197e+04 3.190e-09
 41.53149     35.0 1.184e+04 2.088e-09
 41.56743     36.0 1.177e+04 1.681e-09
 41.58705     36.5 1.186e+04 1.641e-09
 41.60937     37.7 1.186e+04 1.683e-09
 41.62899     37.5 1.189e+04 1.885e-09
 41.64923     38.7 1.197e+04 1.931e-09
 41.68847     39.6 1.210e+04 1.980e-09
 41.72772     40.2 1.229e+04 2.062e-09
 41.76696     40.6 1.246e+04 2.179e-09
 41.80621     41.1 1.244e+04 2.180e-09
 41.84545     41.9 1.226e+04 2.081e-09
 41.88470     43.2 1.209e+04 1.826e-09
 41.92394     44.6 1.198e+04 1.541e-09
 41.96319     46.0 1.192e+04 1.349e-09
 42.00243     47.6 1.186e+04 1.293e-09
 42.03632     49.2 1.185e+04 1.358e-09
 42.05595     49.6 1.203e+04 1.414e-09
 42.08092     51.3 1.202e+04 1.653e-09
 42.12017     52.9 1.213e+04 2.120e-09
 42.15941     54.4 1.230e+04 2.805e-09
 42.19866     55.8 1.251e+04 3.612e-09
 42.23791     57.1 1.274e+04 4.020e-09
 42.27715     58.3 1.278e+04 4.010e-09
 42.31640     59.7 1.288e+04 3.680e-09
 42.35564     61.1 1.295e+04 3.098e-09
 42.39489     62.7 1.305e+04 2.634e-09
 42.42943     64.7 1.314e+04 2.622e-09
 42.44905     65.3 1.306e+04 2.241e-09
 42.47338     67.4 1.332e+04 2.418e-09
 42.50522     68.8 1.358e+04 2.928e-09
 42.52474     69.9 1.366e+04 4.015e-09
 42.54186     70.6 1.370e+04 5.288e-09
 42.56148     71.4 1.383e+04 7.134e-09
 42.58111     72.0 1.404e+04 9.396e-09
 42.60073     72.4 1.426e+04 1.181e-08
 42.62035     72.8 1.451e+04 1.395e-08
 42.63997     73.0 1.479e+04 1.557e-08
 42.65960     73.1 1.503e+04 1.664e-08
 42.67922     73.1 1.535e+04 1.726e-08
 42.69884     72.9 1.543e+04 1.728e-08
 42.71846     72.5 1.551e+04 1.631e-08
 42.74800     72.4 1.548e+04 1.184e-08
 42.78734     72.1 1.553e+04 5.441e-09
 42.82658     71.7 1.570e+04 2.556e-09
 42.86583     71.7 1.562e+04 2.135e-09
 42.90508     72.3 1.543e+04 2.339e-09
 42.94432     73.1 1.522e+04 2.746e-09
 42.97411     73.9 1.534e+04 2.944e-09
 42.99373     74.2 1.548e+04 2.203e-09
 43.02281     75.3 1.543e+04 2.133e-09
 43.06206     76.7 1.539e+04 2.017e-09
 43.10130     78.1 1.537e+04 1.906e-09
 43.14055     79.6 1.544e+04 1.785e-09
 43.17979     80.8 1.558e+04 1.590e-09
 43.21904     81.8 1.563e+04 1.429e-09
 43.24949     83.0 1.562e+04 1.441e-09
 43.26911     83.1 1.548e+04 1.348e-09
 43.29753     83.4 1.554e+04 1.455e-09
 43.33677     82.8 1.536e+04 2.516e-09
 43.37602     81.8 1.487e+04 7.018e-09
 43.40535     80.5 1.475e+04 1.402e-08
 43.42488     79.5 1.472e+04 1.943e-08
 43.44281     78.3 1.471e+04 2.049e-08
 43.45262     79.3 1.472e+04 2.001e-08
 43.46413     77.9 1.458e+04 1.908e-08
 43.49366     77.3 1.440e+04 1.280e-08
 43.53300     75.6 1.395e+04 7.377e-09
 43.56234     74.1 1.370e+04 4.987e-09
 43.58186     73.1 1.337e+04 4.009e-09
 43.60148     72.4 1.296e+04 3.883e-09
 43.62111     72.1 1.293e+04 3.867e-09
 43.64073     71.7 1.286e+04 4.023e-09
 43.65933     71.4 1.272e+04 4.191e-09
 43.66914     72.0 1.276e+04 4.209e-09
 43.68988     71.8 1.264e+04 5.012e-09
 43.72923     71.3 1.252e+04 6.796e-09
 43.76847     70.6 1.235e+04 8.133e-09
 43.80772     69.7 1.218e+04 7.476e-09
 43.84696     69.6 1.176e+04 5.126e-09
 43.88621     69.8 1.150e+04 2.574e-09
 43.91190     69.7 1.161e+04 1.111e-09
 43.93152     70.1 1.161e+04 1.316e-09
 43.96470     69.8 1.139e+04 8.716e-10
 44.00394     70.3 1.126e+04 8.669e-10
 44.04319     71.0 1.117e+04 9.911e-10
 44.06955     71.6 1.108e+04 1.488e-09
 44.08918     72.2 1.118e+04 1.314e-09
 44.12168     72.8 1.112e+04 2.124e-09
 44.16092     73.1 1.106e+04 2.672e-09
 44.20017     73.3 1.100e+04 2.588e-09
 44.23941     73.5 1.082e+04 2.101e-09
 44.27866     73.9 1.065e+04 1.457e-09
 44.31791     74.4 1.052e+04 1.027e-09
 44.35715     75.1 1.046e+04 8.239e-10
 44.38079     76.0 1.046e+04 7.156e-10
 44.40041     76.0 1.047e+04 7.795e-10
 44.43564     77.0 1.043e+04 8.659e-10
 44.47489     78.0 1.037e+04 1.008e-09
 44.51413     79.0 1.034e+04 1.233e-09
 44.55338     79.7 1.039e+04 1.681e-09
 44.59262     80.1 1.050e+04 2.478e-09
 44.63187     80.4 1.065e+04 3.553e-09
 44.67111     80.6 1.094e+04 4.472e-09
 44.70045     80.5 1.134e+04 5.359e-09
 44.71997     79.6 1.164e+04 6.496e-09
 44.73960     78.6 1.176e+04 7.518e-09
 44.75922     77.7 1.188e+04 8.266e-09
 44.77884     76.2 1.206e+04 9.427e-09
 44.79846     74.0 1.242e+04 1.340e-08
 44.81809     72.0 1.304e+04 2.364e-08
 44.83771     70.7 1.350e+04 3.437e-08
 44.84949     69.7 1.350e+04 3.382e-08
 44.85930     69.0 1.313e+04 2.392e-08
 44.87696     67.6 1.289e+04 1.922e-08
 44.88942     65.3 1.224e+04 1.095e-08
 44.89923     67.3 1.277e+04 1.466e-08
 44.91620     64.6 1.175e+04 8.297e-09
 44.94573     63.6 1.133e+04 7.233e-09
 44.98508     61.5 1.144e+04 8.244e-09
 45.02432     59.7 1.183e+04 1.115e-08
 45.06357     58.1 1.239e+04 1.485e-08
 45.08404     56.1 1.210e+04 1.326e-08
 45.09375     56.5 1.232e+04 1.503e-08
 45.11243     55.7 1.186e+04 1.150e-08
 45.13205     55.0 1.121e+04 7.093e-09
 45.15167     53.9 1.074e+04 4.068e-09
 45.17129     52.1 1.047e+04 2.154e-09
 45.19092     51.3 1.029e+04 1.846e-09
 45.22045     52.1 9.920e+03 1.504e-09
 45.25979     52.5 9.715e+03 1.508e-09
 45.29896     53.2 9.717e+03 1.727e-09
 45.33820     53.8 9.887e+03 2.369e-09
 45.37753     54.7 9.886e+03 2.697e-09
 45.41677     55.6 9.849e+03 2.546e-09
 45.45602     56.6 9.713e+03 2.002e-09
 45.49526     57.5 9.595e+03 1.377e-09
 45.53451     58.3 9.452e+03 1.055e-09
 45.57375     59.5 9.410e+03 1.058e-09
 45.61300     61.0 9.506e+03 1.251e-09
 45.65224     62.4 9.985e+03 1.891e-09
 45.68158     62.5 1.040e+04 2.710e-09
 45.69967     62.2 1.071e+04 4.350e-09
 45.70948     62.7 1.071e+04 4.350e-09
 45.72073     62.7 1.094e+04 7.380e-09
 45.74035     63.1 1.126e+04 1.138e-08
 45.75997     63.4 1.166e+04 1.499e-08
 45.77747     63.4 1.194e+04 1.538e-08
 45.78728     62.9 1.205e+04 1.537e-08
 45.79922     62.2 1.234e+04 1.470e-08
 45.81884     60.3 1.281e+04 1.515e-08
 45.83846     56.5 1.378e+04 1.898e-08
 45.85809     52.7 1.424e+04 3.312e-08
 45.87771     50.3 1.448e+04 4.775e-08
 45.89733     48.3 1.441e+04 4.576e-08
 45.91696     46.8 1.394e+04 3.080e-08
 45.93658     44.2 1.313e+04 1.585e-08
 45.95620     41.4 1.191e+04 6.997e-09
 45.97582     39.0 1.119e+04 4.892e-09
 46.00535     39.3 1.067e+04 2.924e-09
 46.04470     39.2 1.033e+04 1.670e-09
 46.08394     39.4 1.019e+04 1.222e-09
 46.12319     40.1 9.974e+03 1.172e-09
 46.16243     41.0 9.910e+03 1.134e-09
 46.20168     41.9 9.878e+03 1.074e-09
 46.23674     42.7 9.887e+03 1.016e-09
 46.25637     42.8 9.844e+03 1.016e-09
 46.28017     43.6 9.845e+03 1.003e-09
 46.31941     44.2 9.962e+03 1.039e-09
 46.35866     44.5 1.016e+04 1.219e-09
 46.39791     44.9 1.029e+04 1.443e-09
 46.43715     45.2 1.039e+04 1.507e-09
 46.47640     45.6 1.044e+04 1.424e-09
 46.51012     46.0 1.047e+04 1.293e-09
 46.52974     47.0 1.034e+04 1.490e-09
 46.55489     47.6 1.038e+04 1.471e-09
 46.59413     48.1 1.049e+04 1.553e-09
 46.63338     48.3 1.062e+04 1.887e-09
 46.67262     48.7 1.084e+04 2.401e-09
 46.70564     48.8 1.122e+04 2.889e-09
 46.72526     49.5 1.140e+04 3.094e-09
 46.74120     49.0 1.160e+04 3.087e-09
 46.76073     48.7 1.166e+04 3.190e-09
 46.78035     48.2 1.176e+04 3.654e-09
 46.79997     48.0 1.187e+04 4.166e-09
 46.81960     47.8 1.201e+04 4.608e-09
 46.83922     47.5 1.221e+04 5.085e-09
 46.85884     46.9 1.249e+04 5.812e-09
 46.87846     46.3 1.271e+04 6.638e-09
 46.89809     45.8 1.285e+04 7.230e-09
 46.91771     45.2 1.285e+04 7.529e-09
 46.92976     44.7 1.285e+04 7.824e-09
 46.93957     44.4 1.280e+04 7.418e-09
 46.94970     43.7 1.285e+04 7.842e-09
 46.95951     43.9 1.300e+04 8.705e-09
 46.97658     42.2 1.337e+04 1.066e-08
 46.99620     38.5 1.443e+04 2.121e-08
 47.01582     35.2 1.557e+04 4.743e-08
 47.03545     32.4 1.553e+04 4.933e-08
 47.05507     31.2 1.478e+04 2.892e-08
 47.07469     27.5 1.435e+04 1.358e-08
 47.09431     23.6 1.382e+04 7.602e-09
 47.11394     21.9 1.320e+04 6.511e-09
 47.13356     20.5 1.366e+04 7.014e-09
 47.15318     16.9 1.465e+04 1.101e-08
 47.17280     15.7 1.386e+04 2.249e-08
 47.18415     15.7 1.389e+04 2.543e-08
 47.19396     15.2 1.383e+04 2.193e-08
 47.21205     15.0 1.471e+04 1.064e-08
 47.23167     12.1 1.449e+04 6.690e-09
 47.25129     10.6 1.377e+04 5.852e-09
 47.27092      9.9 1.413e+04 5.075e-09
 47.29054      8.7 1.399e+04 5.460e-09
 47.31016      7.6 1.361e+04 6.633e-09
 47.32979      6.8 1.346e+04 8.236e-09
 47.33979      5.9 1.367e+04 9.062e-09
 47.34961      6.3 1.360e+04 8.930e-09
 47.36903      5.3 1.381e+04 9.795e-09
 47.38865      4.4 1.387e+04 9.572e-09
 47.40828      3.2 1.427e+04 7.345e-09
 47.41860      0.6 1.403e+04 6.215e-09
 47.42841      0.2 1.414e+04 5.903e-09
 47.44752     -1.1 1.376e+04 6.465e-09
 47.46714     -2.4 1.356e+04 6.520e-09
 47.48677     -3.8 1.310e+04 5.386e-09
 47.50639     -4.1 1.324e+04 4.782e-09
 47.52601     -4.9 1.330e+04 3.384e-09
 47.54563     -5.5 1.321e+04 2.582e-09
 47.56526     -6.7 1.289e+04 2.026e-09
 47.58488     -7.1 1.275e+04 1.935e-09
 47.60450     -7.1 1.276e+04 1.985e-09
 47.62412     -7.2 1.282e+04 2.158e-09
 47.64323     -7.4 1.301e+04 2.454e-09
 47.66295     -6.3 1.297e+04 2.099e-09
 47.68309     -5.7 1.305e+04 2.739e-09
 47.70262     -5.9 1.302e+04 2.870e-09
 47.72224     -5.5 1.292e+04 3.400e-09
 47.74001     -5.5 1.274e+04 3.561e-09
 47.74982     -5.5 1.274e+04 3.837e-09
 47.76148     -4.6 1.290e+04 4.378e-09
 47.78111     -4.4 1.273e+04 4.182e-09
 47.80073     -4.3 1.255e+04 3.565e-09
 47.82035     -4.1 1.260e+04 3.113e-09
 47.84988     -3.9 1.252e+04 2.430e-09
 47.88923     -3.4 1.200e+04 2.098e-09
 47.92847     -2.9 1.143e+04 2.059e-09
 47.96772     -2.4 1.119e+04 2.052e-09
 48.00696     -2.2 1.105e+04 1.993e-09
 48.04621     -2.2 1.091e+04 1.910e-09
 48.08545     -2.6 1.076e+04 1.834e-09
 48.11232     -2.6 1.072e+04 2.293e-09
 48.12203     -2.1 1.062e+04 2.549e-09
 48.13431     -3.2 1.064e+04 2.853e-09
 48.15004     -3.7 1.056e+04 3.626e-09
 48.15986     -3.8 1.061e+04 3.811e-09
 48.17356     -4.3 1.040e+04 4.546e-09
 48.19318     -4.1 1.053e+04 5.108e-09
 48.21280     -5.0 1.032e+04 4.961e-09
 48.23243     -5.4 1.017e+04 4.361e-09
 48.25205     -6.3 9.972e+03 3.697e-09
 48.27167     -7.1 9.749e+03 3.360e-09
 48.29129     -8.0 9.665e+03 3.283e-09
 48.31092     -9.0 9.796e+03 3.447e-09
 48.33054    -10.5 1.007e+04 4.269e-09
 48.34657    -11.9 1.027e+04 5.751e-09
 48.35638    -12.6 1.024e+04 6.419e-09
 48.36979    -13.0 1.048e+04 7.951e-09
 48.38941    -13.4 1.062e+04 8.346e-09
 48.40903    -14.0 1.060e+04 7.165e-09
 48.42865    -15.1 1.029e+04 4.751e-09
 48.44828    -17.1 9.748e+03 3.009e-09
 48.47781    -19.0 9.224e+03 2.332e-09
 48.51715    -19.1 9.300e+03 2.179e-09
 48.55640    -19.4 9.476e+03 2.270e-09
 48.58121    -19.6 9.772e+03 2.788e-09
 48.60084    -20.6 9.848e+03 3.099e-09
 48.62498    -21.2 9.967e+03 3.739e-09
 48.64450    -21.4 1.004e+04 4.052e-09
 48.66412    -21.9 1.005e+04 4.560e-09
 48.68375    -22.1 1.010e+04 4.813e-09
 48.70337    -22.2 1.019e+04 5.108e-09
 48.72299    -22.2 1.032e+04 5.440e-09
 48.74262    -22.3 1.041e+04 5.616e-09
 48.76224    -22.6 1.046e+04 5.581e-09
 48.78186    -23.0 1.053e+04 5.296e-09
 48.80148    -23.7 1.057e+04 4.916e-09
 48.81547    -24.7 1.062e+04 4.771e-09
 48.82528    -24.9 1.051e+04 4.370e-09
 48.84073    -25.8 1.058e+04 4.718e-09
 48.86035    -26.6 1.061e+04 5.134e-09
 48.87997    -27.2 1.066e+04 5.285e-09
 48.90951    -27.4 1.068e+04 5.265e-09
 48.94885    -27.7 1.066e+04 4.410e-09
 48.97030    -27.9 1.062e+04 3.001e-09
 48.98992    -28.0 1.053e+04 2.983e-09
 49.02734    -28.2 1.044e+04 2.336e-09
 49.05011    -28.1 1.040e+04 2.287e-09
 49.06973    -27.9 1.058e+04 3.201e-09
 49.10583    -27.5 1.071e+04 3.801e-09
 49.13517    -27.1 1.077e+04 4.191e-09
 49.15469    -27.2 1.058e+04 4.153e-09
 49.17431    -26.6 1.051e+04 3.939e-09
 49.19394    -26.4 1.045e+04 3.857e-09
 49.22347    -25.5 1.034e+04 3.612e-09
 49.26281    -24.3 1.004e+04 2.923e-09
 49.30206    -23.0 9.662e+03 2.176e-09
 49.34130    -21.5 9.466e+03 1.605e-09
 49.38055    -20.3 9.357e+03 1.298e-09
 49.41979    -19.0 9.259e+03 1.181e-09
 49.45904    -17.7 9.221e+03 1.159e-09
 49.49828    -16.4 9.243e+03 1.183e-09
 49.51900    -15.4 9.328e+03 1.369e-09
 49.53862    -15.5 9.272e+03 1.191e-09
 49.57677    -14.5 9.352e+03 1.440e-09
 49.61602    -13.8 9.502e+03 1.944e-09
 49.65526    -13.0 9.791e+03 2.625e-09
 49.69451    -12.5 1.026e+04 3.243e-09
 49.73375    -12.7 1.065e+04 3.699e-09
 49.76309    -13.0 1.080e+04 3.779e-09
 49.78036    -13.6 1.093e+04 4.161e-09
 49.79017    -13.7 1.077e+04 3.773e-09
 49.80224    -13.9 1.083e+04 4.151e-09
 49.82186    -14.0 1.085e+04 4.499e-09
 49.84148    -13.8 1.103e+04 5.024e-09
 49.86111    -14.0 1.123e+04 5.480e-09
 49.88073    -13.7 1.155e+04 6.283e-09
 49.90035    -13.9 1.164e+04 6.606e-09
 49.91997    -13.8 1.181e+04 7.254e-09
 49.93960    -13.7 1.186e+04 7.548e-09
 49.95922    -13.4 1.212e+04 8.080e-09
 49.97789    -14.0 1.263e+04 9.197e-09
 49.98770    -13.4 1.249e+04 9.596e-09
 49.99846    -14.2 1.331e+04 1.522e-08
 50.01809    -16.5 1.409e+04 3.233e-08
 50.03771    -17.1 1.520e+04 7.701e-08
 50.05238    -16.8 1.641e+04 1.448e-07
 50.06214    -18.0 1.683e+04 1.830e-07
 50.07195    -18.1 1.737e+04 2.451e-07
 50.08176    -19.4 1.744e+04 2.552e-07
 50.09157    -20.4 1.751e+04 2.299e-07
 50.09992    -21.5 1.742e+04 1.769e-07
 50.10483    -21.0 1.771e+04 1.878e-07
 50.11615    -22.4 1.716e+04 1.227e-07
 50.13582    -25.3 1.633e+04 6.747e-08
 50.15545    -27.0 1.557e+04 5.162e-08
 50.17507    -27.6 1.497e+04 4.036e-08
 50.19039    -27.9 1.435e+04 2.782e-08
 50.20020    -29.5 1.409e+04 2.258e-08
 50.21234    -29.4 1.355e+04 1.527e-08
 50.22215    -29.0 1.363e+04 1.307e-08
 50.23394    -28.8 1.329e+04 1.141e-08
 50.25356    -28.1 1.309e+04 1.067e-08
 50.27318    -27.2 1.309e+04 1.010e-08
 50.29280    -26.6 1.320e+04 9.531e-09
 50.31243    -26.2 1.326e+04 8.944e-09
 50.33205    -26.1 1.321e+04 8.334e-09
 50.36158    -25.3 1.316e+04 7.374e-09
 50.39101    -24.5 1.336e+04 7.203e-09
 50.41054    -24.5 1.336e+04 6.865e-09
 50.43707    -23.7 1.338e+04 5.601e-09
 50.45679    -23.0 1.378e+04 7.219e-09
 50.47941    -22.3 1.377e+04 5.724e-09
 50.51866    -21.4 1.368e+04 4.840e-09
 50.55790    -20.2 1.363e+04 4.473e-09
 50.59080    -19.1 1.358e+04 4.227e-09
 50.61043    -20.7 1.355e+04 4.171e-09
 50.63640    -19.5 1.347e+04 3.913e-09
 50.67564    -18.2 1.347e+04 3.824e-09
 50.71489    -17.0 1.354e+04 3.937e-09
 50.75413    -16.0 1.357e+04 3.837e-09
 50.79338    -14.9 1.342e+04 3.132e-09
 50.83262    -13.8 1.343e+04 2.196e-09
 50.87187    -12.6 1.343e+04 1.631e-09
 50.90606    -11.1 1.338e+04 1.425e-09
 50.92568     -9.8 1.339e+04 1.333e-09
 50.95036     -8.3 1.332e+04 1.210e-09
 50.98960     -6.6 1.319e+04 1.226e-09
 51.02885     -4.8 1.299e+04 1.466e-09
 51.06809     -2.9 1.292e+04 1.762e-09
 51.10734     -0.9 1.284e+04 2.033e-09
 51.14658      1.1 1.285e+04 2.121e-09
 51.18583      2.9 1.289e+04 2.163e-09
 51.22507      4.4 1.305e+04 2.311e-09
 51.26432      5.2 1.316e+04 3.324e-09
 51.30357      5.8 1.336e+04 5.780e-09
 51.34281      6.4 1.347e+04 1.007e-08
 51.37495      7.1 1.339e+04 1.270e-08
 51.39448      6.6 1.353e+04 1.351e-08
 51.41077      7.5 1.367e+04 8.866e-09
 51.43049      5.0 1.376e+04 8.755e-09
 51.46055      4.8 1.352e+04 5.177e-09
 51.49979      4.9 1.346e+04 4.212e-09
 51.53904      5.1 1.352e+04 5.418e-09
 51.57828      5.8 1.361e+04 9.090e-09
 51.61753      6.5 1.383e+04 1.144e-08
 51.65677      6.7 1.396e+04 1.259e-08
 51.69602      6.7 1.377e+04 1.228e-08
 51.73526      7.3 1.351e+04 8.515e-09
 51.77451      8.0 1.338e+04 4.737e-09
 51.81375      8.5 1.288e+04 3.365e-09
 51.84385      9.5 1.242e+04 3.016e-09
 51.86347      8.8 1.229e+04 2.696e-09
 51.89224     10.0 1.222e+04 2.246e-09
 51.93149     10.7 1.237e+04 1.918e-09
 51.97073     10.9 1.165e+04 1.992e-09
 52.00998     11.1 1.146e+04 1.881e-09
 52.04923     11.1 1.160e+04 1.586e-09
 52.08847     10.7 1.157e+04 1.545e-09
 52.12772     10.7 1.145e+04 1.577e-09
 52.16696     10.9 1.142e+04 1.299e-09
 52.20621     10.8 1.143e+04 1.126e-09
 52.23093     11.1 1.130e+04 1.216e-09
 52.25055     10.6 1.127e+04 1.233e-09
 52.28470     11.4 1.132e+04 1.392e-09
 52.31274     12.1 1.133e+04 1.678e-09
 52.33236     12.8 1.141e+04 1.495e-09
 52.36319     13.5 1.150e+04 1.709e-09
 52.40243     14.2 1.154e+04 2.005e-09
 52.44168     14.9 1.160e+04 2.270e-09
 52.48092     15.5 1.165e+04 2.232e-09
 52.52017     16.2 1.167e+04 1.877e-09
 52.55941     16.3 1.173e+04 1.521e-09
 52.59866     16.4 1.179e+04 1.568e-09
 52.63790     15.8 1.198e+04 2.184e-09
 52.67715     15.7 1.186e+04 3.659e-09
 52.71640     15.4 1.184e+04 3.977e-09
 52.75564     15.5 1.174e+04 3.006e-09
 52.78164     14.8 1.186e+04 2.265e-09
 52.80126     16.4 1.182e+04 3.214e-09
 52.83413     15.4 1.215e+04 3.356e-09
 52.87338     12.7 1.242e+04 6.565e-09
 52.91262     11.4 1.236e+04 1.214e-08
 52.95187     10.1 1.229e+04 1.014e-08
 52.99111      8.1 1.193e+04 5.840e-09
 53.03036      5.8 1.147e+04 4.745e-09
 53.05099      5.0 1.122e+04 5.316e-09
 53.07061      6.2 1.157e+04 5.774e-09
 53.09894      5.8 1.139e+04 6.869e-09
 53.11846      6.1 1.121e+04 6.446e-09
 53.13809      6.5 1.118e+04 4.250e-09
 53.15771      6.7 1.055e+04 3.457e-09
 53.18724      7.1 1.082e+04 1.686e-09
 53.22658      7.7 1.052e+04 1.021e-09
 53.25053      8.7 1.052e+04 8.208e-10
 53.27015      9.5 1.063e+04 1.227e-09
 53.30507     10.9 1.055e+04 1.142e-09
 53.34432     12.5 1.055e+04 1.277e-09
 53.38356     13.9 1.071e+04 1.577e-09
 53.42281     14.9 1.097e+04 2.421e-09
 53.45111     12.0 1.228e+04 3.482e-09
 53.46082     12.5 1.225e+04 2.991e-09
 53.47167      4.3 1.364e+04 8.637e-09
 53.48478     -1.8 1.563e+04 3.699e-08
 53.49459     -1.9 1.643e+04 2.985e-08
 53.51092     -5.1 1.667e+04 1.620e-07
 53.52558     -6.2 1.827e+04 1.963e-07
 53.53535    -13.9 2.347e+04 1.646e-07
 53.54516    -32.4 2.152e+04 5.425e-08
 53.55497    -43.4 1.447e+04 3.990e-08
 53.56478    -45.2 1.394e+04 4.011e-08
 53.57459    -46.5 1.393e+04 3.813e-08
 53.58936    -48.9 1.339e+04 2.646e-08
 53.60903    -55.1 1.158e+04 1.100e-08
 53.62865    -59.8 1.010e+04 6.986e-09
 53.64828    -61.5 9.876e+03 6.625e-09
 53.66790    -62.4 1.000e+04 7.570e-09
 53.68752    -63.3 1.034e+04 9.427e-09
 53.70714    -64.2 1.066e+04 1.169e-08
 53.71923    -65.0 1.098e+04 1.422e-08
 53.72904    -65.2 1.033e+04 9.695e-09
 53.74639    -66.0 1.057e+04 1.152e-08
 53.76601    -66.9 1.073e+04 1.285e-08
 53.78563    -67.8 1.082e+04 1.354e-08
 53.80526    -68.9 1.087e+04 1.383e-08
 53.82488    -70.1 1.093e+04 1.395e-08
 53.84450    -71.6 1.103e+04 1.419e-08
 53.86104    -73.2 1.114e+04 1.440e-08
 53.87085    -73.2 1.096e+04 1.323e-08
 53.88375    -75.0 1.105e+04 1.350e-08
 53.90337    -76.7 1.114e+04 1.370e-08
 53.92299    -78.4 1.121e+04 1.383e-08
 53.94261    -80.1 1.123e+04 1.391e-08
 53.95367    -81.6 1.119e+04 1.352e-08
 53.96349    -82.1 1.114e+04 1.318e-08
 53.98186    -83.4 1.085e+04 1.081e-08
 54.00148    -84.5 1.050e+04 8.319e-09
 54.02111    -85.5 1.017e+04 6.321e-09
 54.04073    -86.3 9.946e+03 4.895e-09
 54.06035    -87.0 9.841e+03 3.895e-09
 54.07997    -87.6 9.827e+03 3.167e-09
 54.09960    -88.2 9.807e+03 2.697e-09
 54.12913    -88.5 9.738e+03 2.464e-09
 54.16847    -88.6 9.680e+03 2.326e-09
 54.18832    -88.3 9.753e+03 2.348e-09
 54.20794    -89.3 9.728e+03 2.467e-09
 54.24696    -88.6 9.961e+03 2.629e-09
 54.27117    -87.8 1.010e+04 2.727e-09
 54.28089    -88.1 1.016e+04 2.884e-09
 54.29582    -88.3 1.029e+04 3.084e-09
 54.31544    -88.4 1.047e+04 3.392e-09
 54.33507    -88.7 1.063e+04 3.732e-09
 54.35469    -89.1 1.086e+04 4.338e-09
 54.37431    -89.9 1.114e+04 5.371e-09
 54.39394    -90.8 1.148e+04 6.992e-09
 54.41276    -91.9 1.190e+04 9.118e-09
 54.42257    -92.7 1.224e+04 1.122e-08
 54.43318    -94.0 1.282e+04 1.491e-08
 54.45280    -95.5 1.319e+04 1.699e-08
 54.47243    -97.1 1.325e+04 1.733e-08
 54.49205    -98.3 1.312e+04 1.570e-08
 54.51167    -99.0 1.281e+04 1.170e-08
 54.53129    -99.4 1.242e+04 8.328e-09
 54.55092    -99.7 1.204e+04 6.167e-09
 54.57054    -99.8 1.170e+04 4.830e-09
 54.59016    -99.9 1.141e+04 3.976e-09
 54.60978    -99.7 1.117e+04 3.431e-09
 54.62941    -99.4 1.097e+04 3.088e-09
 54.64720    -98.8 1.079e+04 2.791e-09
 54.65701    -99.8 1.102e+04 3.795e-09
 54.66865    -99.3 1.084e+04 3.524e-09
 54.68111    -98.7 1.069e+04 3.298e-09
 54.69092    -99.0 1.065e+04 3.471e-09
 54.70790    -98.4 1.051e+04 3.219e-09
 54.72752    -97.9 1.046e+04 3.058e-09
 54.75705    -97.7 1.041e+04 2.993e-09
 54.79639    -96.9 1.021e+04 2.651e-09
 54.83564    -95.6 9.867e+03 2.216e-09
 54.87489    -94.1 9.603e+03 1.884e-09
 54.91413    -92.5 9.479e+03 1.689e-09
 54.95338    -90.9 9.446e+03 1.613e-09
 54.99262    -89.3 9.439e+03 1.595e-09
 55.03187    -87.8 9.445e+03 1.596e-09
 55.07111    -86.7 9.518e+03 1.631e-09
 55.10648    -86.3 9.808e+03 1.797e-09
 55.12610    -85.6 9.871e+03 2.072e-09
 55.14960    -85.2 1.026e+04 2.958e-09
 55.18885    -84.8 1.077e+04 4.957e-09
 55.22809    -84.5 1.128e+04 7.938e-09
 55.26734    -84.1 1.160e+04 1.097e-08
 55.30658    -83.7 1.166e+04 1.244e-08
 55.34583    -82.9 1.165e+04 1.269e-08
 55.38507    -81.6 1.138e+04 1.229e-08
 55.42432    -79.8 1.102e+04 1.039e-08
 55.46356    -77.8 1.068e+04 8.154e-09
 55.49155    -75.5 1.034e+04 6.167e-09
 55.51117    -75.6 1.034e+04 6.155e-09
 55.54206    -73.0 1.005e+04 4.571e-09
 55.57538    -70.2 9.880e+03 3.531e-09
 55.59500    -70.2 1.018e+04 4.608e-09
 55.62055    -67.3 1.011e+04 3.786e-09
 55.65979    -64.4 1.012e+04 3.304e-09
 55.69904    -61.5 1.017e+04 2.970e-09
 55.73828    -58.6 1.025e+04 2.674e-09
 55.77753    -55.6 1.034e+04 2.394e-09
 55.81677    -52.6 1.046e+04 2.171e-09
 55.85602    -49.6 1.061e+04 2.026e-09
 55.89526    -46.5 1.068e+04 1.980e-09
 55.93451    -43.6 1.084e+04 1.973e-09
 55.97375    -41.0 1.147e+04 2.136e-09
 56.01300    -38.6 1.161e+04 3.440e-09
 56.04427    -36.1 1.194e+04 6.027e-09
 56.06389    -35.4 1.199e+04 5.950e-09
 56.09149    -32.9 1.257e+04 9.928e-09
 56.13073    -31.2 1.314e+04 1.430e-08
 56.16007    -30.4 1.334e+04 1.491e-08
 56.17960    -29.9 1.350e+04 1.554e-08
 56.19922    -29.3 1.363e+04 1.558e-08
 56.21884    -29.0 1.367e+04 1.552e-08
 56.23846    -28.6 1.373e+04 1.518e-08
 56.25809    -28.4 1.384e+04 1.598e-08
 56.27771    -28.3 1.390e+04 1.718e-08
 56.28833    -28.1 1.395e+04 1.854e-08
 56.29814    -27.9 1.418e+04 2.026e-08
 56.31142    -27.7 1.419e+04 2.268e-08
 56.32123    -27.7 1.393e+04 2.067e-08
 56.33658    -27.5 1.386e+04 2.192e-08
 56.35620    -27.1 1.376e+04 2.198e-08
 56.37582    -26.5 1.346e+04 1.846e-08
 56.40535    -26.1 1.294e+04 1.121e-08
 56.44470    -24.7 1.248e+04 7.764e-09
 56.48394    -22.8 1.229e+04 6.605e-09
 56.51316    -21.0 1.231e+04 6.878e-09
 56.53279    -21.0 1.301e+04 1.420e-08
 56.55252    -19.6 1.300e+04 1.281e-08
 56.57205    -19.0 1.297e+04 1.295e-08
 56.59167    -17.9 1.301e+04 1.261e-08
 56.61129    -17.4 1.291e+04 1.195e-08
 56.63092    -16.1 1.292e+04 1.118e-08
 56.65054    -15.5 1.279e+04 1.030e-08
 56.67016    -14.2 1.273e+04 9.133e-09
 56.68978    -13.6 1.250e+04 8.439e-09
 56.70941    -12.1 1.249e+04 7.975e-09
 56.72145    -11.7 1.229e+04 7.756e-09
 56.73126    -11.7 1.241e+04 9.855e-09
 56.74741    -10.2 1.244e+04 1.023e-08
 56.75723    -10.4 1.294e+04 1.495e-08
 56.76827     -9.5 1.282e+04 1.462e-08
 56.78790     -8.6 1.292e+04 1.551e-08
 56.80752     -7.8 1.288e+04 1.622e-08
 56.82714     -6.9 1.284e+04 1.767e-08
 56.84677     -5.8 1.291e+04 1.891e-08
 56.86639     -4.9 1.295e+04 1.991e-08
 56.88601     -3.6 1.303e+04 1.996e-08
 56.90563     -2.7 1.305e+04 1.953e-08
 56.92526     -1.4 1.306e+04 1.777e-08
 56.94488     -0.8 1.309e+04 1.622e-08
 56.96450      0.0 1.305e+04 1.491e-08
 56.98186      0.6 1.307e+04 1.393e-08
 57.00158      0.4 1.261e+04 1.027e-08
 57.03338      2.3 1.245e+04 1.046e-08
 57.06271      3.5 1.266e+04 1.304e-08
 57.08224      4.6 1.278e+04 1.537e-08
 57.10186      5.8 1.292e+04 1.937e-08
 57.12148      6.8 1.323e+04 2.141e-08
 57.13148      7.7 1.335e+04 2.399e-08
 57.14129      8.1 1.332e+04 2.316e-08
 57.16073      9.2 1.342e+04 2.604e-08
 57.18035      9.9 1.367e+04 2.647e-08
 57.19997     10.3 1.372e+04 2.736e-08
 57.21631     10.9 1.359e+04 2.524e-08
 57.22612     11.7 1.384e+04 3.135e-08
 57.23922     12.4 1.349e+04 2.443e-08
 57.25884     12.9 1.317e+04 1.563e-08
 57.27846     13.0 1.270e+04 1.076e-08
 57.29809     12.6 1.280e+04 6.825e-09
 57.31771     11.7 1.281e+04 6.095e-09
 57.33733     11.1 1.273e+04 6.758e-09
 57.35695     11.0 1.273e+04 7.738e-09
 57.37658     10.8 1.305e+04 8.301e-09
 57.39620      9.6 1.390e+04 9.210e-09
 57.41582      8.1 1.378e+04 1.366e-08
 57.43544      7.8 1.387e+04 1.963e-08
 57.45011      7.5 1.406e+04 2.497e-08
 57.45556      7.4 1.417e+04 2.560e-08
 57.46047      7.6 1.416e+04 2.840e-08
 57.46969      6.7 1.445e+04 3.153e-08
 57.47950      4.5 1.563e+04 3.731e-08
 57.48931     -1.3 1.878e+04 6.320e-08
 57.49912     -8.0 2.026e+04 1.618e-07
 57.50893    -11.7 1.943e+04 4.590e-07
 57.51874    -13.2 1.885e+04 9.471e-07
 57.52855    -14.9 1.876e+04 1.171e-06
 57.53651    -17.2 1.878e+04 7.800e-07
 57.54141    -17.8 1.887e+04 8.097e-07
 57.54818    -19.7 1.900e+04 3.218e-07
 57.55799    -22.8 1.848e+04 1.498e-07
 57.56780    -26.7 1.733e+04 8.673e-08
 57.57279    -30.0 1.643e+04 6.296e-08
 57.57769    -29.4 1.665e+04 7.073e-08
 57.58742    -32.3 1.588e+04 5.230e-08
 57.59723    -33.0 1.583e+04 4.931e-08
 57.60704    -38.0 1.449e+04 3.931e-08
 57.61686    -39.3 1.430e+04 4.068e-08
 57.62667    -40.9 1.395e+04 4.306e-08
 57.63648    -41.4 1.409e+04 4.485e-08
 57.64629    -42.2 1.409e+04 4.548e-08
 57.65610    -42.6 1.388e+04 4.235e-08
 57.66591    -43.3 1.347e+04 3.600e-08
 57.67572    -43.5 1.336e+04 3.368e-08
 57.68515    -44.4 1.287e+04 2.485e-08
 57.69501    -45.6 1.263e+04 2.415e-08
 57.71016    -46.8 1.150e+04 1.468e-08
 57.72978    -47.3 1.089e+04 1.068e-08
 57.74941    -47.3 1.065e+04 8.837e-09
 57.76903    -46.8 1.042e+04 7.447e-09
 57.78865    -46.5 1.029e+04 6.308e-09
 57.80827    -46.3 1.029e+04 5.510e-09
 57.82790    -46.2 1.041e+04 5.048e-09
 57.84752    -46.1 1.045e+04 4.910e-09
 57.86714    -46.1 1.060e+04 4.965e-09
 57.88677    -46.1 1.068e+04 5.333e-09
 57.90639    -46.0 1.071e+04 5.759e-09
 57.91965    -45.9 1.071e+04 6.172e-09
 57.92946    -45.8 1.073e+04 6.886e-09
 57.94173    -45.7 1.073e+04 7.348e-09
 57.95154    -45.7 1.050e+04 6.076e-09
 57.96526    -45.5 1.047e+04 6.339e-09
 57.98488    -45.4 1.045e+04 6.443e-09
 58.00450    -45.2 1.035e+04 6.380e-09
 58.02412    -44.9 1.023e+04 5.916e-09
 58.04375    -44.6 1.014e+04 5.383e-09
 58.06337    -44.4 1.007e+04 4.978e-09
 58.08299    -44.2 1.001e+04 4.676e-09
 58.10261    -43.9 9.962e+03 4.418e-09
 58.12224    -43.5 9.908e+03 4.145e-09
 58.14186    -43.1 9.846e+03 3.894e-09
 58.15410    -42.5 9.762e+03 3.596e-09
 58.16391    -43.2 9.849e+03 4.235e-09
 58.18110    -42.7 9.707e+03 3.816e-09
 58.20073    -42.1 9.640e+03 3.409e-09
 58.22035    -41.4 9.592e+03 3.080e-09
 58.24988    -40.0 9.601e+03 2.988e-09
 58.28922    -38.8 9.570e+03 2.948e-09
 58.32847    -37.4 9.553e+03 2.939e-09
 58.36772    -36.0 9.527e+03 2.883e-09
 58.38874    -34.5 9.484e+03 2.655e-09
 58.40836    -35.4 9.486e+03 1.991e-09
 58.44621    -33.9 9.399e+03 1.718e-09
 58.48545    -32.3 9.262e+03 1.363e-09
 58.52470    -30.7 9.158e+03 1.058e-09
 58.56394    -29.3 9.124e+03 8.602e-10
 58.60319    -28.0 9.154e+03 7.816e-10
 58.64243    -26.8 9.264e+03 7.779e-10
 58.68168    -26.0 9.361e+03 1.009e-09
 58.72092    -25.3 9.465e+03 1.554e-09
 58.75218    -24.6 9.776e+03 2.468e-09
 58.77180    -23.7 9.759e+03 2.586e-09
 58.78950    -23.8 1.012e+04 3.587e-09
 58.80903    -24.3 1.025e+04 4.515e-09
 58.82865    -24.2 1.065e+04 5.933e-09
 58.84762    -25.0 1.072e+04 6.922e-09
 58.85753    -25.3 1.066e+04 8.198e-09
 58.87790    -25.5 1.107e+04 1.043e-08
 58.91715    -27.0 1.114e+04 1.019e-08
 58.95639    -28.3 1.117e+04 7.319e-09
 58.98573    -28.9 1.127e+04 6.283e-09
 59.00526    -29.6 1.137e+04 6.208e-09
 59.02488    -30.3 1.134e+04 5.859e-09
 59.04450    -31.3 1.112e+04 5.631e-09
 59.06412    -32.3 1.105e+04 5.586e-09
 59.08207    -33.0 1.099e+04 5.911e-09
 59.09188    -32.6 1.092e+04 6.526e-09
 59.10337    -33.2 1.094e+04 7.191e-09
 59.12299    -33.6 1.097e+04 7.434e-09
 59.14261    -34.0 1.096e+04 7.412e-09
 59.16201    -34.5 1.087e+04 6.775e-09
 59.17182    -34.8 1.088e+04 6.774e-09
 59.18186    -35.4 1.076e+04 6.203e-09
 59.20148    -35.9 1.063e+04 6.084e-09
 59.22110    -36.1 1.055e+04 6.160e-09
 59.24073    -36.2 1.044e+04 6.540e-09
 59.26035    -36.2 1.042e+04 6.697e-09
 59.27997    -35.8 1.019e+04 6.385e-09
 59.29960    -35.4 9.924e+03 5.308e-09
 59.31652    -35.1 9.669e+03 4.106e-09
 59.32633    -34.5 9.634e+03 4.382e-09
 59.34875    -34.0 9.402e+03 3.167e-09
 59.38809    -32.8 8.932e+03 2.004e-09
 59.42734    -31.1 8.494e+03 1.311e-09
 59.46658    -29.5 8.319e+03 1.118e-09
 59.50583    -27.7 8.265e+03 1.092e-09
 59.54507    -25.9 8.206e+03 1.144e-09
 59.57224    -23.9 8.163e+03 1.222e-09
 59.59186    -24.3 8.081e+03 1.410e-09
 59.62356    -22.3 8.051e+03 1.228e-09
 59.66281    -20.3 7.983e+03 1.099e-09
 59.70205    -18.4 7.893e+03 1.027e-09
 59.74130    -16.2 7.855e+03 1.002e-09
 59.77580    -13.9 7.856e+03 9.803e-10
 59.79542    -13.8 7.900e+03 1.082e-09
 59.81979    -11.5 7.808e+03 9.632e-10
 59.85904     -9.0 7.790e+03 8.758e-10
 59.89828     -6.7 7.815e+03 8.318e-10
 59.93753     -4.3 7.918e+03 8.629e-10
 59.97677     -1.9 7.901e+03 1.015e-09
 60.01602      1.1 7.969e+03 1.150e-09
 60.05526      3.8 8.023e+03 1.097e-09
 60.09451      6.6 8.112e+03 9.174e-10
 60.13375      9.0 8.278e+03 8.168e-10
 60.17300     10.9 8.405e+03 9.116e-10
 60.21224     13.1 8.539e+03 1.295e-09
 60.24469     15.5 8.744e+03 2.046e-09
 60.26431     15.5 8.875e+03 2.055e-09
 60.29073     17.8 9.418e+03 2.992e-09
 60.32998     19.8 9.756e+03 3.392e-09
 60.36922     21.0 1.014e+04 4.136e-09
 60.39230     22.1 1.066e+04 6.514e-09
 60.41192     21.4 1.095e+04 7.303e-09
 60.44772     22.2 1.173e+04 1.147e-08
 60.47705     23.0 1.187e+04 1.179e-08
 60.48875     22.5 1.229e+04 1.290e-08
 60.49856     22.2 1.225e+04 1.302e-08
 60.51620     21.7 1.251e+04 1.443e-08
 60.53582     21.1 1.273e+04 1.646e-08
 60.55544     20.7 1.285e+04 1.806e-08
 60.57507     19.9 1.296e+04 1.807e-08
 60.59469     19.5 1.284e+04 1.684e-08
 60.61431     18.8 1.266e+04 1.509e-08
 60.64384     17.7 1.227e+04 1.097e-08
 60.68319     16.6 1.187e+04 8.015e-09
 60.71358     15.9 1.143e+04 6.132e-09
 60.73321     15.0 1.170e+04 9.041e-09
 60.76168     15.2 1.117e+04 6.261e-09
 60.80092     15.5 1.076e+04 4.003e-09
 60.84017     15.9 1.035e+04 2.490e-09
 60.87941     15.7 1.028e+04 1.705e-09
 60.91866     15.5 1.030e+04 1.452e-09
 60.95790     15.5 1.037e+04 1.418e-09
 60.99715     16.1 1.029e+04 1.249e-09
 61.03639     17.0 1.038e+04 8.232e-10
 61.07564     17.0 1.072e+04 5.121e-10
 61.11488     17.6 1.072e+04 5.097e-10
 61.15413     17.7 1.071e+04 6.939e-10
 61.18248     18.6 1.065e+04 1.372e-09
 61.20146     18.4 1.101e+04 2.749e-09
 61.21236     18.1 1.108e+04 2.857e-09
 61.22271     18.8 1.138e+04 3.815e-09
 61.24224     19.3 1.144e+04 4.883e-09
 61.26186     19.9 1.157e+04 5.240e-09
 61.28148     19.9 1.169e+04 5.103e-09
 61.31101     19.9 1.171e+04 4.369e-09
 61.35036     19.9 1.168e+04 3.415e-09
 61.38960     19.6 1.140e+04 3.179e-09
 61.42885     19.4 1.110e+04 3.300e-09
 61.46809     19.2 1.085e+04 3.259e-09
 61.49743     18.6 1.081e+04 3.364e-09
 61.51695     18.0 1.066e+04 3.352e-09
 61.53658     17.1 1.063e+04 3.664e-09
 61.55620     16.4 1.049e+04 4.255e-09
 61.58573     16.0 1.033e+04 4.948e-09
 61.62507     16.0 1.001e+04 4.373e-09
 61.65137     15.6 9.704e+03 2.756e-09
 61.67099     15.8 9.525e+03 2.262e-09
 61.70356     14.8 9.270e+03 1.995e-09
 61.74281     14.6 9.127e+03 2.241e-09
 61.78205     15.0 8.958e+03 2.174e-09
 61.82130     15.6 8.783e+03 1.876e-09
 61.86055     15.6 8.623e+03 1.618e-09
 61.89979     16.0 8.449e+03 1.529e-09
 61.93904     16.5 8.404e+03 1.597e-09
 61.97828     16.7 8.511e+03 2.135e-09
 62.01280     17.2 8.877e+03 3.546e-09
 62.03242     16.9 9.575e+03 5.767e-09
 62.05677     17.6 9.827e+03 7.471e-09
 62.09602     18.1 9.792e+03 7.310e-09
 62.12027     19.0 9.483e+03 5.756e-09
 62.12998     19.9 9.114e+03 4.816e-09
 62.14488     19.6 9.081e+03 4.234e-09
 62.16450     19.8 8.791e+03 3.407e-09
 62.18412     19.8 8.751e+03 3.313e-09
 62.20375     19.9 8.744e+03 3.490e-09
 62.22337     20.1 8.866e+03 3.980e-09
 62.24299     20.2 9.227e+03 5.068e-09
 62.26261     20.3 9.655e+03 6.906e-09
 62.28224     20.5 1.022e+04 9.982e-09
 62.30186     20.8 1.083e+04 1.426e-08
 62.32148     21.3 1.141e+04 1.953e-08
 62.34110     21.7 1.200e+04 2.579e-08
 62.35452     22.2 1.246e+04 3.175e-08
 62.36433     22.5 1.244e+04 2.990e-08
 62.38035     23.0 1.268e+04 3.355e-08
 62.39997     23.6 1.273e+04 3.348e-08
 62.41960     24.1 1.259e+04 2.995e-08
 62.43245     23.8 1.241e+04 2.565e-08
 62.44226     23.1 1.234e+04 2.399e-08
 62.45884     21.5 1.230e+04 2.142e-08
 62.47846     19.3 1.227e+04 2.156e-08
 62.49809     17.7 1.217e+04 2.308e-08
 62.51771     16.9 1.216e+04 2.415e-08
 62.53733     16.1 1.211e+04 2.314e-08
 62.55695     14.9 1.194e+04 2.033e-08
 62.57658     12.1 1.180e+04 1.700e-08
 62.58896      6.6 1.320e+04 1.986e-08
 62.59878     -2.1 1.761e+04 4.212e-08
 62.61582     -9.6 1.788e+04 1.175e-07
 62.63544    -12.6 1.821e+04 1.799e-07
 62.65507    -15.4 1.828e+04 1.708e-07
 62.67469    -18.2 1.758e+04 7.302e-08
 62.69431    -22.4 1.559e+04 2.753e-08
 62.71393    -27.3 1.439e+04 1.751e-08
 62.73356    -30.9 1.367e+04 2.001e-08
 62.75318    -32.3 1.501e+04 4.489e-08
 62.77280    -32.6 1.590e+04 8.470e-08
 62.79243    -32.6 1.643e+04 1.121e-07
 62.81205    -32.7 1.652e+04 1.146e-07
 62.82341    -32.9 1.624e+04 9.284e-08
 62.83322    -34.8 1.571e+04 5.291e-08
 62.84248    -37.0 1.361e+04 2.113e-08
 62.85229    -38.4 1.268e+04 1.921e-08
 62.87092    -39.6 1.125e+04 1.042e-08
 62.89054    -39.1 1.068e+04 7.538e-09
 62.91016    -37.9 1.042e+04 5.660e-09
 62.92978    -36.5 1.024e+04 4.116e-09
 62.94941    -35.3 1.015e+04 3.027e-09
 62.96903    -34.7 1.010e+04 2.585e-09
 62.99856    -33.0 1.004e+04 2.238e-09
 63.03790    -30.2 9.870e+03 1.885e-09
 63.05805    -27.4 9.816e+03 1.779e-09
 63.07768    -27.4 9.651e+03 1.521e-09
 63.11639    -25.1 9.912e+03 1.699e-09
 63.15564    -23.3 1.023e+04 2.573e-09
 63.18498    -21.6 1.056e+04 3.013e-09
 63.20450    -21.8 1.056e+04 3.276e-09
 63.22412    -20.8 1.082e+04 4.005e-09
 63.24270    -20.6 1.090e+04 4.170e-09
 63.25251    -20.7 1.109e+04 5.615e-09
 63.26337    -20.3 1.116e+04 5.630e-09
 63.28249    -20.1 1.127e+04 5.005e-09
 63.29230    -20.5 1.137e+04 5.653e-09
 63.30261    -20.5 1.139e+04 5.055e-09
 63.32224    -20.3 1.135e+04 4.496e-09
 63.34186    -19.8 1.129e+04 3.887e-09
 63.36148    -19.2 1.134e+04 3.316e-09
 63.39101    -18.1 1.145e+04 2.674e-09
 63.43036    -16.9 1.156e+04 2.341e-09
 63.45969    -15.9 1.180e+04 2.429e-09
 63.47922    -15.8 1.188e+04 2.736e-09
 63.49884    -15.2 1.186e+04 4.202e-09
 63.51694    -14.1 1.212e+04 6.738e-09
 63.52675    -13.8 1.182e+04 5.152e-09
 63.53809    -13.2 1.243e+04 8.446e-09
 63.55771    -13.4 1.335e+04 1.622e-08
 63.57733    -13.9 1.431e+04 3.357e-08
 63.59695    -14.0 1.504e+04 5.923e-08
 63.61658    -12.6 1.555e+04 8.346e-08
 63.63620    -12.1 1.524e+04 6.703e-08
 63.65273    -11.7 1.452e+04 2.759e-08
 63.66254    -12.3 1.445e+04 2.762e-08
 63.67544    -14.7 1.344e+04 1.325e-08
 63.69507    -16.0 1.230e+04 9.593e-09
 63.71469    -15.9 1.194e+04 8.853e-09
 63.73431    -14.9 1.176e+04 8.376e-09
 63.75139    -14.3 1.159e+04 7.792e-09
 63.76120    -14.9 1.142e+04 7.260e-09
 63.77356    -14.0 1.135e+04 6.881e-09
 63.79318    -13.2 1.135e+04 6.377e-09
 63.81280    -12.7 1.150e+04 6.214e-09
 63.83243    -12.7 1.165e+04 6.217e-09
 63.85205    -13.2 1.200e+04 7.550e-09
 63.87167    -14.0 1.238e+04 1.067e-08
 63.89129    -14.3 1.275e+04 1.637e-08
 63.91092    -14.3 1.320e+04 2.225e-08
 63.93054    -13.6 1.356e+04 2.798e-08
 63.95016    -13.5 1.337e+04 2.359e-08
 63.96978    -13.6 1.313e+04 1.760e-08
 63.98583    -14.1 1.291e+04 1.415e-08
 63.99565    -13.7 1.228e+04 1.072e-08
 64.00903    -13.5 1.249e+04 1.070e-08
 64.02865    -13.4 1.269e+04 1.191e-08
 64.04827    -12.9 1.287e+04 1.418e-08
 64.06276    -12.0 1.311e+04 1.684e-08
 64.07257    -11.9 1.335e+04 2.103e-08
 64.08752    -10.5 1.367e+04 2.439e-08
 64.10714     -9.8 1.380e+04 2.464e-08
 64.12676     -9.1 1.377e+04 2.429e-08
 64.14639     -8.5 1.367e+04 2.477e-08
 64.16601     -7.7 1.359e+04 2.489e-08
 64.18563     -6.8 1.358e+04 2.476e-08
 64.20526     -5.9 1.363e+04 2.358e-08
 64.22028     -5.2 1.378e+04 2.304e-08
 64.23009     -4.6 1.409e+04 2.556e-08
 64.24450     -3.9 1.434e+04 3.051e-08
 64.26412     -2.9 1.479e+04 3.648e-08
 64.28375     -2.1 1.554e+04 4.299e-08
 64.30337     -2.0 1.670e+04 5.200e-08
 64.32299     -2.8 1.858e+04 6.502e-08
 64.33746     -4.0 1.993e+04 5.896e-08
 64.34231     -4.2 1.931e+04 1.101e-07
 64.34742     -5.1 1.994e+04 1.497e-07
 64.35723     -6.1 2.057e+04 2.218e-07
 64.36704     -8.0 2.147e+04 3.756e-07
 64.37686    -10.4 2.056e+04 8.456e-07
 64.38667    -10.9 1.847e+04 2.586e-06
 64.39648    -10.7 1.746e+04 5.812e-06
 64.40629    -11.1 1.716e+04 7.281e-06
 64.41610    -11.0 1.737e+04 5.549e-06
 64.42591    -12.0 1.867e+04 2.047e-06
 64.43572    -14.4 1.983e+04 8.482e-07
 64.44553    -17.2 2.082e+04 4.020e-07
 64.45463    -19.4 2.077e+04 2.364e-07
 64.45954    -19.1 1.987e+04 1.927e-07
 64.46516    -20.1 1.944e+04 1.544e-07
 64.47269    -20.8 1.900e+04 1.280e-07
 64.47760    -21.0 1.901e+04 1.618e-07
 64.48478    -21.6 1.871e+04 1.427e-07
 64.49459    -21.8 1.853e+04 1.241e-07
 64.50440    -21.9 1.862e+04 1.072e-07
 64.51421    -22.4 1.852e+04 9.838e-08
 64.52403    -22.9 1.866e+04 9.373e-08
 64.53384    -24.1 1.875e+04 9.149e-08
 64.54365    -25.4 1.938e+04 1.006e-07
 64.55346    -27.2 1.933e+04 1.223e-07
 64.56327    -28.5 1.822e+04 1.675e-07
 64.57185    -29.6 1.790e+04 2.000e-07
 64.57676    -29.9 1.781e+04 1.910e-07
 64.58289    -30.2 1.746e+04 2.101e-07
 64.59270    -30.2 1.757e+04 2.093e-07
 64.60252    -30.0 1.802e+04 2.118e-07
 64.61233    -30.4 1.905e+04 1.900e-07
 64.62214    -31.7 2.009e+04 1.382e-07
 64.63195    -34.2 2.035e+04 8.537e-08
 64.64176    -37.5 1.952e+04 5.687e-08
 64.65157    -40.8 1.856e+04 4.649e-08
 64.66138    -44.0 1.802e+04 4.368e-08
 64.67120    -47.0 1.824e+04 4.353e-08
 64.67771    -50.0 1.877e+04 5.278e-08
 64.68261    -49.0 1.861e+04 4.879e-08
 64.68908    -53.5 1.894e+04 7.864e-08
 64.69398    -55.4 1.909e+04 1.108e-07
 64.70063    -58.5 1.931e+04 1.922e-07
 64.71044    -61.2 1.946e+04 3.031e-07
 64.72025    -63.8 1.942e+04 3.858e-07
 64.73006    -66.3 1.929e+04 4.027e-07
 64.73987    -68.3 1.888e+04 3.235e-07
 64.74969    -70.2 1.833e+04 1.964e-07
 64.75950    -72.4 1.749e+04 1.083e-07
 64.76931    -74.9 1.638e+04 6.066e-08
 64.77912    -77.4 1.517e+04 3.704e-08
 64.79389    -79.9 1.391e+04 2.462e-08
 64.81356    -80.7 1.350e+04 1.956e-08
 64.83318    -82.0 1.273e+04 1.321e-08
 64.85280    -82.6 1.225e+04 9.963e-09
 64.87242    -82.8 1.196e+04 7.795e-09
 64.88282    -83.0 1.171e+04 6.076e-09
 64.89263    -83.0 1.224e+04 1.037e-08
 64.91167    -83.3 1.189e+04 7.861e-09
 64.92362    -83.5 1.168e+04 6.479e-09
 64.93343    -83.1 1.191e+04 7.670e-09
 64.95092    -83.2 1.171e+04 5.913e-09
 64.97054    -83.1 1.148e+04 5.062e-09
 64.99016    -82.7 1.139e+04 4.459e-09
 65.00978    -82.2 1.128e+04 4.114e-09
 65.02941    -81.8 1.123e+04 4.028e-09
 65.04903    -81.1 1.117e+04 4.118e-09
 65.06865    -80.2 1.113e+04 4.383e-09
 65.08827    -78.9 1.109e+04 4.706e-09
 65.10790    -77.5 1.107e+04 4.965e-09
 65.12752    -76.1 1.104e+04 5.072e-09
 65.14714    -74.6 1.099e+04 4.965e-09
 65.15807    -73.0 1.095e+04 4.701e-09
 65.16788    -73.1 1.091e+04 4.320e-09
 65.18639    -71.6 1.090e+04 4.056e-09
 65.20601    -70.3 1.090e+04 3.779e-09
 65.22563    -69.0 1.091e+04 3.583e-09
 65.24526    -67.6 1.092e+04 3.488e-09
 65.26488    -66.4 1.093e+04 3.478e-09
 65.28304    -64.9 1.095e+04 3.487e-09
 65.29295    -66.5 1.115e+04 5.292e-09
 65.31413    -63.9 1.121e+04 5.339e-09
 65.34347    -61.8 1.137e+04 5.410e-09
 65.36299    -60.8 1.150e+04 6.143e-09
 65.38261    -59.8 1.162e+04 6.745e-09
 65.40224    -58.8 1.176e+04 7.257e-09
 65.42186    -57.9 1.179e+04 7.608e-09
 65.44148    -57.2 1.178e+04 7.722e-09
 65.46110    -56.4 1.168e+04 7.708e-09
 65.48073    -55.7 1.154e+04 7.432e-09
 65.50035    -55.0 1.142e+04 6.958e-09
 65.51997    -54.3 1.132e+04 6.445e-09
 65.53959    -53.6 1.119e+04 5.985e-09
 65.55922    -52.9 1.109e+04 5.542e-09
 65.57884    -52.1 1.103e+04 5.287e-09
 65.59846    -51.4 1.101e+04 5.221e-09
 65.62799    -50.6 1.104e+04 5.645e-09
 65.66734    -48.8 1.114e+04 6.521e-09
 65.70658    -47.0 1.127e+04 7.711e-09
 65.74583    -44.8 1.141e+04 8.839e-09
 65.78507    -42.2 1.151e+04 9.401e-09
 65.81441    -40.4 1.151e+04 9.314e-09
 65.83393    -40.1 1.148e+04 9.356e-09
 65.85160    -38.2 1.161e+04 1.048e-08
 65.86141    -39.0 1.145e+04 9.412e-09
 65.87318    -38.3 1.145e+04 9.798e-09
 65.90271    -37.8 1.188e+04 1.043e-08
 65.93215    -36.4 1.263e+04 1.609e-08
 65.95167    -37.1 1.321e+04 2.204e-08
 65.97129    -37.3 1.398e+04 3.284e-08
 65.99092    -37.8 1.452e+04 4.429e-08
 66.01054    -38.4 1.480e+04 4.908e-08
 66.03016    -39.4 1.445e+04 4.162e-08
 66.04978    -40.3 1.353e+04 2.525e-08
 66.06941    -41.6 1.237e+04 1.220e-08
 66.08604    -43.1 1.146e+04 5.471e-09
 66.09586    -43.8 1.106e+04 4.102e-09
 66.10310    -44.2 1.080e+04 2.612e-09
 66.11291    -43.1 1.084e+04 2.985e-09
 66.12827    -43.3 1.062e+04 2.034e-09
 66.14790    -43.4 1.047e+04 1.661e-09
 66.16752    -42.6 1.042e+04 1.561e-09
 66.18714    -42.4 1.039e+04 1.543e-09
 66.20676    -41.5 1.036e+04 1.511e-09
 66.22639    -41.2 1.034e+04 1.511e-09
 66.24601    -40.1 1.048e+04 1.590e-09
 66.26563    -39.9 1.060e+04 1.790e-09
 66.28526    -38.5 1.071e+04 2.333e-09
 66.30488    -38.2 1.080e+04 2.813e-09
 66.32049    -37.2 1.092e+04 4.098e-09
 66.33030    -36.7 1.079e+04 3.164e-09
 66.34412    -36.4 1.085e+04 3.869e-09
 66.37365    -34.6 1.085e+04 4.634e-09
 66.41300    -32.9 1.135e+04 7.649e-09
 66.44233    -32.8 1.213e+04 1.292e-08
 66.46186    -32.3 1.275e+04 1.826e-08
 66.48148    -31.9 1.359e+04 2.840e-08
 66.50110    -32.1 1.421e+04 4.115e-08
 66.51313    -31.4 1.474e+04 5.181e-08
 66.52295    -30.0 1.515e+04 6.066e-08
 66.54035    -29.8 1.557e+04 7.509e-08
 66.55494    -29.8 1.541e+04 6.613e-08
 66.56475    -29.5 1.489e+04 5.824e-08
 66.57959    -29.5 1.432e+04 3.875e-08
 66.59922    -29.9 1.327e+04 1.988e-08
 66.61884    -31.0 1.263e+04 9.168e-09
 66.63846    -32.3 1.213e+04 4.995e-09
 66.65809    -32.7 1.187e+04 3.494e-09
 66.68762    -32.8 1.142e+04 2.619e-09
 66.72696    -31.8 1.101e+04 1.940e-09
 66.76620    -30.3 1.067e+04 1.430e-09
 66.78958    -28.8 1.055e+04 1.008e-09
 66.80920    -28.8 1.063e+04 1.597e-09
 66.84470    -27.2 1.066e+04 1.257e-09
 66.88394    -25.6 1.057e+04 1.044e-09
 66.91355    -24.1 1.039e+04 9.315e-10
 66.93317    -23.1 1.026e+04 8.815e-10
 66.96243    -21.2 1.021e+04 9.677e-10
 67.00168    -19.1 1.018e+04 1.043e-09
 67.04092    -17.2 1.027e+04 1.165e-09
 67.08017    -15.5 1.043e+04 1.409e-09
 67.11941    -13.9 1.063e+04 1.843e-09
 67.15866    -12.3 1.075e+04 2.377e-09
 67.19790    -10.7 1.089e+04 2.696e-09
 67.23715     -9.1 1.095e+04 2.695e-09
 67.25847     -7.6 1.095e+04 2.290e-09
 67.27810     -8.2 1.080e+04 2.168e-09
 67.31564     -7.1 1.077e+04 1.904e-09
 67.35488     -5.8 1.080e+04 2.149e-09
 67.39413     -4.2 1.082e+04 2.514e-09
 67.43337     -3.3 1.096e+04 2.445e-09
 67.47262     -2.6 1.092e+04 2.229e-09
 67.51187     -1.9 1.113e+04 1.916e-09
 67.55111     -1.4 1.121e+04 1.684e-09
 67.59036     -0.9 1.129e+04 1.718e-09
 67.61969     -1.7 1.125e+04 2.237e-09
 67.63922     -3.4 1.160e+04 3.594e-09
 67.65884     -5.3 1.243e+04 6.841e-09
 67.67846     -6.7 1.310e+04 1.301e-08
 67.70765     -7.3 1.324e+04 1.549e-08
 67.72727     -7.6 1.322e+04 1.674e-08
 67.73351     -8.2 1.315e+04 9.140e-09
 67.74332     -9.1 1.348e+04 7.706e-09
 67.75695     -9.8 1.331e+04 6.790e-09
 67.78648    -12.9 1.239e+04 3.471e-09
 67.82583    -13.9 1.189e+04 3.297e-09
 67.86507    -14.1 1.200e+04 4.890e-09
 67.90432    -14.4 1.232e+04 7.409e-09
 67.94356    -15.3 1.246e+04 1.005e-08
 67.98281    -15.9 1.241e+04 1.137e-08
 68.02205    -15.8 1.203e+04 7.816e-09
 68.06130    -15.4 1.157e+04 3.406e-09
 68.10054    -14.8 1.118e+04 1.696e-09
 68.13979    -13.8 1.107e+04 1.225e-09
 68.17664    -12.4 1.108e+04 1.156e-09
 68.19626    -11.7 1.108e+04 2.097e-09
 68.21828     -9.9 1.096e+04 2.188e-09
 68.25753     -8.1 1.088e+04 2.128e-09
 68.29677     -6.2 1.093e+04 2.162e-09
 68.33602     -5.8 1.120e+04 3.441e-09
 68.36535     -6.0 1.177e+04 6.285e-09
 68.38488     -6.3 1.215e+04 8.261e-09
 68.40450     -6.5 1.241e+04 1.293e-08
 68.42070     -6.7 1.313e+04 1.717e-08
 68.43051     -8.0 1.437e+04 3.007e-08
 68.44375     -8.4 1.461e+04 3.602e-08
 68.46337     -9.0 1.474e+04 2.795e-08
 68.48299    -10.6 1.444e+04 1.883e-08
 68.50261    -12.1 1.408e+04 1.315e-08
 68.53214    -11.3 1.337e+04 8.782e-09
 68.55367    -12.2 1.309e+04 6.602e-09
 68.57330    -15.2 1.256e+04 5.615e-09
 68.61073    -13.8 1.237e+04 5.280e-09
 68.64007    -12.7 1.249e+04 5.583e-09
 68.65515    -12.5 1.248e+04 5.506e-09
 68.66506    -13.1 1.245e+04 5.432e-09
 68.68922    -11.5 1.250e+04 5.373e-09
 68.72847     -9.7 1.261e+04 5.143e-09
 68.76771     -7.6 1.239e+04 4.563e-09
 68.80696     -5.5 1.244e+04 3.574e-09
 68.84620     -3.8 1.246e+04 3.239e-09
 68.88545     -2.1 1.257e+04 3.128e-09
 68.92470     -1.0 1.274e+04 3.586e-09
 68.96394     -0.4 1.293e+04 5.254e-09
 69.00319      0.3 1.312e+04 7.794e-09
 69.04243      0.5 1.317e+04 8.336e-09
 69.07177      0.6 1.309e+04 7.723e-09
 69.09129      0.5 1.296e+04 6.961e-09
 69.11092      0.7 1.287e+04 5.696e-09
 69.12404      0.5 1.281e+04 4.934e-09
 69.13385      0.5 1.271e+04 3.803e-09
 69.15016      0.4 1.270e+04 3.272e-09
 69.16978      0.3 1.261e+04 3.198e-09
 69.18941      0.5 1.251e+04 3.275e-09
 69.20903      0.8 1.242e+04 3.506e-09
 69.22865      1.2 1.236e+04 3.725e-09
 69.24827      1.7 1.236e+04 3.884e-09
 69.26790      2.1 1.235e+04 3.966e-09
 69.28752      2.4 1.241e+04 4.203e-09
 69.30714      2.7 1.249e+04 4.693e-09
 69.32676      3.0 1.256e+04 5.643e-09
 69.34639      3.3 1.278e+04 7.118e-09
 69.35849      2.6 1.338e+04 9.764e-09
 69.36602      2.8 1.332e+04 8.952e-09
 69.37354      2.3 1.318e+04 8.446e-09
 69.38563     -0.1 1.420e+04 1.325e-08
 69.40525     -3.7 1.531e+04 2.679e-08
 69.42488     -6.0 1.565e+04 4.207e-08
 69.44450     -7.8 1.552e+04 4.511e-08
 69.46412     -9.9 1.557e+04 3.780e-08
 69.48375    -12.1 1.532e+04 3.947e-08
 69.50337    -13.3 1.533e+04 4.436e-08
 69.52299    -14.4 1.543e+04 4.704e-08
 69.54261    -16.1 1.575e+04 4.638e-08
 69.56224    -18.6 1.574e+04 5.080e-08
 69.58186    -20.6 1.589e+04 5.677e-08
 69.59294    -22.8 1.581e+04 5.506e-08
 69.60275    -23.4 1.506e+04 2.427e-08
 69.62110    -25.5 1.424e+04 2.374e-08
 69.64073    -25.9 1.385e+04 2.268e-08
 69.66035    -26.2 1.390e+04 1.513e-08
 69.67997    -27.2 1.372e+04 9.808e-09
 69.69959    -28.5 1.344e+04 7.959e-09
 69.71922    -29.1 1.340e+04 7.735e-09
 69.73884    -29.8 1.360e+04 8.982e-09
 69.75846    -30.2 1.365e+04 1.148e-08
 69.77376    -30.2 1.383e+04 1.385e-08
 69.78357    -31.1 1.393e+04 1.764e-08
 69.79771    -31.3 1.422e+04 2.094e-08
 69.81733    -31.8 1.435e+04 2.194e-08
 69.82738    -32.1 1.443e+04 2.155e-08
 69.83719    -30.2 1.411e+04 2.006e-08
 69.85658    -30.0 1.424e+04 1.930e-08
 69.87620    -29.6 1.433e+04 1.602e-08
 69.89582    -29.1 1.431e+04 1.310e-08
 69.91544    -28.9 1.433e+04 1.073e-08
 69.93507    -28.6 1.456e+04 1.002e-08
 69.95469    -29.3 1.562e+04 1.370e-08
 69.97431    -31.8 1.676e+04 3.160e-08
 69.99393    -34.0 1.727e+04 9.457e-08
 70.01356    -34.5 1.806e+04 1.874e-07
 70.03318    -35.9 1.823e+04 2.124e-07
 70.05202    -38.2 1.767e+04 9.659e-08
 70.06178    -36.1 1.800e+04 1.120e-07
 70.07238    -38.9 1.737e+04 4.304e-08
 70.09205    -44.3 1.472e+04 1.162e-08
 70.11167    -45.4 1.376e+04 6.787e-09
 70.13129    -45.4 1.349e+04 5.993e-09
 70.15091    -45.0 1.351e+04 5.862e-09
 70.17054    -45.4 1.408e+04 7.410e-09
 70.18379    -46.2 1.452e+04 1.349e-08
 70.19360    -45.0 1.321e+04 4.375e-09
 70.20978    -46.0 1.391e+04 7.416e-09
 70.22941    -47.0 1.400e+04 1.385e-08
 70.24903    -47.8 1.422e+04 2.703e-08
 70.26865    -47.9 1.447e+04 4.056e-08
 70.28647    -47.7 1.478e+04 4.857e-08
 70.29628    -47.1 1.382e+04 3.114e-08
 70.30790    -46.8 1.404e+04 3.651e-08
 70.32752    -47.2 1.433e+04 3.699e-08
 70.34714    -47.6 1.439e+04 3.653e-08
 70.36676    -48.0 1.440e+04 3.704e-08
 70.38639    -48.2 1.457e+04 3.910e-08
 70.40601    -48.1 1.482e+04 4.152e-08
 70.42563    -47.9 1.517e+04 3.895e-08
 70.44525    -47.7 1.515e+04 3.164e-08
 70.46488    -47.8 1.475e+04 2.199e-08
 70.48450    -47.9 1.409e+04 1.522e-08
 70.50412    -47.5 1.338e+04 1.126e-08
 70.52091    -46.7 1.277e+04 9.179e-09
 70.53072    -47.4 1.328e+04 1.208e-08
 70.54337    -46.8 1.256e+04 9.020e-09
 70.56299    -46.0 1.215e+04 7.785e-09
 70.58261    -44.9 1.178e+04 7.058e-09
 70.59382    -43.8 1.152e+04 6.830e-09
 70.60363    -43.7 1.185e+04 9.757e-09
 70.62186    -42.8 1.144e+04 8.654e-09
 70.64148    -41.5 1.117e+04 8.272e-09
 70.66110    -40.0 1.104e+04 8.025e-09
 70.68073    -38.4 1.086e+04 7.362e-09
 70.70035    -36.7 1.067e+04 6.352e-09
 70.71997    -35.0 1.051e+04 5.463e-09
 70.73959    -33.6 1.031e+04 4.540e-09
 70.75536    -32.2 1.011e+04 3.656e-09
 70.76517    -32.1 1.005e+04 3.431e-09
 70.77884    -31.0 9.983e+03 3.024e-09
 70.80837    -29.0 1.007e+04 2.715e-09
 70.84771    -26.1 1.000e+04 2.396e-09
 70.88696    -23.1 9.911e+03 2.144e-09
 70.92620    -19.9 9.976e+03 2.068e-09
 70.96545    -17.1 1.011e+04 1.868e-09
 70.99000    -14.4 1.015e+04 1.863e-09
 70.99916    -13.7 9.781e+03 1.752e-09
 71.01386    -14.0 9.766e+03 1.784e-09
 71.04394    -12.0 9.970e+03 2.173e-09
 71.08319     -9.8 1.048e+04 3.160e-09
 71.11252     -8.5 1.086e+04 4.306e-09
 71.13205     -7.8 1.127e+04 4.546e-09
 71.15167     -7.3 1.132e+04 4.657e-09
 71.17129     -6.8 1.124e+04 4.275e-09
 71.19091     -6.1 1.096e+04 3.786e-09
 71.21054     -5.7 1.106e+04 2.915e-09
 71.24007     -4.8 1.100e+04 2.384e-09
 71.27941     -4.1 1.105e+04 1.829e-09
 71.31866     -3.5 1.103e+04 1.983e-09
 71.35790     -2.8 1.108e+04 2.632e-09
 71.39715     -1.6 1.112e+04 3.468e-09
 71.42648      0.1 1.110e+04 3.221e-09
 71.44601      0.2 1.115e+04 3.218e-09
 71.45870      0.8 1.132e+04 2.832e-09
 71.47842      2.3 1.117e+04 2.597e-09
 71.50497      2.6 1.126e+04 2.710e-09
 71.52450      2.6 1.137e+04 2.898e-09
 71.54412      2.3 1.161e+04 3.237e-09
 71.56375      1.7 1.183e+04 3.655e-09
 71.59328      2.6 1.190e+04 4.798e-09
 71.62271     -0.8 1.251e+04 1.045e-08
 71.64224     -2.9 1.274e+04 1.543e-08
 71.66186     -4.2 1.303e+04 2.150e-08
 71.68148     -5.7 1.319e+04 2.394e-08
 71.69315     -8.1 1.313e+04 1.509e-08
 71.70296     -4.6 1.418e+04 2.260e-08
 71.72073     -8.8 1.252e+04 1.277e-08
 71.74035     -9.7 1.135e+04 9.897e-09
 71.75997    -11.4 1.064e+04 7.407e-09
 71.78950    -13.8 1.037e+04 4.913e-09
 71.81430    -14.3 9.916e+03 3.031e-09
 71.83392    -15.7 9.602e+03 2.307e-09
 71.86809    -14.9 9.385e+03 1.991e-09
 71.90734    -13.4 9.339e+03 1.857e-09
 71.92779    -11.8 9.276e+03 1.723e-09
 71.94741    -11.1 9.193e+03 1.312e-09
 71.98583     -9.4 9.226e+03 1.122e-09
 72.02507     -7.8 9.278e+03 1.225e-09
 72.06432     -6.2 9.207e+03 1.810e-09
 72.10356     -3.7 9.267e+03 2.678e-09
 72.14281     -1.0 9.398e+03 3.188e-09
 72.18205      1.2 9.515e+03 2.977e-09
 72.22130      3.1 9.478e+03 2.756e-09
 72.26054      5.1 9.429e+03 2.928e-09
 72.29979      7.3 9.490e+03 3.462e-09
 72.33903      9.6 9.711e+03 4.154e-09
 72.37706     11.7 1.009e+04 5.654e-09
 72.39668     12.0 1.003e+04 5.420e-09
 72.41753     14.3 1.048e+04 7.674e-09
 72.44686     15.5 1.075e+04 9.141e-09
 72.46639     15.5 1.132e+04 1.178e-08
 72.48601     15.4 1.194e+04 1.676e-08
 72.50563     15.8 1.238e+04 2.301e-08
 72.52525     16.4 1.278e+04 2.945e-08
 72.54488     17.0 1.290e+04 3.176e-08
 72.56450     17.5 1.282e+04 3.007e-08
 72.58412     17.0 1.333e+04 2.858e-08
 72.60374     13.7 1.497e+04 3.719e-08
 72.62112     10.4 1.577e+04 6.522e-08
 72.63093     11.5 1.620e+04 6.578e-08
 72.63416     10.0 1.641e+04 1.186e-07
 72.64398     10.4 1.541e+04 5.741e-08
 72.66261      9.5 1.570e+04 9.293e-08
 72.68224      8.9 1.595e+04 9.541e-08
 72.70186      7.4 1.573e+04 7.390e-08
 72.72148      5.6 1.477e+04 5.204e-08
 72.74110      4.2 1.345e+04 3.087e-08
 72.76073      2.7 1.255e+04 1.851e-08
 72.78035      1.5 1.195e+04 1.150e-08
 72.79997      0.2 1.139e+04 7.873e-09
 72.81959     -1.3 1.104e+04 6.072e-09
 72.83922     -2.5 1.071e+04 6.107e-09
 72.85557     -3.5 1.045e+04 6.988e-09
 72.86538     -3.2 1.051e+04 6.621e-09
 72.87846     -3.4 1.039e+04 8.065e-09
 72.89808     -2.8 1.025e+04 8.261e-09
 72.91771     -1.9 1.026e+04 6.579e-09
 72.93733     -2.2 1.023e+04 4.595e-09
 72.96686     -2.9 9.927e+03 3.822e-09
 73.00620     -2.9 9.458e+03 2.707e-09
 73.04545     -2.5 9.488e+03 2.372e-09
 73.08469     -2.5 9.680e+03 2.935e-09
 73.12394     -2.6 9.937e+03 4.149e-09
 73.16319     -2.6 1.010e+04 5.269e-09
 73.20243     -2.3 1.010e+04 5.475e-09
 73.24168     -1.3 9.918e+03 4.487e-09
 73.28092     -0.2 9.830e+03 3.050e-09
 73.31485      0.6 9.725e+03 2.439e-09
 73.33447      0.9 9.707e+03 1.764e-09
 73.35941      2.6 9.630e+03 2.018e-09
 73.39866      4.8 9.726e+03 2.145e-09
 73.43480      7.1 9.845e+03 1.798e-09
 73.45442      6.8 9.894e+03 1.984e-09
 73.47715      8.5 9.948e+03 1.560e-09
 73.51639     10.2 9.969e+03 1.373e-09
 73.55564     11.9 1.003e+04 1.281e-09
 73.59488     13.8 1.008e+04 1.279e-09
 73.63413     15.3 1.032e+04 1.401e-09
 73.67337     16.2 1.064e+04 2.161e-09
 73.70271     16.4 1.091e+04 3.590e-09
 73.72224     16.6 1.113e+04 4.837e-09
 73.74186     15.8 1.165e+04 8.079e-09
 73.76148     15.3 1.198e+04 1.387e-08
 73.78110     15.6 1.241e+04 1.946e-08
 73.79336     15.4 1.269e+04 1.942e-08
 73.80317     15.4 1.252e+04 1.753e-08
 73.82035     14.9 1.250e+04 1.562e-08
 73.83997     13.9 1.255e+04 1.141e-08
 73.85445     11.7 1.288e+04 8.789e-09
 73.86426     10.6 1.303e+04 8.826e-09
 73.87922      7.1 1.324e+04 1.029e-08
 73.89884      5.0 1.313e+04 1.664e-08
 73.91846      4.2 1.346e+04 2.054e-08
 73.93808      3.2 1.365e+04 2.029e-08
 73.95771      2.0 1.357e+04 1.624e-08
 73.97733      1.2 1.311e+04 1.079e-08
 73.99695      0.2 1.289e+04 6.646e-09
 74.01657     -1.0 1.317e+04 3.155e-09
 74.02780     -1.1 1.253e+04 2.630e-09
 74.03762     -1.5 1.257e+04 2.448e-09
 74.06573     -1.9 1.310e+04 1.086e-09
 74.10507     -2.2 1.233e+04 7.450e-10
 74.14432     -1.1 1.219e+04 7.544e-10
 74.18356     -0.3 1.214e+04 9.662e-10
 74.22281     -0.2 1.213e+04 1.461e-09
 74.25214     -0.3 1.151e+04 2.737e-09
 74.26225     -0.2 1.187e+04 3.496e-09
 74.26487      0.1 1.189e+04 3.256e-09
 74.27429     -0.5 1.206e+04 3.910e-09
 74.29129     -1.3 1.262e+04 6.176e-09
 74.31091     -1.9 1.289e+04 9.317e-09
 74.33054     -2.2 1.263e+04 1.239e-08
 74.35016     -2.2 1.230e+04 1.372e-08
 74.37969     -2.3 1.204e+04 1.129e-08
 74.41903     -1.9 1.122e+04 5.129e-09
 74.45828     -0.8 1.047e+04 2.357e-09
 74.49752      0.7 1.028e+04 1.140e-09
 74.53677      1.8 1.014e+04 7.491e-10
 74.57602      3.9 9.933e+03 7.181e-10
 74.61526      5.8 9.993e+03 8.411e-10
 74.65451      7.6 1.000e+04 1.119e-09
 74.69375      9.9 9.929e+03 1.434e-09
 74.72153     12.3 9.912e+03 1.327e-09
 74.74115     12.4 9.997e+03 1.858e-09
 74.77224     14.7 9.907e+03 1.394e-09
 74.81149     16.5 9.931e+03 9.253e-10
 74.85073     18.1 9.882e+03 6.703e-10
 74.88998     19.7 9.829e+03 5.370e-10
 74.92922     21.4 9.765e+03 4.836e-10
 74.96847     23.2 9.756e+03 4.907e-10
 75.00771     24.7 9.782e+03 5.520e-10
 75.04696     25.8 9.833e+03 7.948e-10
 75.07492     27.0 9.796e+03 1.522e-09
 75.09454     27.1 9.880e+03 1.878e-09
 75.12545     28.7 9.937e+03 3.162e-09
 75.16469     30.0 9.919e+03 3.361e-09
 75.19042     31.6 9.725e+03 2.789e-09
 75.21005     31.5 9.667e+03 2.234e-09
 75.24319     33.3 9.507e+03 1.882e-09
 75.28243     34.8 9.399e+03 1.371e-09
 75.32168     36.1 9.328e+03 1.066e-09
 75.36092     37.7 9.287e+03 1.056e-09
 75.40017     39.5 9.212e+03 1.154e-09
 75.43941     41.3 9.123e+03 1.247e-09
 75.47866     43.2 9.065e+03 1.216e-09
 75.51790     45.2 8.911e+03 1.055e-09
 75.55715     47.2 8.772e+03 8.346e-10
 75.59639     49.2 8.647e+03 6.860e-10
 75.63564     51.3 8.551e+03 6.240e-10
 75.65932     53.7 8.479e+03 6.105e-10
 75.67894     54.2 8.669e+03 7.218e-10
 75.71413     56.6 8.606e+03 7.011e-10
 75.75337     59.1 8.569e+03 6.753e-10
 75.79262     61.6 8.554e+03 6.451e-10
 75.83186     64.0 8.561e+03 6.150e-10
 75.87111     66.4 8.622e+03 5.974e-10
 75.89498     68.8 8.652e+03 6.007e-10
 75.91461     68.9 8.650e+03 7.261e-10
 75.94960     71.2 8.693e+03 8.165e-10
 75.98885     73.3 8.740e+03 1.015e-09
 76.02809     75.3 8.860e+03 1.437e-09
 76.06734     77.1 9.122e+03 2.257e-09
 76.10658     78.6 9.523e+03 3.597e-09
 76.12821     79.3 9.958e+03 5.311e-09
 76.14783     79.6 1.026e+04 5.381e-09
 76.18507     80.1 1.060e+04 6.908e-09
 76.22432     80.2 1.074e+04 7.453e-09
 76.26356     79.9 1.084e+04 8.037e-09
 76.30281     79.1 1.100e+04 9.073e-09
 76.34205     78.0 1.109e+04 9.836e-09
 76.38130     76.8 1.101e+04 9.539e-09
 76.42054     76.3 1.071e+04 8.098e-09
 76.45979     76.4 1.033e+04 5.962e-09
 76.49903     76.7 9.974e+03 3.988e-09
 76.53828     77.0 9.673e+03 2.602e-09
 76.57748     77.2 9.303e+03 1.936e-09
 76.61673     78.4 9.342e+03 2.285e-09
 76.65602     79.2 9.355e+03 2.435e-09
 76.69526     79.8 9.559e+03 3.364e-09
 76.73451     79.7 1.015e+04 5.646e-09
 76.77375     79.7 1.085e+04 1.035e-08
 76.81300     79.3 1.145e+04 1.480e-08
 76.85224     78.1 1.156e+04 1.500e-08
 76.89149     77.1 1.139e+04 1.305e-08
 76.93073     76.4 1.099e+04 9.730e-09
 76.96998     75.9 1.067e+04 7.364e-09
 77.00922     75.5 1.051e+04 5.961e-09
 77.04638     75.0 1.042e+04 4.640e-09
 77.06600     74.7 1.056e+04 5.317e-09
 77.08771     74.0 1.050e+04 3.848e-09
 77.12696     73.2 1.056e+04 2.970e-09
 77.16620     72.6 1.062e+04 2.937e-09
 77.20545     72.1 1.077e+04 3.164e-09
 77.24469     71.9 1.095e+04 3.660e-09
 77.28394     72.0 1.107e+04 4.090e-09
 77.32319     72.4 1.116e+04 4.287e-09
 77.36243     73.1 1.143e+04 4.826e-09
 77.39177     73.4 1.159e+04 5.268e-09
 77.41129     73.6 1.178e+04 6.070e-09
 77.43091     73.8 1.205e+04 7.655e-09
 77.45054     73.9 1.234e+04 1.042e-08
 77.47016     73.9 1.265e+04 1.490e-08
 77.48978     73.9 1.302e+04 2.174e-08
 77.50940     73.8 1.345e+04 3.169e-08
 77.52489     73.8 1.395e+04 4.393e-08
 77.53077     74.3 1.388e+04 3.767e-08
 77.53491     74.7 1.337e+04 2.242e-08
 77.54865     74.6 1.373e+04 2.742e-08
 77.56827     74.1 1.407e+04 2.764e-08
 77.58790     73.5 1.401e+04 2.667e-08
 77.60752     72.8 1.379e+04 2.418e-08
 77.63705     73.3 1.333e+04 1.694e-08
 77.67639     73.4 1.295e+04 1.352e-08
 77.71564     73.8 1.257e+04 9.454e-09
 77.75488     74.6 1.235e+04 6.158e-09
 77.79413     75.8 1.205e+04 5.166e-09
 77.83337     77.6 1.201e+04 5.230e-09
 77.87262     79.7 1.204e+04 5.690e-09
 77.90196     80.5 1.211e+04 6.232e-09
 77.92148     81.2 1.210e+04 6.490e-09
 77.93513     82.0 1.207e+04 6.233e-09
 77.94494     83.0 1.206e+04 7.526e-09
 77.96073     83.9 1.209e+04 7.399e-09
 77.98035     84.7 1.214e+04 6.913e-09
 77.99378     85.5 1.215e+04 6.101e-09
 78.00359     85.6 1.227e+04 8.378e-09
 78.01959     86.4 1.224e+04 6.976e-09
 78.03922     87.1 1.218e+04 5.492e-09
 78.05884     87.7 1.211e+04 4.198e-09
 78.07846     88.4 1.206e+04 3.238e-09
 78.09808     88.9 1.201e+04 2.579e-09
 78.11771     89.4 1.194e+04 2.199e-09
 78.13733     90.1 1.189e+04 2.082e-09
 78.15695     90.7 1.190e+04 2.124e-09
 78.17657     91.4 1.194e+04 2.286e-09
 78.19620     92.2 1.200e+04 2.679e-09
 78.21582     93.0 1.214e+04 3.408e-09
 78.22823     93.5 1.236e+04 4.740e-09
 78.23804     94.1 1.225e+04 3.457e-09
 78.25507     94.6 1.250e+04 4.855e-09
 78.27469     94.7 1.277e+04 7.325e-09
 78.29431     94.6 1.300e+04 1.243e-08
 78.31393     94.3 1.343e+04 2.126e-08
 78.33356     93.8 1.402e+04 3.246e-08
 78.34516     92.9 1.436e+04 3.635e-08
 78.35497     94.1 1.458e+04 4.337e-08
 78.37280     93.1 1.448e+04 3.925e-08
 78.39242     92.3 1.397e+04 2.495e-08
 78.41205     91.3 1.324e+04 1.095e-08
 78.43167     89.3 1.260e+04 3.723e-09
 78.45129     86.6 1.157e+04 1.782e-09
 78.46267     85.8 1.122e+04 1.695e-09
 78.47248     86.5 1.127e+04 1.857e-09
 78.49054     86.3 1.102e+04 1.835e-09
 78.51016     86.4 1.100e+04 1.837e-09
 78.53969     87.1 1.104e+04 2.040e-09
 78.57903     87.9 1.095e+04 2.233e-09
 78.61828     88.5 1.091e+04 2.582e-09
 78.65752     88.6 1.091e+04 3.103e-09
 78.69677     88.7 1.090e+04 3.664e-09
 78.73602     88.6 1.101e+04 4.215e-09
 78.77526     88.5 1.125e+04 4.643e-09
 78.80460     88.0 1.143e+04 4.845e-09
 78.82412     87.6 1.153e+04 4.863e-09
 78.84374     87.3 1.155e+04 4.854e-09
 78.86337     87.0 1.158e+04 4.851e-09
 78.88299     86.8 1.160e+04 4.859e-09
 78.90261     86.5 1.165e+04 4.891e-09
 78.92176     86.3 1.170e+04 5.018e-09
 78.93157     86.2 1.143e+04 4.308e-09
 78.94186     85.9 1.152e+04 4.571e-09
 78.96148     85.6 1.165e+04 5.007e-09
 78.98110     85.4 1.178e+04 5.663e-09
 79.00073     84.8 1.197e+04 6.689e-09
 79.02035     84.3 1.215e+04 7.687e-09
 79.04988     83.5 1.244e+04 8.053e-09
 79.08922     81.4 1.256e+04 7.775e-09
 79.12847     79.1 1.270e+04 6.426e-09
 79.15551     77.3 1.264e+04 5.069e-09
 79.17513     77.3 1.225e+04 3.044e-09
 79.19705     75.7 1.237e+04 3.191e-09
 79.21657     74.4 1.242e+04 3.765e-09
 79.23620     73.5 1.245e+04 4.886e-09
 79.25582     72.9 1.257e+04 6.155e-09
 79.27544     72.4 1.278e+04 7.217e-09
 79.29507     71.6 1.314e+04 7.558e-09
 79.31469     70.5 1.348e+04 7.553e-09
 79.33431     69.3 1.348e+04 7.477e-09
 79.35393     68.4 1.345e+04 7.336e-09
 79.37356     67.7 1.345e+04 7.439e-09
 79.39065     66.7 1.370e+04 8.077e-09
 79.40046     67.9 1.358e+04 7.784e-09
 79.41280     67.0 1.378e+04 8.766e-09
 79.43242     66.3 1.381e+04 1.070e-08
 79.45205     65.9 1.364e+04 1.250e-08
 79.47167     65.7 1.349e+04 1.299e-08
 79.49129     65.6 1.343e+04 1.244e-08
 79.51091     65.3 1.334e+04 1.162e-08
 79.53054     64.9 1.323e+04 1.086e-08
 79.55016     64.6 1.312e+04 1.022e-08
 79.56544     64.4 1.298e+04 9.528e-09
 79.57526     64.7 1.318e+04 1.157e-08
 79.58940     64.5 1.296e+04 9.645e-09
 79.60903     64.6 1.280e+04 7.978e-09
 79.62510     64.6 1.270e+04 6.715e-09
 79.63491     65.4 1.261e+04 6.559e-09
 79.64827     65.4 1.256e+04 5.549e-09
 79.66790     65.6 1.251e+04 5.046e-09
 79.68752     65.9 1.235e+04 5.005e-09
 79.70714     66.4 1.233e+04 5.058e-09
 79.72676     67.1 1.229e+04 5.192e-09
 79.74639     68.0 1.225e+04 5.435e-09
 79.76601     68.9 1.224e+04 5.706e-09
 79.78563     70.2 1.226e+04 6.425e-09
 79.80525     71.1 1.232e+04 7.062e-09
 79.83479     72.3 1.249e+04 8.029e-09
 79.85964     73.9 1.258e+04 9.343e-09
 79.87926     75.3 1.231e+04 7.928e-09
 79.90346     76.2 1.267e+04 1.091e-08
 79.92299     76.7 1.303e+04 1.429e-08
 79.94261     77.2 1.339e+04 1.841e-08
 79.96223     77.5 1.369e+04 2.260e-08
 79.97548     77.7 1.390e+04 2.590e-08
 79.98529     78.4 1.431e+04 3.417e-08
 80.00148     78.5 1.453e+04 3.892e-08
 80.02110     78.5 1.464e+04 4.080e-08
 80.04073     78.5 1.462e+04 3.957e-08
 80.06035     78.5 1.448e+04 3.600e-08
 80.07997     78.6 1.425e+04 3.015e-08
 80.09399     78.8 1.398e+04 2.373e-08
 80.10380     79.5 1.368e+04 1.997e-08
 80.11922     79.6 1.349e+04 1.663e-08
 80.13884     79.7 1.330e+04 1.382e-08
 80.15846     79.9 1.314e+04 1.186e-08
 80.17808     80.2 1.296e+04 1.070e-08
 80.19771     80.5 1.285e+04 1.007e-08
 80.21733     81.1 1.276e+04 9.302e-09
 80.23695     81.5 1.271e+04 8.662e-09
 80.25657     82.1 1.262e+04 7.884e-09
 80.27620     82.8 1.258e+04 7.145e-09
 80.29582     83.5 1.257e+04 6.597e-09
 80.31544     84.3 1.257e+04 5.979e-09
 80.32844     85.2 1.260e+04 5.068e-09
 80.33825     85.6 1.266e+04 6.906e-09
 80.35469     86.5 1.263e+04 5.705e-09
 80.37431     87.3 1.263e+04 4.456e-09
 80.38551     87.7 1.265e+04 3.479e-09
 80.39532     87.8 1.273e+04 4.033e-09
 80.42346     89.1 1.255e+04 3.586e-09
 80.46281     90.8 1.234e+04 3.342e-09
 80.50205     92.7 1.236e+04 3.472e-09
 80.54130     94.7 1.248e+04 3.751e-09
 80.58054     96.6 1.261e+04 3.932e-09
 80.60988     97.7 1.263e+04 4.210e-09
 80.62940     98.6 1.261e+04 4.213e-09
 80.64903     99.3 1.256e+04 4.070e-09
 80.66865    100.0 1.247e+04 3.888e-09
 80.68827    100.8 1.236e+04 3.682e-09
 80.70790    101.5 1.225e+04 3.470e-09
 80.72752    102.3 1.216e+04 3.262e-09
 80.74714    103.1 1.210e+04 3.084e-09
 80.76676    103.9 1.206e+04 2.946e-09
 80.78573    104.7 1.202e+04 2.876e-09
 80.79554    104.7 1.199e+04 2.978e-09
 80.79733    105.6 1.198e+04 2.988e-09
 80.80714    106.1 1.201e+04 3.603e-09
 80.82563    107.0 1.201e+04 3.642e-09
 80.84525    107.8 1.203e+04 3.776e-09
 80.86488    108.4 1.206e+04 4.013e-09
 80.88450    109.1 1.208e+04 4.406e-09
 80.90412    109.6 1.210e+04 5.009e-09
 80.92374    110.1 1.212e+04 5.829e-09
 80.94337    110.6 1.216e+04 6.843e-09
 80.96299    111.0 1.226e+04 8.042e-09
 80.98261    111.0 1.238e+04 9.485e-09
 81.00223    110.9 1.255e+04 1.135e-08
 81.02186    110.5 1.274e+04 1.363e-08
 81.03178    109.9 1.294e+04 1.626e-08
 81.04159    110.4 1.272e+04 1.426e-08
 81.06110    109.9 1.287e+04 1.673e-08
 81.08073    109.4 1.291e+04 1.831e-08
 81.10035    108.9 1.290e+04 1.838e-08
 81.11997    108.5 1.284e+04 1.811e-08
 81.13959    108.4 1.274e+04 1.742e-08
 81.15922    108.5 1.266e+04 1.660e-08
 81.17884    108.6 1.258e+04 1.559e-08
 81.19576    108.8 1.257e+04 1.449e-08
 81.20557    108.7 1.232e+04 1.205e-08
 81.21808    109.0 1.224e+04 1.090e-08
 81.24670    109.4 1.234e+04 1.103e-08
 81.26642    110.0 1.198e+04 8.688e-09
 81.27705    110.4 1.183e+04 7.887e-09
 81.29657    110.9 1.185e+04 7.630e-09
 81.31620    111.6 1.188e+04 7.585e-09
 81.33582    112.5 1.190e+04 7.494e-09
 81.35544    113.4 1.189e+04 7.296e-09
 81.37506    114.4 1.183e+04 7.059e-09
 81.39469    115.3 1.176e+04 6.851e-09
 81.41431    116.3 1.168e+04 6.663e-09
 81.43393    117.2 1.164e+04 6.565e-09
 81.45356    118.0 1.163e+04 6.642e-09
 81.47318    118.9 1.164e+04 6.874e-09
 81.49086    119.7 1.168e+04 7.305e-09
 81.50067    120.1 1.162e+04 6.967e-09
 81.51242    120.9 1.168e+04 7.394e-09
 81.53205    121.7 1.177e+04 7.866e-09
 81.55167    122.4 1.186e+04 8.175e-09
 81.57129    123.0 1.194e+04 8.277e-09
 81.59091    123.6 1.201e+04 8.259e-09
 81.60579    123.9 1.215e+04 8.200e-09
 81.61560    123.9 1.220e+04 8.985e-09
 81.63016    124.0 1.234e+04 8.447e-09
 81.64978    123.9 1.260e+04 8.345e-09
 81.66940    123.6 1.294e+04 9.017e-09
 81.68903    122.9 1.350e+04 1.144e-08
 81.70865    122.1 1.438e+04 1.894e-08
 81.72531    121.4 1.543e+04 3.754e-08
 81.73512    122.2 1.345e+04 1.164e-08
 81.74789    121.5 1.481e+04 2.460e-08
 81.76752    121.3 1.604e+04 5.329e-08
 81.78714    121.3 1.699e+04 9.717e-08
 81.80676    121.4 1.765e+04 1.432e-07
 81.82143    120.4 1.802e+04 1.662e-07
 81.83119    120.0 1.822e+04 1.714e-07
 81.84100    119.7 1.828e+04 1.531e-07
 81.84734    118.9 1.864e+04 1.324e-07
 81.85224    119.3 1.818e+04 1.155e-07
 81.86063    118.1 1.916e+04 8.385e-08
 81.87044    116.7 2.031e+04 5.791e-08
 81.88025    114.9 2.274e+04 2.888e-08
 81.89006    112.5 2.345e+04 2.083e-08
 81.90483    110.2 2.062e+04 7.315e-08
 81.92450    106.4 1.885e+04 7.466e-08
 81.94412    104.5 1.797e+04 8.874e-08
 81.95975    104.5 1.759e+04 1.026e-07
 81.96957    103.3 1.779e+04 9.934e-08
 81.98337    103.9 1.743e+04 1.046e-07
 82.00299    104.8 1.726e+04 1.021e-07
 82.01582    105.5 1.714e+04 9.658e-08
 82.02563    107.0 1.685e+04 8.773e-08
 82.04223    107.2 1.687e+04 8.722e-08
 82.06186    107.2 1.674e+04 8.184e-08
 82.08148    107.0 1.641e+04 6.966e-08
 82.10110    106.5 1.595e+04 5.762e-08
 82.12073    105.8 1.565e+04 5.275e-08
 82.14035    105.0 1.560e+04 5.404e-08
 82.15997    104.0 1.566e+04 5.878e-08
 82.17959    103.0 1.572e+04 6.234e-08
 82.19420    101.8 1.561e+04 5.948e-08
 82.20401    102.2 1.597e+04 7.282e-08
 82.21884    101.0 1.583e+04 6.907e-08
 82.23846    100.1 1.529e+04 5.463e-08
 82.25808     99.2 1.443e+04 3.597e-08
 82.27771     98.3 1.345e+04 2.230e-08
 82.29733     97.3 1.257e+04 1.458e-08
 82.31695     96.4 1.194e+04 1.062e-08
 82.33657     95.7 1.151e+04 8.530e-09
 82.35620     95.3 1.120e+04 7.406e-09
 82.37582     95.0 1.095e+04 6.830e-09
 82.39544     95.0 1.073e+04 6.660e-09
 82.41506     95.1 1.057e+04 6.704e-09
 82.42585     95.2 1.052e+04 6.763e-09
 82.42962     95.1 1.066e+04 7.423e-09
 82.43846     95.2 1.069e+04 7.525e-09
 82.45431     95.5 1.061e+04 7.455e-09
 82.47393     95.8 1.053e+04 7.276e-09
 82.49356     96.1 1.042e+04 6.915e-09
 82.51318     96.4 1.027e+04 6.301e-09
 82.53280     96.8 1.006e+04 5.595e-09
 82.55242     97.2 9.881e+03 4.851e-09
 82.58195     98.2 9.713e+03 4.192e-09
 82.62130     99.9 9.400e+03 3.522e-09
 82.65348    102.0 9.159e+03 3.530e-09
 82.67310    102.2 9.092e+03 3.305e-09
 82.69979    104.6 8.889e+03 3.122e-09
 82.73903    107.0 8.719e+03 3.061e-09
 82.77828    109.6 8.681e+03 3.129e-09
 82.81752    112.1 8.650e+03 3.259e-09
 82.85677    114.6 8.701e+03 3.521e-09
 82.89601    117.1 8.814e+03 3.960e-09
 82.93526    119.5 8.948e+03 4.554e-09
 82.96460    121.2 8.867e+03 4.604e-09
 82.98412    122.3 8.905e+03 5.089e-09
 83.00374    123.1 8.967e+03 5.779e-09
 83.02337    124.2 9.034e+03 6.498e-09
 83.04299    125.1 9.141e+03 7.213e-09
 83.06261    126.0 9.238e+03 7.748e-09
 83.08223    126.8 9.313e+03 8.104e-09
 83.10186    127.4 9.340e+03 8.345e-09
 83.12148    128.0 9.316e+03 8.479e-09
 83.13199    128.6 9.291e+03 8.517e-09
 83.14180    129.0 9.261e+03 8.374e-09
 83.16073    129.6 9.239e+03 8.554e-09
 83.18035    130.2 9.223e+03 8.525e-09
 83.19997    130.6 9.157e+03 8.329e-09
 83.21959    130.8 9.017e+03 7.927e-09
 83.23610    131.1 8.826e+03 7.406e-09
 83.24591    131.7 9.050e+03 8.227e-09
 83.25884    131.9 8.801e+03 7.491e-09
 83.27846    132.1 8.568e+03 6.750e-09
 83.29808    132.3 8.459e+03 6.397e-09
 83.31771    133.0 8.372e+03 6.011e-09
 83.33733    133.1 8.354e+03 5.887e-09
 83.36686    134.2 8.252e+03 5.446e-09
 83.40620    134.9 8.041e+03 4.562e-09
 83.44545    135.5 7.890e+03 4.020e-09
 83.48469    136.3 7.920e+03 3.786e-09
 83.52394    137.2 8.101e+03 4.109e-09
 83.56318    138.1 8.554e+03 4.969e-09
 83.59127    139.1 9.101e+03 6.319e-09
 83.61089    139.0 9.301e+03 7.063e-09
 83.64168    140.2 9.764e+03 8.799e-09
 83.68092    141.7 1.026e+04 1.077e-08
 83.72017    143.4 1.082e+04 1.294e-08
 83.74950    144.2 1.107e+04 1.409e-08
 83.76903    144.8 1.136e+04 1.548e-08
 83.78865    145.2 1.163e+04 1.698e-08
 83.80827    145.6 1.186e+04 1.855e-08
 83.82552    146.0 1.204e+04 1.998e-08
 83.83533    145.7 1.203e+04 1.945e-08
 83.84752    146.1 1.209e+04 1.976e-08
 83.86714    146.5 1.208e+04 1.964e-08
 83.88676    147.1 1.199e+04 1.855e-08
 83.90639    147.8 1.179e+04 1.626e-08
 83.92601    148.7 1.154e+04 1.356e-08
 83.94563    149.6 1.131e+04 1.115e-08
 83.96525    150.3 1.117e+04 9.659e-09
 83.99478    151.6 1.099e+04 7.700e-09
 84.03413    153.9 1.072e+04 6.201e-09
 84.05636    156.2 1.055e+04 5.122e-09
 84.06277    156.2 1.052e+04 5.059e-09
 84.07978    156.0 1.045e+04 4.870e-09
 84.11262    158.4 1.044e+04 4.374e-09
 84.15186    160.8 1.048e+04 4.234e-09
 84.19111    162.9 1.056e+04 4.235e-09
 84.23035    164.9 1.063e+04 4.146e-09
 84.26960    166.8 1.069e+04 3.811e-09
 84.30884    168.7 1.070e+04 3.297e-09
 84.34809    170.7 1.068e+04 2.791e-09
 84.38734    172.7 1.062e+04 2.547e-09
 84.42658    174.8 1.064e+04 2.574e-09
 84.46583    176.9 1.074e+04 2.855e-09
 84.49516    177.9 1.070e+04 2.805e-09
 84.51469    178.5 1.076e+04 3.109e-09
 84.52886    178.9 1.080e+04 3.980e-09
 84.53867    178.9 1.086e+04 4.069e-09
 84.55393    179.5 1.091e+04 5.332e-09
 84.57356    180.0 1.104e+04 6.831e-09
 84.59318    180.5 1.124e+04 8.458e-09
 84.61280    181.0 1.144e+04 1.009e-08
 84.63242    181.2 1.152e+04 1.174e-08
 84.65205    181.3 1.152e+04 1.253e-08
 84.67167    181.3 1.145e+04 1.211e-08
 84.69129    181.3 1.127e+04 1.108e-08
 84.71091    181.1 1.098e+04 9.765e-09
 84.73054    180.9 1.064e+04 8.358e-09
 84.75016    180.6 1.029e+04 7.013e-09
 84.76331    180.4 9.969e+03 5.779e-09
 84.77312    180.4 1.007e+04 6.173e-09
 84.78940    180.2 9.791e+03 5.185e-09
 84.80903    180.0 9.545e+03 4.157e-09
 84.82865    179.5 9.343e+03 3.270e-09
 84.85670    179.5 9.031e+03 2.540e-09
 84.87642    179.1 9.123e+03 2.604e-09
 84.89752    179.4 8.666e+03 2.291e-09
 84.93677    179.6 8.678e+03 2.318e-09
 84.97601    180.0 8.892e+03 2.634e-09
 84.99785    179.6 9.143e+03 3.172e-09
 85.00756    178.9 9.267e+03 3.402e-09
 85.02488    178.9 9.432e+03 4.243e-09
 85.04450    178.8 9.574e+03 4.958e-09
 85.06412    178.8 9.636e+03 5.026e-09
 85.08374    178.5 9.643e+03 4.901e-09
 85.10337    178.1 9.606e+03 4.603e-09
 85.12299    177.4 9.553e+03 4.400e-09
 85.14261    176.6 9.551e+03 4.404e-09
 85.16223    175.6 9.625e+03 4.628e-09
 85.18186    174.2 9.928e+03 5.593e-09
 85.20148    172.6 1.048e+04 7.641e-09
 85.22110    170.9 1.114e+04 1.122e-08
 85.23220    169.5 1.173e+04 1.571e-08
 85.24201    168.4 1.212e+04 1.844e-08
 85.26035    167.1 1.227e+04 1.849e-08
 85.27644    165.8 1.211e+04 1.665e-08
 85.28625    167.4 1.196e+04 1.619e-08
 85.29959    166.2 1.173e+04 1.318e-08
 85.31922    165.0 1.122e+04 8.057e-09
 85.33884    163.9 1.058e+04 4.940e-09
 85.35846    163.0 9.960e+03 3.185e-09
 85.37808    162.3 9.462e+03 2.405e-09
 85.39771    162.0 9.352e+03 2.281e-09
 85.41733    161.5 9.394e+03 2.359e-09
 85.43695    160.2 9.634e+03 2.920e-09
 85.45657    158.6 1.021e+04 4.795e-09
 85.46665    157.3 1.083e+04 8.310e-09
 85.47646    157.6 1.081e+04 8.075e-09
 85.49582    156.8 1.129e+04 1.212e-08
 85.51544    156.1 1.150e+04 1.401e-08
 85.53506    155.5 1.148e+04 1.326e-08
 85.55469    155.0 1.132e+04 1.052e-08
 85.57431    154.3 1.104e+04 6.999e-09
 85.59393    153.3 1.068e+04 4.480e-09
 85.61355    152.1 1.031e+04 3.543e-09
 85.63318    151.3 1.026e+04 3.584e-09
 85.65280    150.6 1.030e+04 3.875e-09
 85.67242    148.2 1.105e+04 5.743e-09
 85.68647    144.5 1.271e+04 1.117e-08
 85.69552    145.5 1.222e+04 9.280e-09
 85.70109    147.6 1.215e+04 1.039e-08
 85.70671    144.7 1.341e+04 1.622e-08
 85.71648    142.5 1.444e+04 2.284e-08
 85.72629    138.2 1.673e+04 5.420e-08
 85.73610    133.6 1.852e+04 1.568e-07
 85.74591    128.2 1.955e+04 4.378e-07
 85.75572    120.4 2.020e+04 9.035e-07
 85.76553    110.4 2.061e+04 1.024e-06
 85.77534    100.8 2.063e+04 7.324e-07
 85.78516     93.8 1.979e+04 3.221e-07
 85.79497     88.3 1.807e+04 1.098e-07
 85.80478     81.8 1.626e+04 3.484e-08
 85.81331     75.6 1.404e+04 1.676e-08
 85.81822     75.2 1.446e+04 1.710e-08
 85.82440     69.7 1.306e+04 1.400e-08
 85.83421     69.2 1.294e+04 1.378e-08
 85.84898     65.4 1.245e+04 1.415e-08
 85.86865     62.5 1.225e+04 1.520e-08
 85.88827     61.4 1.233e+04 1.671e-08
 85.90789     60.4 1.242e+04 1.665e-08
 85.92573     59.0 1.244e+04 1.563e-08
 85.93554     57.8 1.217e+04 1.342e-08
 85.94714     55.6 1.210e+04 1.257e-08
 85.96676     53.1 1.217e+04 1.250e-08
 85.98639     50.9 1.210e+04 1.252e-08
 86.00601     49.2 1.192e+04 1.228e-08
 86.02563     48.1 1.166e+04 1.076e-08
 86.04525     47.3 1.140e+04 8.768e-09
 86.06488     46.4 1.122e+04 7.120e-09
 86.08450     45.5 1.112e+04 6.147e-09
 86.09651     44.7 1.111e+04 6.098e-09
 86.10632     45.0 1.127e+04 7.199e-09
 86.12374     44.3 1.125e+04 7.352e-09
 86.14337     44.0 1.117e+04 7.674e-09
 86.16018     43.9 1.106e+04 7.694e-09
 86.16999     44.4 1.107e+04 7.802e-09
 86.18261     44.1 1.103e+04 7.791e-09
 86.20223     43.4 1.103e+04 7.917e-09
 86.22186     42.5 1.105e+04 8.265e-09
 86.24148     41.5 1.104e+04 8.725e-09
 86.26110     40.4 1.098e+04 9.219e-09
 86.28072     39.0 1.098e+04 1.010e-08
 86.30035     37.3 1.122e+04 1.214e-08
 86.31997     35.3 1.162e+04 1.549e-08
 86.33959     33.6 1.193e+04 1.833e-08
 86.35922     32.2 1.185e+04 1.936e-08
 86.37884     31.4 1.152e+04 1.738e-08
 86.39462     29.4 1.146e+04 1.467e-08
 86.40443     28.8 1.173e+04 1.704e-08
 86.41808     25.5 1.229e+04 1.861e-08
 86.43771     21.1 1.303e+04 2.497e-08
 86.45733     18.9 1.311e+04 3.398e-08
 86.47695     18.4 1.321e+04 3.788e-08
 86.49657     17.6 1.308e+04 3.027e-08
 86.50654     15.2 1.237e+04 1.994e-08
 86.51635     14.8 1.220e+04 1.840e-08
 86.53582     11.7 1.101e+04 1.258e-08
 86.55544      9.4 1.059e+04 1.096e-08
 86.57506      8.0 1.067e+04 1.146e-08
 86.59469      6.9 1.085e+04 1.261e-08
 86.61431      5.9 1.093e+04 1.315e-08
 86.62907      4.9 1.087e+04 1.267e-08
 86.63888      4.5 1.076e+04 1.233e-08
 86.65355      3.4 1.047e+04 1.055e-08
 86.67318      2.1 1.022e+04 9.063e-09
 86.69280      0.4 1.001e+04 8.105e-09
 86.71242     -1.1 1.004e+04 7.937e-09
 86.73205     -3.0 1.038e+04 8.818e-09
 86.75167     -4.7 1.078e+04 1.068e-08
 86.77129     -6.5 1.112e+04 1.249e-08
 86.79091     -8.5 1.128e+04 1.346e-08
 86.81054    -10.8 1.131e+04 1.354e-08
 86.83016    -13.0 1.126e+04 1.328e-08
 86.84978    -15.2 1.092e+04 1.161e-08
 86.86352    -16.9 1.046e+04 9.794e-09
 86.87333    -16.9 1.023e+04 9.115e-09
 86.88903    -18.1 9.995e+03 8.228e-09
 86.90676    -19.2 9.814e+03 7.205e-09
 86.91657    -18.3 1.016e+04 8.962e-09
 86.92827    -19.7 1.000e+04 7.685e-09
 86.94789    -21.5 9.895e+03 6.682e-09
 86.96752    -23.3 9.877e+03 6.413e-09
 86.98714    -25.1 9.959e+03 6.496e-09
 87.00676    -26.6 1.009e+04 7.234e-09
 87.02639    -27.4 1.018e+04 7.938e-09
 87.04601    -27.9 1.021e+04 8.105e-09
 87.06563    -28.3 1.019e+04 7.306e-09
 87.08525    -29.0 1.015e+04 5.685e-09
 87.09796    -30.1 1.003e+04 4.588e-09
 87.10777    -30.5 9.946e+03 4.385e-09
 87.12450    -31.7 9.873e+03 4.036e-09
 87.14412    -32.8 9.864e+03 4.028e-09
 87.16374    -33.8 1.001e+04 4.511e-09
 87.18337    -34.4 1.017e+04 5.140e-09
 87.20299    -35.0 1.034e+04 5.470e-09
 87.22261    -35.7 1.046e+04 5.545e-09
 87.24223    -36.8 1.057e+04 5.564e-09
 87.26186    -38.1 1.081e+04 5.634e-09
 87.28148    -39.6 1.111e+04 6.268e-09
 87.30110    -41.0 1.139e+04 7.454e-09
 87.31679    -42.3 1.168e+04 8.772e-09
 87.32660    -43.0 1.197e+04 1.026e-08
 87.33241    -44.2 1.214e+04 1.086e-08
 87.34222    -45.1 1.215e+04 1.091e-08
 87.35997    -46.3 1.213e+04 1.030e-08
 87.37959    -47.3 1.194e+04 9.065e-09
 87.39922    -48.2 1.168e+04 7.648e-09
 87.41884    -48.8 1.143e+04 6.315e-09
 87.43846    -49.2 1.122e+04 5.093e-09
 87.45808    -49.6 1.101e+04 3.950e-09
 87.48761    -50.2 1.063e+04 2.887e-09
 87.52696    -49.3 1.028e+04 2.202e-09
 87.56620    -48.1 1.013e+04 1.908e-09
 87.60545    -46.7 1.011e+04 1.858e-09
 87.64469    -45.4 1.030e+04 2.065e-09
 87.68394    -44.5 1.054e+04 2.450e-09
 87.72318    -44.1 1.072e+04 2.786e-09
 87.76243    -44.2 1.094e+04 3.072e-09
 87.79169    -45.4 1.121e+04 4.075e-09
 87.81131    -46.2 1.114e+04 3.763e-09
 87.83101    -46.8 1.146e+04 5.681e-09
 87.85054    -48.0 1.176e+04 7.817e-09
 87.87016    -48.9 1.214e+04 1.041e-08
 87.88978    -50.0 1.246e+04 1.225e-08
 87.90940    -51.3 1.265e+04 1.327e-08
 87.92903    -52.7 1.268e+04 1.347e-08
 87.94865    -53.8 1.259e+04 1.266e-08
 87.96827    -54.7 1.241e+04 1.024e-08
 87.98789    -55.5 1.225e+04 7.777e-09
 88.00752    -56.2 1.206e+04 5.937e-09
 88.02594    -56.6 1.198e+04 4.642e-09
 88.03575    -57.3 1.197e+04 3.941e-09
 88.04676    -57.6 1.198e+04 3.057e-09
 88.06638    -57.8 1.204e+04 2.524e-09
 88.08601    -57.9 1.209e+04 2.343e-09
 88.10563    -57.7 1.218e+04 2.342e-09
 88.12525    -57.8 1.220e+04 2.422e-09
 88.13695    -57.6 1.234e+04 2.627e-09
 88.15667    -57.6 1.230e+04 3.283e-09
 88.19413    -57.2 1.255e+04 4.186e-09
 88.23337    -57.0 1.279e+04 5.018e-09
 88.26058    -56.8 1.291e+04 5.270e-09
 88.28020    -56.6 1.293e+04 4.418e-09
 88.31186    -56.3 1.304e+04 4.170e-09
 88.35111    -55.7 1.320e+04 3.388e-09
 88.39035    -54.9 1.323e+04 2.852e-09
 88.42960    -54.0 1.321e+04 2.479e-09
 88.46884    -53.0 1.321e+04 2.242e-09
 88.50809    -51.9 1.321e+04 2.170e-09
 88.54733    -50.9 1.327e+04 2.269e-09
 88.58658    -50.5 1.347e+04 3.596e-09
 88.62583    -50.3 1.383e+04 6.520e-09
 88.65516    -50.1 1.420e+04 1.032e-08
 88.67469    -50.9 1.423e+04 1.252e-08
 88.69431    -51.6 1.424e+04 1.303e-08
 88.71393    -52.7 1.415e+04 1.280e-08
 88.72928    -53.9 1.409e+04 1.258e-08
 88.73909    -53.4 1.427e+04 1.451e-08
 88.75318    -54.6 1.423e+04 1.471e-08
 88.77280    -55.7 1.421e+04 1.576e-08
 88.79242    -56.6 1.419e+04 1.653e-08
 88.81205    -57.4 1.417e+04 1.670e-08
 88.83167    -57.9 1.408e+04 1.577e-08
 88.85129    -58.3 1.404e+04 1.390e-08
 88.87091    -58.8 1.399e+04 1.225e-08
 88.89054    -59.2 1.394e+04 1.101e-08
 88.91016    -59.5 1.387e+04 1.033e-08
 88.92978    -59.8 1.384e+04 1.017e-08
 88.94710    -60.3 1.386e+04 1.025e-08
 88.95691    -61.0 1.397e+04 1.088e-08
 88.96373    -61.6 1.408e+04 1.134e-08
 88.97354    -61.8 1.413e+04 1.102e-08
 88.98865    -62.4 1.419e+04 1.085e-08
 89.00827    -63.0 1.424e+04 9.683e-09
 89.02789    -63.7 1.426e+04 7.782e-09
 89.04752    -64.3 1.425e+04 5.949e-09
 89.06714    -65.0 1.423e+04 4.728e-09
 89.08676    -65.8 1.424e+04 4.309e-09
 89.10638    -66.6 1.428e+04 4.271e-09
 89.12601    -67.8 1.449e+04 5.264e-09
 89.14563    -68.8 1.447e+04 7.815e-09
 89.16525    -69.7 1.438e+04 1.047e-08
 89.18488    -70.5 1.433e+04 1.137e-08
 89.19827    -71.7 1.405e+04 1.127e-08
 89.21799    -71.2 1.422e+04 1.143e-08
 89.24384    -72.2 1.404e+04 9.904e-09
 89.26337    -72.6 1.401e+04 8.988e-09
 89.28299    -73.3 1.392e+04 6.274e-09
 89.30261    -74.0 1.389e+04 3.904e-09
 89.33214    -75.2 1.357e+04 2.234e-09
 89.37149    -75.1 1.329e+04 1.683e-09
 89.41073    -74.4 1.318e+04 1.498e-09
 89.44998    -73.9 1.324e+04 1.481e-09
 89.48922    -74.0 1.361e+04 1.785e-09
 89.52847    -74.0 1.377e+04 3.358e-09
 89.55780    -74.4 1.396e+04 5.437e-09
 89.57733    -75.2 1.416e+04 7.311e-09
 89.59695    -75.8 1.431e+04 8.585e-09
 89.61657    -76.7 1.432e+04 8.906e-09
 89.63620    -77.5 1.425e+04 8.905e-09
 89.65582    -77.9 1.396e+04 7.905e-09
 89.66707    -78.2 1.380e+04 5.961e-09
 89.68679    -77.7 1.376e+04 5.383e-09
 89.72469    -77.2 1.350e+04 3.303e-09
 89.75754    -76.1 1.322e+04 1.882e-09
 89.77717    -76.6 1.299e+04 1.652e-09
 89.80318    -74.9 1.285e+04 1.225e-09
 89.84243    -73.1 1.281e+04 1.134e-09
 89.88167    -71.2 1.279e+04 1.125e-09
 89.92092    -69.4 1.273e+04 1.175e-09
 89.96016    -67.8 1.271e+04 1.240e-09
 89.99941    -66.2 1.274e+04 1.264e-09
 90.03866    -64.8 1.277e+04 1.266e-09
 90.07790    -63.8 1.285e+04 1.270e-09
 90.11653    -63.2 1.281e+04 1.716e-09
 90.13616    -62.5 1.294e+04 1.950e-09
 90.15639    -62.1 1.313e+04 2.933e-09
 90.19564    -61.9 1.336e+04 4.172e-09
 90.23488    -62.1 1.339e+04 5.075e-09
 90.27413    -63.0 1.333e+04 5.184e-09
 90.31337    -63.1 1.296e+04 4.119e-09
 90.35262    -62.8 1.273e+04 2.541e-09
 90.39186    -62.2 1.252e+04 1.734e-09
 90.43111    -61.1 1.244e+04 1.585e-09
 90.47035    -59.5 1.257e+04 1.705e-09
 90.50960    -58.3 1.270e+04 2.011e-09
 90.54884    -57.1 1.272e+04 2.217e-09
 90.57761    -56.0 1.269e+04 2.234e-09
 90.59457    -56.7 1.281e+04 2.514e-09
 90.60505    -56.4 1.299e+04 2.804e-09
 90.62733    -55.4 1.290e+04 2.482e-09
 90.66658    -54.1 1.268e+04 2.195e-09
 90.70583    -52.5 1.260e+04 2.089e-09
 90.74507    -50.9 1.261e+04 2.066e-09
 90.78432    -49.4 1.262e+04 2.075e-09
 90.82356    -47.9 1.261e+04 2.136e-09
 90.86281    -46.9 1.256e+04 2.282e-09
 90.90205    -46.1 1.263e+04 2.729e-09
 90.94130    -45.9 1.280e+04 3.865e-09
 90.98054    -45.9 1.311e+04 6.048e-09
 91.01979    -46.8 1.345e+04 8.775e-09
 91.05432    -47.9 1.354e+04 1.095e-08
 91.07394    -49.2 1.357e+04 1.162e-08
 91.09828    -51.0 1.333e+04 1.052e-08
 91.12761    -52.1 1.294e+04 9.057e-09
 91.14714    -52.6 1.275e+04 7.880e-09
 91.16676    -53.0 1.246e+04 6.574e-09
 91.18638    -53.2 1.232e+04 5.503e-09
 91.20601    -53.4 1.211e+04 4.242e-09
 91.22563    -53.6 1.198e+04 3.224e-09
 91.25516    -54.0 1.173e+04 2.323e-09
 91.29450    -53.6 1.136e+04 1.761e-09
 91.33375    -53.0 1.119e+04 1.510e-09
 91.37300    -52.2 1.117e+04 1.475e-09
 91.39767    -51.6 1.112e+04 1.747e-09
 91.41729    -52.1 1.108e+04 1.864e-09
 91.45149    -51.6 1.114e+04 2.256e-09
 91.49073    -51.1 1.123e+04 2.605e-09
 91.52321    -50.8 1.131e+04 2.922e-09
 91.54284    -51.3 1.110e+04 2.659e-09
 91.56922    -51.0 1.115e+04 2.930e-09
 91.60847    -50.7 1.126e+04 3.433e-09
 91.64771    -50.7 1.144e+04 4.371e-09
 91.68696    -50.9 1.170e+04 5.807e-09
 91.71629    -51.0 1.189e+04 6.925e-09
 91.73582    -51.7 1.194e+04 7.121e-09
 91.75544    -52.3 1.195e+04 7.151e-09
 91.76728    -53.0 1.177e+04 6.332e-09
 91.77709    -53.4 1.180e+04 6.576e-09
 91.79469    -54.2 1.161e+04 5.623e-09
 91.80750    -54.9 1.142e+04 4.854e-09
 91.81732    -55.6 1.129e+04 4.315e-09
 91.83393    -56.3 1.112e+04 3.739e-09
 91.85355    -56.8 1.091e+04 3.206e-09
 91.88309    -56.5 1.064e+04 2.720e-09
 91.92243    -55.9 1.033e+04 2.017e-09
 91.96167    -55.1 1.020e+04 1.338e-09
 91.99211    -54.6 1.005e+04 9.205e-10
 92.01173    -55.7 9.998e+03 9.415e-10
 92.04016    -55.1 9.821e+03 8.821e-10
 92.07941    -54.1 9.791e+03 8.839e-10
 92.11866    -52.9 9.730e+03 1.007e-09
 92.15790    -51.8 9.729e+03 1.143e-09
 92.19715    -50.8 9.768e+03 1.217e-09
 92.21773    -49.9 9.809e+03 1.229e-09
 92.23735    -51.0 9.796e+03 1.234e-09
 92.27564    -50.5 9.937e+03 1.268e-09
 92.31488    -50.4 1.002e+04 1.485e-09
 92.35413    -50.2 1.013e+04 1.954e-09
 92.39337    -49.9 1.041e+04 2.574e-09
 92.42271    -49.1 1.054e+04 2.698e-09
 92.44223    -49.4 1.064e+04 2.837e-09
 92.46081    -50.2 1.085e+04 3.175e-09
 92.47062    -51.1 1.085e+04 3.007e-09
 92.48148    -53.0 1.117e+04 3.676e-09
 92.50110    -54.7 1.146e+04 5.175e-09
 92.52072    -56.3 1.178e+04 7.591e-09
 92.55026    -57.9 1.215e+04 1.063e-08
 92.58960    -60.7 1.251e+04 1.279e-08
 92.62884    -64.6 1.250e+04 1.156e-08
 92.66809    -68.0 1.201e+04 6.789e-09
 92.70733    -70.4 1.161e+04 4.438e-09
 92.74658    -71.9 1.142e+04 3.711e-09
 92.78583    -72.5 1.129e+04 3.361e-09
 92.81516    -72.9 1.134e+04 3.309e-09
 92.83469    -73.5 1.146e+04 3.299e-09
 92.85431    -75.9 1.237e+04 4.399e-09
 92.87393    -78.4 1.317e+04 9.999e-09
 92.89355    -79.5 1.369e+04 2.176e-08
 92.91318    -79.8 1.425e+04 3.340e-08
 92.92970    -80.4 1.453e+04 3.687e-08
 92.93951    -81.1 1.440e+04 3.041e-08
 92.95242    -82.6 1.402e+04 2.123e-08
 92.97204    -84.7 1.324e+04 1.203e-08
 92.99167    -86.1 1.240e+04 8.152e-09
 93.01807    -86.2 1.204e+04 7.015e-09
 93.03779    -88.5 1.176e+04 4.638e-09
 93.06054    -88.9 1.140e+04 2.953e-09
 93.09979    -89.1 1.103e+04 1.975e-09
 93.13903    -89.0 1.071e+04 1.680e-09
 93.17828    -88.4 1.060e+04 1.642e-09
 93.21752    -87.6 1.056e+04 1.861e-09
 93.25677    -87.0 1.058e+04 2.200e-09
 93.29601    -86.4 1.061e+04 2.354e-09
 93.33526    -85.8 1.070e+04 2.228e-09
 93.37450    -85.2 1.064e+04 1.791e-09
 93.39879    -84.6 1.065e+04 1.496e-09
 93.41841    -85.2 1.078e+04 1.737e-09
 93.45299    -84.7 1.077e+04 1.698e-09
 93.49224    -84.1 1.087e+04 1.764e-09
 93.53149    -83.5 1.094e+04 1.894e-09
 93.57073    -82.7 1.094e+04 1.912e-09
 93.60998    -81.6 1.085e+04 1.693e-09
 93.64922    -80.4 1.083e+04 1.298e-09
 93.68847    -79.2 1.081e+04 1.016e-09
 93.72771    -77.9 1.079e+04 9.102e-10
 93.76696    -76.7 1.079e+04 8.929e-10
 93.80620    -75.7 1.085e+04 9.222e-10
 93.83823    -75.2 1.090e+04 1.324e-09
 93.85785    -76.0 1.091e+04 1.323e-09
 93.86768    -75.5 1.105e+04 2.010e-09
 93.88731    -75.6 1.129e+04 2.696e-09
 93.92394    -75.5 1.159e+04 3.811e-09
 93.96318    -76.0 1.194e+04 4.901e-09
 94.00243    -77.5 1.223e+04 5.765e-09
 94.04167    -79.3 1.230e+04 6.227e-09
 94.08092    -80.9 1.226e+04 6.322e-09
 94.12016    -81.7 1.190e+04 5.240e-09
 94.15941    -81.9 1.152e+04 3.247e-09
 94.19866    -82.0 1.120e+04 1.878e-09
 94.23790    -81.6 1.093e+04 1.177e-09
 94.27715    -80.5 1.077e+04 9.795e-10
 94.31639    -79.0 1.072e+04 9.530e-10
 94.33658    -77.6 1.066e+04 1.018e-09
 94.35620    -76.5 1.085e+04 8.679e-10
 94.39488    -75.2 1.084e+04 1.179e-09
 94.43413    -73.9 1.093e+04 1.596e-09
 94.47337    -72.7 1.101e+04 2.035e-09
 94.51262    -71.8 1.117e+04 2.414e-09
 94.55186    -71.2 1.140e+04 2.832e-09
 94.59111    -70.9 1.173e+04 3.411e-09
 94.63035    -70.9 1.206e+04 4.226e-09
 94.65829    -71.2 1.233e+04 5.078e-09
 94.67792    -71.0 1.261e+04 6.347e-09
 94.70884    -72.1 1.275e+04 7.189e-09
 94.74809    -73.3 1.279e+04 7.424e-09
 94.78585    -74.6 1.262e+04 7.164e-09
 94.80537    -74.5 1.291e+04 8.789e-09
 94.81657    -75.5 1.262e+04 8.636e-09
 94.83620    -76.2 1.242e+04 7.342e-09
 94.85582    -76.6 1.215e+04 5.653e-09
 94.87544    -76.9 1.187e+04 4.188e-09
 94.89506    -77.0 1.160e+04 3.154e-09
 94.91469    -77.0 1.142e+04 2.538e-09
 94.94422    -76.7 1.123e+04 2.473e-09
 94.98356    -76.0 1.106e+04 2.138e-09
 95.02281    -74.5 1.078e+04 1.847e-09
 95.06205    -72.8 1.070e+04 1.789e-09
 95.10130    -71.2 1.070e+04 1.915e-09
 95.14054    -69.9 1.080e+04 2.307e-09
 95.17979    -68.7 1.083e+04 2.767e-09
 95.21903    -67.5 1.082e+04 2.952e-09
 95.25474    -66.3 1.082e+04 2.968e-09
 95.27437    -65.6 1.068e+04 2.621e-09
 95.29752    -64.2 1.059e+04 2.528e-09
 95.33677    -62.5 1.047e+04 2.263e-09
 95.37601    -60.6 1.034e+04 1.997e-09
 95.41526    -58.5 1.025e+04 1.837e-09
 95.45450    -56.3 1.021e+04 1.784e-09
 95.47836    -54.1 1.024e+04 1.930e-09
 95.49798    -54.4 1.041e+04 2.525e-09
 95.53299    -52.3 1.056e+04 3.232e-09
 95.57224    -50.3 1.073e+04 4.308e-09
 95.61149    -48.4 1.083e+04 5.441e-09
 95.65073    -46.8 1.081e+04 6.057e-09
 95.68998    -45.2 1.080e+04 6.206e-09
 95.72364    -43.4 1.052e+04 5.849e-09
 95.74326    -42.9 1.051e+04 5.992e-09
 95.76847    -41.0 1.016e+04 4.756e-09
 95.80771    -38.9 9.817e+03 3.335e-09
 95.84696    -36.8 9.517e+03 2.279e-09
 95.88620    -34.8 9.350e+03 1.731e-09
 95.92545    -33.0 9.298e+03 1.588e-09
 95.96469    -31.2 9.329e+03 1.660e-09
 96.00394    -29.7 9.443e+03 2.182e-09
 96.04318    -28.0 9.590e+03 2.857e-09
 96.08243    -26.6 9.717e+03 3.219e-09
 96.12167    -25.5 9.734e+03 3.238e-09
 96.16092    -24.5 9.648e+03 2.918e-09
 96.19253    -23.6 9.511e+03 2.644e-09
 96.21215    -22.6 9.628e+03 3.137e-09
 96.23941    -21.8 9.521e+03 3.190e-09
 96.27865    -20.8 9.408e+03 3.431e-09
 96.31790    -18.5 9.773e+03 5.215e-09
 96.35715    -17.9 9.490e+03 4.874e-09
 96.39639    -17.2 9.160e+03 3.673e-09
 96.43564    -16.8 9.034e+03 3.013e-09
 96.47488    -16.4 8.955e+03 2.902e-09
 96.51413    -16.0 8.885e+03 3.080e-09
 96.54346    -15.7 8.835e+03 3.261e-09
 96.56299    -15.7 8.815e+03 3.269e-09
 96.58261    -15.6 8.781e+03 3.267e-09
 96.60223    -16.0 8.869e+03 3.304e-09
 96.62186    -16.7 9.100e+03 3.682e-09
 96.64148    -17.7 9.308e+03 4.558e-09
 96.66110    -18.2 9.456e+03 5.795e-09
 96.67104    -18.2 9.618e+03 6.913e-09
 96.68085    -18.1 9.646e+03 7.101e-09
 96.69844    -18.1 9.952e+03 8.442e-09
 96.70825    -18.3 1.000e+04 8.557e-09
 96.71997    -18.8 1.022e+04 8.481e-09
 96.73959    -21.0 1.048e+04 8.256e-09
 96.75921    -24.4 1.104e+04 9.436e-09
 96.77884    -28.0 1.173e+04 1.402e-08
 96.79846    -30.6 1.244e+04 2.048e-08
 96.81808    -32.8 1.277e+04 2.394e-08
 96.83770    -35.1 1.268e+04 2.398e-08
 96.85733    -36.9 1.198e+04 1.694e-08
 96.87695    -38.7 1.122e+04 9.090e-09
 96.89568    -40.9 1.065e+04 4.581e-09
 96.90549    -40.8 1.082e+04 6.022e-09
 96.91620    -42.9 1.040e+04 3.412e-09
 96.93582    -44.6 1.009e+04 2.406e-09
 96.95544    -45.6 9.956e+03 2.169e-09
 96.97506    -45.9 9.939e+03 2.165e-09
 96.99469    -46.1 9.974e+03 2.422e-09
 97.01431    -46.2 9.982e+03 2.755e-09
 97.03393    -46.3 9.999e+03 3.071e-09
 97.06346    -46.1 9.977e+03 3.382e-09
 97.09886    -45.6 9.893e+03 3.463e-09
 97.11848    -45.2 9.488e+03 2.831e-09
 97.13032    -44.4 9.204e+03 2.508e-09
 97.14994    -44.5 9.368e+03 2.761e-09
 97.18130    -43.5 9.149e+03 2.361e-09
 97.22054    -42.3 8.899e+03 2.030e-09
 97.25979    -40.8 8.760e+03 1.810e-09
 97.29903    -38.9 8.608e+03 1.598e-09
 97.33828    -36.8 8.552e+03 1.504e-09
 97.37752    -34.6 8.512e+03 1.478e-09
 97.41677    -32.5 8.597e+03 1.505e-09
 97.45601    -30.9 8.968e+03 1.971e-09
 97.49526    -29.3 9.501e+03 3.093e-09
 97.51860    -28.8 9.887e+03 4.183e-09
 97.52831    -27.9 9.910e+03 4.383e-09
 97.54412    -27.4 1.006e+04 5.174e-09
 97.56374    -26.4 1.029e+04 5.811e-09
 97.58337    -26.0 1.034e+04 5.899e-09
 97.59902    -25.4 1.020e+04 5.642e-09
 97.60883    -25.9 1.018e+04 5.475e-09
 97.62261    -24.9 9.989e+03 4.550e-09
 97.64223    -24.1 9.804e+03 3.380e-09
 97.66186    -23.7 9.623e+03 2.443e-09
 97.69139    -23.6 9.454e+03 1.860e-09
 97.73073    -21.7 9.087e+03 1.364e-09
 97.76998    -19.2 8.899e+03 1.205e-09
 97.80922    -16.5 8.871e+03 1.192e-09
 97.84847    -13.7 8.887e+03 1.293e-09
 97.88771    -11.1 8.957e+03 1.511e-09
 97.91892     -8.5 9.054e+03 1.777e-09
 97.93844     -8.4 9.160e+03 2.099e-09
 97.95620     -6.4 9.319e+03 2.510e-09
 97.97582     -5.7 9.263e+03 2.615e-09
 97.99544     -4.1 9.562e+03 2.967e-09
 98.01506     -3.6 1.010e+04 3.407e-09
 98.03469     -3.4 1.105e+04 4.454e-09
 98.05431     -3.3 1.206e+04 6.153e-09
 98.06791     -2.3 1.273e+04 8.151e-09
 98.07772     -2.7 1.269e+04 9.432e-09
 98.08860     -0.9 1.116e+04 8.220e-09
 98.09836     -1.0 1.130e+04 8.457e-09
 98.10817      0.2 1.171e+04 1.058e-08
 98.11798      0.3 1.213e+04 1.131e-08
 98.12780      1.2 1.276e+04 1.334e-08
 98.13345      1.1 1.376e+04 1.541e-08
 98.13836     -1.5 1.909e+04 7.203e-08
 98.14742     -1.8 1.983e+04 1.223e-07
 98.15723     -2.0 2.010e+04 2.099e-07
 98.16704     -2.3 1.989e+04 3.594e-07
 98.17685     -2.6 1.942e+04 5.604e-07
 98.18504     -2.9 1.908e+04 7.308e-07
 98.18994     -3.0 1.880e+04 1.253e-06
 98.19647     -3.4 1.852e+04 1.545e-06
 98.20629     -3.3 1.815e+04 2.263e-06
 98.21610     -2.9 1.752e+04 4.441e-06
 98.22591     -3.5 1.684e+04 9.207e-06
 98.23572     -5.8 1.626e+04 1.731e-05
 98.24305     -7.7 1.629e+04 1.563e-05
 98.24605     -8.4 1.630e+04 1.602e-05
 98.24850     -8.7 1.583e+04 2.721e-05
 98.25284    -10.5 1.594e+04 2.321e-05
 98.25775    -12.0 1.636e+04 1.649e-05
 98.26513    -14.3 1.714e+04 7.523e-06
 98.27497    -15.2 1.900e+04 1.857e-06
 98.28478    -14.8 2.085e+04 5.149e-07
 98.29459    -15.1 2.093e+04 2.249e-07
 98.30226    -14.8 2.013e+04 1.260e-07
 98.30716    -14.8 2.027e+04 1.188e-07
 98.31421    -15.2 1.901e+04 6.847e-08
 98.32870    -15.0 1.817e+04 4.599e-08
 98.33852    -18.1 1.658e+04 5.065e-08
 98.34364    -19.5 1.459e+04 3.513e-08
 98.35346    -19.3 1.435e+04 3.492e-08
 98.36822    -18.9 1.373e+04 3.468e-08
 98.38789    -18.0 1.343e+04 3.039e-08
 98.40752    -17.7 1.322e+04 2.829e-08
 98.42714    -18.1 1.320e+04 2.840e-08
 98.44676    -19.6 1.374e+04 3.457e-08
 98.46638    -20.7 1.454e+04 4.826e-08
 98.48105    -21.0 1.517e+04 6.149e-08
 98.49081    -21.2 1.530e+04 6.489e-08
 98.50063    -20.9 1.553e+04 6.850e-08
 98.51044    -20.8 1.538e+04 6.197e-08
 98.52025    -20.7 1.509e+04 4.876e-08
 98.53006    -20.3 1.481e+04 3.787e-08
 98.53675    -21.6 1.391e+04 2.155e-08
 98.54661    -22.4 1.322e+04 1.524e-08
 98.56450    -23.8 1.188e+04 6.496e-09
 98.58412    -24.4 1.076e+04 3.945e-09
 98.60374    -23.7 1.026e+04 2.967e-09
 98.62337    -22.5 9.984e+03 2.437e-09
 98.64299    -21.2 9.790e+03 2.112e-09
 98.66261    -19.7 9.663e+03 1.932e-09
 98.68223    -18.3 9.588e+03 1.841e-09
 98.70186    -16.9 9.528e+03 1.764e-09
 98.72148    -15.5 9.413e+03 1.648e-09
 98.73878    -14.3 9.340e+03 1.559e-09
 98.74860    -14.1 9.931e+03 1.887e-09
 98.76072    -13.1 9.920e+03 1.873e-09
 98.77125    -12.0 9.900e+03 1.900e-09
 98.78106    -11.6 1.028e+04 2.434e-09
 98.79997    -10.5 1.053e+04 2.507e-09
 98.81959     -9.2 1.106e+04 2.699e-09
 98.83921     -8.3 1.166e+04 2.904e-09
 98.85884     -7.7 1.200e+04 3.325e-09
 98.87846     -8.0 1.250e+04 4.301e-09
 98.89808     -9.0 1.336e+04 7.001e-09
 98.91770    -10.5 1.344e+04 1.296e-08
 98.93733    -10.9 1.371e+04 2.598e-08
 98.95695     -9.9 1.405e+04 4.406e-08
 98.97657     -8.5 1.452e+04 6.057e-08
 98.99589     -7.3 1.478e+04 6.655e-08
 99.00570     -6.9 1.557e+04 9.311e-08
 99.01582     -6.3 1.552e+04 7.449e-08
 99.03544     -6.0 1.482e+04 5.118e-08
 99.05506     -6.1 1.423e+04 3.274e-08
 99.07469     -6.3 1.355e+04 2.197e-08
 99.09431     -5.9 1.297e+04 1.533e-08
 99.11393     -5.4 1.251e+04 1.118e-08
 99.13355     -4.9 1.207e+04 8.646e-09
 99.14882     -4.8 1.176e+04 7.761e-09
 99.15863     -3.7 1.285e+04 1.087e-08
 99.17280     -3.5 1.267e+04 1.055e-08
 99.19242     -3.3 1.244e+04 1.104e-08
 99.21204     -3.5 1.218e+04 1.338e-08
 99.23033     -2.7 1.215e+04 1.610e-08
 99.24014     -2.5 1.247e+04 1.770e-08
 99.25129     -1.8 1.285e+04 2.189e-08
 99.27091     -1.4 1.345e+04 2.542e-08
 99.29053     -1.5 1.428e+04 2.929e-08
 99.31016     -1.6 1.521e+04 3.508e-08
 99.32978     -1.5 1.597e+04 4.524e-08
 99.34940     -1.3 1.661e+04 5.883e-08
 99.36903     -0.9 1.698e+04 7.587e-08
 99.38865      0.1 1.741e+04 9.631e-08
 99.40827      1.1 1.781e+04 1.148e-07
 99.42294      2.0 1.849e+04 1.583e-07
 99.43270      2.3 1.882e+04 1.638e-07
 99.44251      2.3 1.927e+04 1.596e-07
 99.45232      2.3 1.940e+04 1.515e-07
 99.46214      2.2 1.929e+04 1.413e-07
 99.46959      2.3 1.902e+04 1.290e-07
 99.47454      2.6 1.851e+04 9.337e-08
 99.48676      2.8 1.789e+04 7.974e-08
 99.50638      3.5 1.684e+04 6.632e-08
 99.52601      4.6 1.588e+04 5.011e-08
 99.54563      5.6 1.516e+04 4.007e-08
 99.55885      6.5 1.480e+04 3.366e-08
 99.56866      5.8 1.628e+04 3.210e-08
 99.58487      6.0 1.522e+04 2.388e-08
 99.60450      6.3 1.404e+04 2.028e-08
 99.62412      6.6 1.355e+04 1.956e-08
 99.64374      6.4 1.407e+04 2.354e-08
 99.66336      6.5 1.492e+04 3.135e-08
 99.68299      7.0 1.575e+04 4.290e-08
 99.69923      9.0 1.668e+04 5.839e-08
 99.70899     10.9 1.695e+04 6.615e-08
 99.72218     14.3 1.761e+04 7.840e-08
 99.74186     15.7 1.801e+04 7.140e-08
 99.76148     17.2 1.822e+04 5.184e-08
 99.78110     17.6 1.811e+04 3.269e-08
 99.79577     13.1 1.717e+04 1.882e-08
 99.80553     12.1 1.635e+04 1.758e-08
 99.81534      8.1 1.547e+04 1.324e-08
 99.82126      7.3 1.539e+04 1.280e-08
 99.82616      9.9 1.521e+04 1.180e-08
 99.83497      6.2 1.541e+04 1.117e-08
 99.84478      3.3 1.638e+04 1.191e-08
 99.85459     -3.1 1.758e+04 1.398e-08
 99.86440     -6.5 1.968e+04 1.511e-08
 99.87421    -28.4 4.664e+04 1.357e-08
 99.88402    -61.2 4.445e+04 1.149e-07
 99.89136    -85.4 2.104e+04 5.680e-06
 99.89624    -99.0 1.569e+04 7.021e-05
 99.90114   -115.5 1.305e+04 4.974e-04
 99.90605   -133.1 1.374e+04 3.074e-04
 99.91095   -151.1 1.826e+04 1.582e-05
 99.91586   -166.0 2.536e+04 9.400e-07
 99.92077   -172.6 2.768e+04 2.399e-07
 99.92567   -173.9 2.735e+04 1.881e-07
 99.93305   -174.2 2.750e+04 1.696e-07
 99.93848   -178.4 2.318e+04 1.281e-07
 99.94339   -184.1 2.167e+04 9.571e-08
 99.95270   -182.7 2.144e+04 1.053e-07
 99.96251   -181.6 2.188e+04 1.267e-07
 99.96878   -180.8 2.188e+04 1.428e-07
 99.97369   -185.5 2.225e+04 1.475e-07
 99.98214   -184.8 2.148e+04 1.402e-07
 99.99195   -184.1 2.080e+04 1.272e-07
100.00176   -183.3 2.025e+04 1.132e-07
