# Columns:
#   distance along LOS (in CHIMPs)
#   peculiar velocity  (in km/s)
#   temperature (K)
#   HI number density
# pos=(184.966,104.965,46.9915), angles=(0.12512,0.700472)
  0.00077    -14.9 1.140e+04 3.397e-09
  0.01138    -13.9 1.134e+04 2.910e-09
  0.03106    -13.0 1.121e+04 2.800e-09
  0.04831    -11.8 1.130e+04 2.902e-09
  0.05815    -12.1 1.144e+04 3.045e-09
  0.06479    -11.1 1.156e+04 3.202e-09
  0.07463    -12.3 1.202e+04 4.609e-09
  0.09012    -11.4 1.201e+04 5.484e-09
  0.10980    -10.1 1.179e+04 6.801e-09
  0.12949     -8.3 1.188e+04 8.180e-09
  0.14917     -7.3 1.233e+04 8.364e-09
  0.16886     -5.9 1.192e+04 1.091e-08
  0.18854     -4.4 1.222e+04 1.037e-08
  0.20823     -3.4 1.231e+04 1.012e-08
  0.22791     -2.3 1.211e+04 1.065e-08
  0.24760     -1.2 1.245e+04 9.162e-09
  0.25894     -0.5 1.225e+04 9.541e-09
  0.26878     -0.2 1.226e+04 9.058e-09
  0.28697      0.9 1.227e+04 8.517e-09
  0.30430      1.7 1.230e+04 8.436e-09
  0.31415      1.3 1.218e+04 6.793e-09
  0.32634      2.3 1.211e+04 6.079e-09
  0.34602      3.2 1.211e+04 5.300e-09
  0.36571      3.9 1.209e+04 4.554e-09
  0.38539      4.5 1.197e+04 4.693e-09
  0.40508      5.3 1.186e+04 4.958e-09
  0.42476      6.1 1.182e+04 5.138e-09
  0.44445      6.8 1.190e+04 5.497e-09
  0.45972      7.4 1.206e+04 6.181e-09
  0.46956      7.8 1.218e+04 6.408e-09
  0.48382      8.4 1.237e+04 7.747e-09
  0.50350      9.0 1.262e+04 9.895e-09
  0.52319      9.6 1.295e+04 1.279e-08
  0.54287     10.1 1.320e+04 1.555e-08
  0.55366     10.7 1.339e+04 1.724e-08
  0.56350     10.9 1.276e+04 9.788e-09
  0.58224     11.2 1.282e+04 1.099e-08
  0.60193     11.6 1.284e+04 1.213e-08
  0.62161     11.9 1.297e+04 1.361e-08
  0.64130     12.4 1.309e+04 1.495e-08
  0.66050     13.1 1.316e+04 1.528e-08
  0.67034     13.6 1.325e+04 1.535e-08
  0.68067     14.5 1.318e+04 1.420e-08
  0.70036     15.2 1.315e+04 1.211e-08
  0.72004     15.9 1.310e+04 1.016e-08
  0.73973     16.6 1.312e+04 9.226e-09
  0.75941     17.3 1.306e+04 8.999e-09
  0.77910     18.4 1.304e+04 9.078e-09
  0.79317     19.3 1.313e+04 9.691e-09
  0.80302     19.7 1.302e+04 9.035e-09
  0.81847     20.6 1.315e+04 1.036e-08
  0.83815     21.4 1.324e+04 1.235e-08
  0.85784     22.1 1.347e+04 1.616e-08
  0.87112     22.6 1.402e+04 2.325e-08
  0.88096     23.2 1.386e+04 2.040e-08
  0.89721     23.7 1.439e+04 3.035e-08
  0.91689     24.4 1.485e+04 4.205e-08
  0.93658     24.9 1.513e+04 4.762e-08
  0.95626     25.2 1.504e+04 4.585e-08
  0.97595     25.7 1.470e+04 3.837e-08
  0.99563     26.2 1.421e+04 2.777e-08
  1.01532     26.6 1.378e+04 1.954e-08
  1.03269     26.7 1.356e+04 1.558e-08
  1.04253     26.6 1.348e+04 1.509e-08
  1.05469     27.0 1.344e+04 1.520e-08
  1.07190     27.4 1.360e+04 1.756e-08
  1.08174     28.6 1.342e+04 1.513e-08
  1.09406     29.2 1.369e+04 1.807e-08
  1.11374     29.7 1.405e+04 2.286e-08
  1.13343     30.2 1.433e+04 2.721e-08
  1.15311     30.7 1.436e+04 2.775e-08
  1.17280     31.0 1.422e+04 2.550e-08
  1.19248     31.1 1.396e+04 2.173e-08
  1.21217     31.0 1.367e+04 1.816e-08
  1.23185     31.1 1.328e+04 1.426e-08
  1.25154     30.8 1.300e+04 1.195e-08
  1.27122     31.2 1.250e+04 9.048e-09
  1.28205     31.3 1.234e+04 8.283e-09
  1.28350     31.1 1.240e+04 8.745e-09
  1.29237     32.4 1.273e+04 1.014e-08
  1.32053     34.4 1.243e+04 8.801e-09
  1.36000     35.6 1.197e+04 7.451e-09
  1.39937     37.3 1.170e+04 6.457e-09
  1.42880     38.0 1.143e+04 6.214e-09
  1.44839     38.2 1.142e+04 6.450e-09
  1.47802     39.6 1.128e+04 6.306e-09
  1.51191     41.1 1.114e+04 6.125e-09
  1.53160     41.5 1.131e+04 7.606e-09
  1.55685     43.2 1.101e+04 6.646e-09
  1.59622     45.0 1.065e+04 5.135e-09
  1.63559     46.8 1.033e+04 3.719e-09
  1.67444     48.6 1.013e+04 3.097e-09
  1.69412     50.3 1.017e+04 2.830e-09
  1.71434     52.4 1.020e+04 2.918e-09
  1.75371     54.3 1.030e+04 3.368e-09
  1.79308     56.1 1.070e+04 4.509e-09
  1.83245     57.6 1.103e+04 6.075e-09
  1.87182     58.3 1.131e+04 8.037e-09
  1.89481     57.8 1.118e+04 8.162e-09
  1.90455     58.6 1.134e+04 9.189e-09
  1.92083     58.6 1.130e+04 9.252e-09
  1.94052     58.6 1.120e+04 8.979e-09
  1.96020     58.7 1.109e+04 8.458e-09
  1.97989     58.8 1.109e+04 7.892e-09
  1.99957     59.0 1.120e+04 7.509e-09
  2.01043     59.2 1.150e+04 8.356e-09
  2.03022     60.0 1.049e+04 5.650e-09
  2.05873     60.6 1.056e+04 5.901e-09
  2.07831     61.2 1.072e+04 6.507e-09
  2.09549     61.5 1.111e+04 7.862e-09
  2.10533     61.3 1.151e+04 9.424e-09
  2.11769     61.2 1.208e+04 1.206e-08
  2.13737     61.0 1.295e+04 1.606e-08
  2.15706     59.8 1.396e+04 1.684e-08
  2.17674     57.3 1.451e+04 1.705e-08
  2.19643     54.8 1.481e+04 2.320e-08
  2.21611     54.0 1.435e+04 2.697e-08
  2.23580     53.8 1.347e+04 2.101e-08
  2.24995     53.1 1.237e+04 1.380e-08
  2.25979     55.0 1.131e+04 9.482e-09
  2.27517     54.4 1.092e+04 7.607e-09
  2.29485     54.1 1.056e+04 6.346e-09
  2.30611     54.2 1.026e+04 5.766e-09
  2.31595     54.4 1.018e+04 5.448e-09
  2.33422     54.8 9.946e+03 5.312e-09
  2.35391     55.3 9.869e+03 5.347e-09
  2.37359     55.9 9.831e+03 5.526e-09
  2.39328     56.6 9.847e+03 5.887e-09
  2.41296     57.2 9.901e+03 6.321e-09
  2.43265     57.9 9.953e+03 6.742e-09
  2.45233     58.6 1.003e+04 7.016e-09
  2.47202     59.1 1.008e+04 6.905e-09
  2.48946     59.3 1.009e+04 6.466e-09
  2.49930     60.4 1.014e+04 7.381e-09
  2.50689     60.4 1.017e+04 6.765e-09
  2.51674     60.5 1.037e+04 7.375e-09
  2.53107     59.3 1.065e+04 7.665e-09
  2.55076     57.6 1.094e+04 8.300e-09
  2.57044     56.0 1.088e+04 8.491e-09
  2.59013     55.2 1.061e+04 8.208e-09
  2.60981     55.1 1.023e+04 7.201e-09
  2.62950     55.1 9.930e+03 5.876e-09
  2.64918     54.9 9.697e+03 4.717e-09
  2.66887     54.9 9.513e+03 3.910e-09
  2.68855     54.9 9.334e+03 3.406e-09
  2.70767     55.3 9.237e+03 3.154e-09
  2.71752     54.7 9.273e+03 3.392e-09
  2.72792     55.3 9.297e+03 3.352e-09
  2.73882     56.1 9.308e+03 3.366e-09
  2.74866     56.1 9.294e+03 3.458e-09
  2.76729     56.9 9.379e+03 3.610e-09
  2.78698     57.6 9.490e+03 3.892e-09
  2.80666     58.3 9.601e+03 4.274e-09
  2.82635     59.2 9.736e+03 4.760e-09
  2.84604     59.9 9.892e+03 5.328e-09
  2.86572     60.7 1.008e+04 5.962e-09
  2.88541     61.6 1.033e+04 6.884e-09
  2.90509     62.1 1.067e+04 8.359e-09
  2.91830     62.4 1.113e+04 1.082e-08
  2.92814     62.2 1.084e+04 9.011e-09
  2.94446     62.6 1.135e+04 1.186e-08
  2.96415     62.6 1.181e+04 1.587e-08
  2.97833     62.3 1.249e+04 2.188e-08
  2.98818     63.0 1.227e+04 1.939e-08
  3.00352     61.9 1.373e+04 3.046e-08
  3.02320     58.5 1.620e+04 6.296e-08
  3.04289     53.9 1.777e+04 1.186e-07
  3.06257     49.3 1.784e+04 1.416e-07
  3.08226     46.9 1.712e+04 1.145e-07
  3.09697     44.4 1.641e+04 5.552e-08
  3.10291     42.2 1.547e+04 3.504e-08
  3.10784     43.8 1.613e+04 5.037e-08
  3.11903     39.7 1.503e+04 2.504e-08
  3.12892     39.5 1.454e+04 2.326e-08
  3.14131     34.6 1.264e+04 1.185e-08
  3.16100     31.6 1.148e+04 8.524e-09
  3.18068     30.6 1.119e+04 7.457e-09
  3.20037     30.1 1.129e+04 7.337e-09
  3.21785     28.0 1.224e+04 9.176e-09
  3.22769     28.5 1.212e+04 9.395e-09
  3.23974     26.9 1.348e+04 1.301e-08
  3.25445     25.2 1.473e+04 1.908e-08
  3.26425     25.0 1.491e+04 2.045e-08
  3.27409     23.6 1.529e+04 2.991e-08
  3.28393     23.8 1.549e+04 3.625e-08
  3.29377     23.2 1.570e+04 5.412e-08
  3.30362     23.7 1.573e+04 6.241e-08
  3.31346     24.1 1.580e+04 7.376e-08
  3.32330     24.1 1.588e+04 7.444e-08
  3.32960     24.2 1.576e+04 6.913e-08
  3.33949     25.1 1.522e+04 5.463e-08
  3.35785     24.6 1.524e+04 4.987e-08
  3.37753     23.1 1.527e+04 4.357e-08
  3.39722     21.1 1.516e+04 4.506e-08
  3.41690     19.9 1.493e+04 5.046e-08
  3.43004     19.4 1.475e+04 5.558e-08
  3.43491     19.6 1.478e+04 5.405e-08
  3.44141     19.6 1.481e+04 5.586e-08
  3.45126     19.7 1.473e+04 5.795e-08
  3.46110     19.7 1.476e+04 5.861e-08
  3.46716     19.4 1.479e+04 5.327e-08
  3.47705     17.7 1.530e+04 6.680e-08
  3.49564     16.1 1.528e+04 5.648e-08
  3.51533     14.5 1.484e+04 4.142e-08
  3.53048     13.3 1.400e+04 2.942e-08
  3.54032     15.5 1.463e+04 4.954e-08
  3.55470     15.0 1.390e+04 2.731e-08
  3.57438     10.5 1.535e+04 1.773e-08
  3.59407      2.7 1.554e+04 1.816e-08
  3.61376     -1.4 1.337e+04 2.733e-08
  3.63344      0.0 1.309e+04 3.672e-08
  3.65313      1.5 1.328e+04 2.517e-08
  3.67281      0.3 1.282e+04 9.758e-09
  3.69250     -3.0 1.106e+04 4.905e-09
  3.70672     -4.1 1.031e+04 3.707e-09
  3.71656     -6.4 1.031e+04 3.883e-09
  3.73126     -5.7 1.020e+04 3.414e-09
  3.74110     -5.2 1.017e+04 3.681e-09
  3.75155     -4.6 1.029e+04 3.435e-09
  3.77124     -4.4 1.053e+04 3.457e-09
  3.79092     -4.2 1.084e+04 4.114e-09
  3.81061     -3.9 1.087e+04 5.125e-09
  3.84023     -1.4 1.088e+04 5.844e-09
  3.87970      0.7 1.091e+04 8.133e-09
  3.91907      2.8 1.101e+04 8.195e-09
  3.94643      4.5 1.106e+04 7.431e-09
  3.96611      1.5 1.082e+04 6.253e-09
  3.99781      3.7 1.044e+04 5.492e-09
  4.03718      6.6 1.005e+04 4.654e-09
  4.07655      9.4 9.736e+03 3.795e-09
  4.11592     12.3 9.704e+03 3.767e-09
  4.14286     14.8 9.885e+03 4.233e-09
  4.16255     16.8 9.539e+03 3.271e-09
  4.19466     19.4 9.953e+03 4.429e-09
  4.23403     21.5 1.056e+04 7.090e-09
  4.27340     23.8 1.134e+04 1.194e-08
  4.31277     25.5 1.209e+04 1.706e-08
  4.35214     27.2 1.234e+04 1.756e-08
  4.39151     29.2 1.210e+04 1.471e-08
  4.42546     30.5 1.165e+04 1.052e-08
  4.44514     30.0 1.136e+04 8.905e-09
  4.46031     31.1 1.116e+04 8.032e-09
  4.47990     31.9 1.113e+04 7.461e-09
  4.49959     32.5 1.112e+04 7.368e-09
  4.51927     33.1 1.115e+04 7.552e-09
  4.53896     33.5 1.126e+04 8.312e-09
  4.55407     34.0 1.140e+04 9.589e-09
  4.56391     34.8 1.137e+04 9.195e-09
  4.57833     35.2 1.161e+04 1.116e-08
  4.59801     35.6 1.185e+04 1.327e-08
  4.61770     36.1 1.184e+04 1.302e-08
  4.63738     36.5 1.179e+04 1.167e-08
  4.65707     36.8 1.166e+04 8.649e-09
  4.67462     36.6 1.155e+04 6.925e-09
  4.68446     36.4 1.154e+04 7.045e-09
  4.69644     36.4 1.138e+04 5.562e-09
  4.71612     36.1 1.130e+04 5.133e-09
  4.74575     37.1 1.126e+04 5.068e-09
  4.78522     38.1 1.120e+04 4.540e-09
  4.82459     39.4 1.113e+04 3.927e-09
  4.86396     40.8 1.104e+04 3.372e-09
  4.90333     42.3 1.105e+04 3.095e-09
  4.92417     44.3 1.113e+04 3.348e-09
  4.94386     43.6 1.088e+04 2.693e-09
  4.96567     45.6 1.101e+04 2.747e-09
  4.98535     45.5 1.144e+04 3.983e-09
  5.01150     46.9 1.140e+04 3.559e-09
  5.03108     47.6 1.144e+04 3.439e-09
  5.05077     48.8 1.149e+04 3.306e-09
  5.07046     49.7 1.154e+04 3.276e-09
  5.09014     50.8 1.156e+04 3.355e-09
  5.10983     51.8 1.158e+04 3.465e-09
  5.12951     52.8 1.160e+04 3.665e-09
  5.14920     53.7 1.169e+04 4.187e-09
  5.16349     54.4 1.182e+04 5.249e-09
  5.17071     54.1 1.161e+04 3.811e-09
  5.17610     54.4 1.159e+04 4.198e-09
  5.18857     55.4 1.170e+04 5.715e-09
  5.20825     56.7 1.199e+04 7.800e-09
  5.22794     57.1 1.250e+04 1.051e-08
  5.24762     56.6 1.317e+04 1.466e-08
  5.26731     55.2 1.421e+04 2.628e-08
  5.28699     53.7 1.530e+04 5.073e-08
  5.30668     52.5 1.563e+04 6.723e-08
  5.32636     52.6 1.521e+04 5.829e-08
  5.34605     52.8 1.433e+04 3.448e-08
  5.36573     51.9 1.327e+04 1.617e-08
  5.37688     49.9 1.221e+04 9.674e-09
  5.38672     49.1 1.228e+04 1.108e-08
  5.40301     48.9 1.199e+04 1.023e-08
  5.42279     47.8 1.188e+04 1.071e-08
  5.45451     48.3 1.155e+04 9.061e-09
  5.49388     49.2 1.109e+04 6.370e-09
  5.53325     49.9 1.069e+04 3.747e-09
  5.57262     50.4 1.033e+04 2.338e-09
  5.61199     51.2 1.015e+04 2.157e-09
  5.65136     52.2 1.012e+04 2.375e-09
  5.69073     53.4 1.018e+04 2.984e-09
  5.73010     54.5 1.033e+04 3.713e-09
  5.76879     55.6 1.035e+04 3.739e-09
  5.78848     55.4 1.012e+04 3.394e-09
  5.80884     56.8 1.019e+04 3.484e-09
  5.84821     58.4 1.016e+04 3.318e-09
  5.88223     60.2 1.012e+04 2.820e-09
  5.90192     59.8 1.001e+04 2.233e-09
  5.92695     61.9 1.002e+04 2.045e-09
  5.96632     64.2 1.006e+04 1.873e-09
  6.00569     66.6 1.017e+04 1.804e-09
  6.04506     69.0 1.026e+04 1.765e-09
  6.08443     71.4 1.035e+04 1.701e-09
  6.12381     73.8 1.047e+04 1.579e-09
  6.16318     76.1 1.061e+04 1.417e-09
  6.19004     78.4 1.077e+04 1.258e-09
  6.20972     78.2 1.074e+04 1.801e-09
  6.24192     80.5 1.081e+04 1.782e-09
  6.28129     82.9 1.094e+04 1.813e-09
  6.32066     85.1 1.099e+04 1.952e-09
  6.36003     87.3 1.108e+04 2.237e-09
  6.38094     88.9 1.125e+04 2.678e-09
  6.40063     90.0 1.124e+04 2.687e-09
  6.42883     90.5 1.138e+04 3.206e-09
  6.44841     91.2 1.147e+04 3.845e-09
  6.46810     91.9 1.157e+04 4.493e-09
  6.48778     92.3 1.162e+04 5.069e-09
  6.50747     93.0 1.173e+04 5.856e-09
  6.52716     93.4 1.176e+04 6.378e-09
  6.55678     94.8 1.189e+04 7.068e-09
  6.59160     95.6 1.194e+04 7.386e-09
  6.61128     94.1 1.268e+04 1.364e-08
  6.63562     94.6 1.234e+04 1.026e-08
  6.67499     95.4 1.189e+04 5.919e-09
  6.71436     96.1 1.155e+04 3.181e-09
  6.75373     96.8 1.132e+04 2.210e-09
  6.79310     97.9 1.128e+04 2.199e-09
  6.83247     99.2 1.128e+04 2.284e-09
  6.85997    100.4 1.133e+04 2.477e-09
  6.87966     99.9 1.137e+04 2.474e-09
  6.91121    101.0 1.145e+04 2.634e-09
  6.95058    101.9 1.154e+04 2.818e-09
  6.98995    102.7 1.163e+04 2.957e-09
  7.01285    103.6 1.172e+04 3.085e-09
  7.03253    102.5 1.182e+04 2.498e-09
  7.06869    103.4 1.191e+04 2.526e-09
  7.10806    103.4 1.213e+04 2.810e-09
  7.14743    103.2 1.237e+04 3.940e-09
  7.18680    102.9 1.269e+04 6.137e-09
  7.22617    102.3 1.308e+04 8.122e-09
  7.26554    101.2 1.315e+04 8.213e-09
  7.30491    100.7 1.302e+04 7.420e-09
  7.33900    100.6 1.269e+04 5.578e-09
  7.35869     99.6 1.258e+04 4.165e-09
  7.38365    100.0 1.219e+04 2.986e-09
  7.41441    101.2 1.186e+04 2.456e-09
  7.43409    100.4 1.185e+04 2.073e-09
  7.46239    102.1 1.165e+04 1.803e-09
  7.50176    104.0 1.153e+04 1.550e-09
  7.54113    106.0 1.137e+04 1.363e-09
  7.58051    108.1 1.124e+04 1.347e-09
  7.61988    110.2 1.121e+04 1.400e-09
  7.65925    112.2 1.112e+04 1.715e-09
  7.69862    114.0 1.120e+04 2.424e-09
  7.73799    115.3 1.143e+04 3.277e-09
  7.77736    115.9 1.159e+04 3.813e-09
  7.81597    116.0 1.159e+04 3.818e-09
  7.83565    115.8 1.175e+04 4.956e-09
  7.83772    115.4 1.171e+04 4.919e-09
  7.85740    112.2 1.193e+04 4.962e-09
  7.89547    109.9 1.259e+04 7.374e-09
  7.93484    109.1 1.287e+04 1.331e-08
  7.97421    108.8 1.274e+04 1.570e-08
  8.01358    108.8 1.259e+04 1.431e-08
  8.05295    109.2 1.230e+04 1.038e-08
  8.09232    109.8 1.199e+04 6.416e-09
  8.13169    110.3 1.167e+04 4.119e-09
  8.17106    110.9 1.155e+04 3.786e-09
  8.21043    111.3 1.162e+04 3.925e-09
  8.23721    111.2 1.168e+04 4.300e-09
  8.24696    110.5 1.182e+04 4.023e-09
  8.25945    110.5 1.194e+04 4.425e-09
  8.27913    110.4 1.204e+04 4.810e-09
  8.29882    110.2 1.211e+04 5.145e-09
  8.31655    109.8 1.222e+04 5.431e-09
  8.33633    108.6 1.240e+04 5.701e-09
  8.35797    107.7 1.254e+04 5.627e-09
  8.37756    106.9 1.262e+04 5.488e-09
  8.39724    106.0 1.267e+04 5.226e-09
  8.41693    105.0 1.261e+04 4.919e-09
  8.43661    104.0 1.246e+04 4.692e-09
  8.44764    103.1 1.237e+04 4.680e-09
  8.45748    103.1 1.241e+04 4.736e-09
  8.47598    102.2 1.244e+04 4.833e-09
  8.49567    101.1 1.257e+04 5.347e-09
  8.51535     99.8 1.278e+04 6.651e-09
  8.53504     98.5 1.304e+04 9.004e-09
  8.55472     96.9 1.336e+04 1.264e-08
  8.56591     95.0 1.375e+04 1.710e-08
  8.57575     93.6 1.395e+04 2.133e-08
  8.59409     91.7 1.427e+04 2.536e-08
  8.61378     89.8 1.430e+04 2.540e-08
  8.63346     87.9 1.421e+04 2.435e-08
  8.64842     86.2 1.403e+04 2.201e-08
  8.65827     85.5 1.423e+04 2.511e-08
  8.67283     83.9 1.407e+04 2.182e-08
  8.69252     82.7 1.394e+04 1.932e-08
  8.71220     81.7 1.379e+04 1.811e-08
  8.73189     81.2 1.372e+04 1.804e-08
  8.75158     80.9 1.371e+04 1.822e-08
  8.77126     80.7 1.372e+04 1.897e-08
  8.79095     80.5 1.374e+04 2.006e-08
  8.80542     80.3 1.368e+04 2.050e-08
  8.81526     80.2 1.351e+04 1.677e-08
  8.83032     80.0 1.346e+04 1.682e-08
  8.84920     79.7 1.339e+04 1.691e-08
  8.85905     79.3 1.327e+04 1.718e-08
  8.86969     79.0 1.324e+04 1.753e-08
  8.88937     78.7 1.323e+04 1.833e-08
  8.90906     78.3 1.323e+04 1.964e-08
  8.92874     77.9 1.323e+04 2.110e-08
  8.94843     77.5 1.321e+04 2.191e-08
  8.96811     77.0 1.318e+04 2.181e-08
  8.98780     76.3 1.301e+04 2.010e-08
  9.00748     75.8 1.276e+04 1.712e-08
  9.03711     74.4 1.240e+04 1.202e-08
  9.06002     72.7 1.160e+04 5.110e-09
  9.07971     74.1 1.147e+04 5.073e-09
  9.11595     72.7 1.108e+04 1.907e-09
  9.15532     71.1 1.078e+04 8.206e-10
  9.19469     70.6 1.028e+04 6.952e-10
  9.23406     70.9 1.002e+04 6.871e-10
  9.27343     71.9 1.002e+04 6.875e-10
  9.29449     72.9 1.002e+04 7.007e-10
  9.31417     72.2 1.006e+04 7.433e-10
  9.35217     73.0 1.002e+04 8.139e-10
  9.39154     73.7 9.999e+03 9.043e-10
  9.43091     74.3 1.001e+04 9.823e-10
  9.46158     74.9 1.003e+04 1.033e-09
  9.48127     75.2 1.003e+04 1.290e-09
  9.50965     75.7 1.002e+04 1.391e-09
  9.54902     76.3 9.994e+03 1.467e-09
  9.58839     77.1 9.965e+03 1.541e-09
  9.62776     78.0 9.971e+03 1.616e-09
  9.66713     78.9 9.978e+03 1.706e-09
  9.70650     79.7 9.998e+03 1.800e-09
  9.74587     80.3 9.974e+03 1.915e-09
  9.77352     81.0 9.957e+03 2.091e-09
  9.79320     80.3 9.707e+03 2.086e-09
  9.82461     80.7 9.701e+03 2.071e-09
  9.86314     81.1 9.747e+03 2.086e-09
  9.88283     80.2 9.840e+03 1.951e-09
  9.90335     80.3 9.928e+03 2.216e-09
  9.94272     80.2 1.013e+04 2.733e-09
  9.98209     80.0 1.042e+04 3.755e-09
 10.02146     79.5 1.076e+04 5.323e-09
 10.06083     78.5 1.101e+04 6.000e-09
 10.10020     76.5 1.094e+04 5.761e-09
 10.13957     74.6 1.057e+04 4.579e-09
 10.17894     73.1 1.006e+04 2.830e-09
 10.21831     71.8 9.550e+03 1.626e-09
 10.25255     71.0 9.103e+03 1.391e-09
 10.27223     70.7 9.131e+03 1.422e-09
 10.28439     70.7 9.015e+03 1.404e-09
 10.30408     71.7 8.865e+03 1.066e-09
 10.33642     72.2 8.833e+03 1.143e-09
 10.37579     72.8 8.850e+03 1.506e-09
 10.41516     73.4 9.054e+03 2.281e-09
 10.45453     73.9 9.304e+03 3.308e-09
 10.49390     74.0 9.483e+03 4.203e-09
 10.53328     74.0 9.551e+03 4.694e-09
 10.57265     73.8 9.538e+03 4.765e-09
 10.61202     73.5 9.484e+03 4.702e-09
 10.65139     73.1 9.384e+03 4.425e-09
 10.68595     73.1 9.255e+03 3.885e-09
 10.70564     73.3 9.975e+03 7.027e-09
 10.73013     73.4 9.660e+03 5.410e-09
 10.75126     73.5 9.314e+03 3.686e-09
 10.77095     74.1 9.023e+03 2.922e-09
 10.80887     74.2 8.804e+03 2.177e-09
 10.84824     74.6 8.648e+03 1.773e-09
 10.88761     75.3 8.638e+03 1.738e-09
 10.92698     76.1 8.694e+03 1.847e-09
 10.96635     76.9 8.882e+03 2.299e-09
 11.00572     77.6 9.120e+03 3.106e-09
 11.04509     78.0 9.308e+03 3.846e-09
 11.08446     78.0 9.445e+03 4.072e-09
 11.10720     77.9 9.536e+03 4.177e-09
 11.12688     78.4 9.742e+03 4.267e-09
 11.16320     77.5 1.013e+04 5.258e-09
 11.20257     75.5 1.087e+04 7.760e-09
 11.23029     72.8 1.159e+04 1.077e-08
 11.24998     75.2 1.107e+04 8.946e-09
 11.28131     72.5 1.148e+04 1.002e-08
 11.32068     70.2 1.137e+04 9.238e-09
 11.36005     68.5 1.106e+04 6.604e-09
 11.39942     67.1 1.070e+04 4.408e-09
 11.43879     66.4 1.038e+04 4.098e-09
 11.47816     66.5 1.033e+04 4.335e-09
 11.50759     66.7 1.020e+04 4.448e-09
 11.51841     67.1 1.015e+04 4.529e-09
 11.52835     66.7 1.009e+04 4.031e-09
 11.55690     67.6 1.010e+04 3.702e-09
 11.59627     68.3 1.027e+04 3.518e-09
 11.62570     68.7 1.027e+04 3.652e-09
 11.64529     69.1 1.028e+04 3.751e-09
 11.66498     69.5 1.032e+04 3.798e-09
 11.68466     69.5 1.043e+04 3.869e-09
 11.70435     69.5 1.054e+04 3.984e-09
 11.71897     69.1 1.076e+04 4.309e-09
 11.72891     69.6 1.095e+04 5.564e-09
 11.75375     67.6 1.174e+04 9.080e-09
 11.79312     64.5 1.227e+04 1.383e-08
 11.83249     61.5 1.204e+04 1.311e-08
 11.87186     60.4 1.105e+04 8.422e-09
 11.91032     60.6 9.997e+03 4.036e-09
 11.93001     61.1 1.001e+04 4.251e-09
 11.95060     61.9 9.367e+03 1.834e-09
 11.98998     63.1 9.181e+03 8.518e-10
 12.02935     64.7 9.177e+03 5.232e-10
 12.06872     66.6 8.858e+03 4.693e-10
 12.10809     69.0 8.794e+03 4.637e-10
 12.14746     71.5 8.800e+03 4.698e-10
 12.18683     74.0 8.804e+03 5.087e-10
 12.20803     76.4 8.768e+03 6.236e-10
 12.22772     77.3 8.743e+03 5.497e-10
 12.26557     79.7 8.718e+03 7.155e-10
 12.30494     82.1 8.750e+03 1.043e-09
 12.33157     84.6 8.984e+03 1.576e-09
 12.35125     85.0 9.037e+03 1.466e-09
 12.38368     87.3 9.462e+03 2.240e-09
 12.42305     88.4 9.755e+03 2.901e-09
 12.44745     88.8 9.948e+03 3.344e-09
 12.45720     89.2 9.920e+03 3.449e-09
 12.47207     90.1 1.017e+04 4.060e-09
 12.49175     90.7 1.054e+04 4.819e-09
 12.51144     90.7 1.091e+04 5.570e-09
 12.53112     90.5 1.133e+04 6.793e-09
 12.54200     89.7 1.187e+04 9.750e-09
 12.55184     89.3 1.136e+04 9.196e-09
 12.57049     88.4 1.189e+04 1.271e-08
 12.59018     87.0 1.259e+04 1.798e-08
 12.60986     84.9 1.338e+04 2.502e-08
 12.62955     82.0 1.409e+04 3.421e-08
 12.64923     78.9 1.470e+04 4.782e-08
 12.66892     76.4 1.523e+04 6.280e-08
 12.68687     74.2 1.549e+04 6.604e-08
 12.69671     75.5 1.539e+04 6.355e-08
 12.70829     73.6 1.532e+04 6.003e-08
 12.72797     72.3 1.494e+04 4.507e-08
 12.74278     70.9 1.431e+04 2.594e-08
 12.75262     70.4 1.439e+04 3.126e-08
 12.76734     68.6 1.344e+04 1.810e-08
 12.78703     67.0 1.255e+04 1.186e-08
 12.81665     66.2 1.209e+04 9.692e-09
 12.85612     65.9 1.160e+04 6.879e-09
 12.88555     65.9 1.142e+04 5.714e-09
 12.90514     66.2 1.141e+04 4.891e-09
 12.92482     66.2 1.147e+04 4.823e-09
 12.93622     65.9 1.169e+04 5.083e-09
 12.94511     66.1 1.179e+04 6.149e-09
 12.95340     65.7 1.209e+04 6.299e-09
 12.96419     63.7 1.291e+04 9.644e-09
 12.98388     61.9 1.375e+04 2.204e-08
 13.00356     61.2 1.453e+04 4.428e-08
 13.02325     60.6 1.469e+04 5.040e-08
 13.04293     60.0 1.444e+04 4.453e-08
 13.06262     59.5 1.362e+04 2.691e-08
 13.09224     57.6 1.270e+04 9.172e-09
 13.13171     53.6 1.137e+04 2.280e-09
 13.15437     51.3 1.073e+04 1.784e-09
 13.16907     51.4 1.050e+04 1.504e-09
 13.18578     52.1 1.073e+04 1.716e-09
 13.21045     52.2 1.065e+04 1.688e-09
 13.24982     52.3 1.062e+04 1.740e-09
 13.28919     52.3 1.062e+04 2.067e-09
 13.32856     52.5 1.077e+04 2.822e-09
 13.36793     52.9 1.097e+04 3.788e-09
 13.40730     53.1 1.106e+04 4.540e-09
 13.44667     53.0 1.106e+04 4.614e-09
 13.48605     52.5 1.104e+04 4.453e-09
 13.52542     51.4 1.096e+04 4.016e-09
 13.55594     50.2 1.077e+04 3.368e-09
 13.57562     50.9 1.101e+04 4.707e-09
 13.60416     49.8 1.063e+04 2.849e-09
 13.64353     48.8 1.043e+04 1.941e-09
 13.66481     48.3 1.028e+04 1.546e-09
 13.68449     47.7 1.018e+04 1.462e-09
 13.72227     47.6 1.001e+04 1.451e-09
 13.76164     47.5 9.987e+03 1.505e-09
 13.80101     47.3 9.970e+03 1.697e-09
 13.84038     46.9 9.971e+03 1.948e-09
 13.87975     46.3 1.000e+04 2.190e-09
 13.91912     45.5 9.934e+03 2.247e-09
 13.95750     45.3 9.852e+03 2.163e-09
 13.97718     45.3 9.822e+03 1.870e-09
 13.99786     45.4 9.684e+03 1.449e-09
 14.03723     45.9 9.604e+03 9.739e-10
 14.07660     46.3 9.475e+03 6.668e-10
 14.11597     47.2 9.337e+03 6.266e-10
 14.14383     48.6 9.357e+03 6.639e-10
 14.16352     48.6 9.367e+03 6.963e-10
 14.19471     49.7 9.475e+03 9.157e-10
 14.23408     50.4 9.766e+03 1.944e-09
 14.27345     51.2 1.038e+04 4.717e-09
 14.31282     51.9 1.105e+04 8.609e-09
 14.35219     51.9 1.124e+04 9.374e-09
 14.37874     52.0 1.104e+04 8.244e-09
 14.39843     51.9 1.101e+04 7.797e-09
 14.43093     52.4 1.053e+04 5.109e-09
 14.47030     52.9 1.012e+04 3.417e-09
 14.50967     53.8 9.954e+03 2.938e-09
 14.54904     55.1 9.900e+03 2.789e-09
 14.58841     56.8 9.866e+03 2.602e-09
 14.62286     58.6 9.847e+03 2.333e-09
 14.64255     59.0 9.665e+03 2.148e-09
 14.66715     60.8 9.618e+03 1.910e-09
 14.70652     62.6 9.682e+03 1.725e-09
 14.74589     64.5 9.736e+03 1.723e-09
 14.78031     66.3 9.885e+03 1.798e-09
 14.79999     65.7 9.622e+03 1.269e-09
 14.82463     67.5 9.888e+03 1.540e-09
 14.86400     68.4 1.002e+04 1.793e-09
 14.89343     69.2 1.003e+04 2.183e-09
 14.91302     70.1 1.017e+04 2.652e-09
 14.93271     70.4 1.045e+04 3.342e-09
 14.95239     70.0 1.116e+04 4.930e-09
 14.97208     68.2 1.260e+04 1.327e-08
 14.99073     66.8 1.520e+04 4.799e-08
 15.00058     68.4 1.370e+04 2.229e-08
 15.01145     67.5 1.586e+04 7.372e-08
 15.02616     66.6 1.690e+04 1.332e-07
 15.03596     65.8 1.775e+04 2.103e-07
 15.04580     65.2 1.841e+04 2.731e-07
 15.05564     64.1 1.885e+04 2.744e-07
 15.06548     62.8 1.934e+04 2.509e-07
 15.07533     61.0 2.063e+04 1.903e-07
 15.08517     58.6 2.141e+04 1.393e-07
 15.09501     55.6 2.123e+04 1.045e-07
 15.10982     53.7 1.981e+04 9.222e-08
 15.12138     50.3 1.635e+04 7.480e-08
 15.13122     50.0 1.533e+04 4.332e-08
 15.14924     50.0 1.407e+04 4.191e-08
 15.16893     50.5 1.379e+04 3.924e-08
 15.18861     51.4 1.366e+04 3.403e-08
 15.20136     52.2 1.359e+04 2.518e-08
 15.21120     53.0 1.355e+04 3.245e-08
 15.22798     53.8 1.368e+04 3.413e-08
 15.24767     54.7 1.372e+04 3.141e-08
 15.26735     55.7 1.379e+04 2.391e-08
 15.28704     56.3 1.356e+04 1.650e-08
 15.30672     56.3 1.306e+04 1.149e-08
 15.32641     56.0 1.246e+04 9.025e-09
 15.34610     56.2 1.186e+04 9.364e-09
 15.36090     56.8 1.182e+04 1.023e-08
 15.37074     56.9 1.191e+04 1.114e-08
 15.38547     57.4 1.176e+04 1.120e-08
 15.40214     58.4 1.173e+04 1.141e-08
 15.41198     59.6 1.207e+04 1.396e-08
 15.42484     60.5 1.178e+04 1.263e-08
 15.44452     61.4 1.160e+04 1.167e-08
 15.46421     62.1 1.139e+04 1.055e-08
 15.48389     63.0 1.117e+04 9.524e-09
 15.50358     63.9 1.100e+04 8.492e-09
 15.52326     64.7 1.088e+04 8.208e-09
 15.54295     65.7 1.086e+04 8.280e-09
 15.56263     66.7 1.089e+04 8.632e-09
 15.58232     67.8 1.097e+04 9.174e-09
 15.60041     68.9 1.106e+04 9.630e-09
 15.61025     69.1 1.085e+04 8.807e-09
 15.61276     70.3 1.105e+04 9.772e-09
 15.62260     71.5 1.081e+04 8.336e-09
 15.64137     72.7 1.102e+04 9.388e-09
 15.66106     73.8 1.112e+04 9.856e-09
 15.68074     74.9 1.119e+04 9.599e-09
 15.70043     75.9 1.119e+04 8.778e-09
 15.72011     76.7 1.103e+04 7.590e-09
 15.73980     77.5 1.083e+04 6.453e-09
 15.75948     78.2 1.066e+04 5.629e-09
 15.77917     79.0 1.058e+04 5.084e-09
 15.79885     79.9 1.056e+04 4.664e-09
 15.81354     80.8 1.060e+04 4.196e-09
 15.82338     82.3 1.078e+04 5.901e-09
 15.83822     83.2 1.082e+04 5.262e-09
 15.84977     84.1 1.092e+04 4.778e-09
 15.85961     84.8 1.134e+04 6.890e-09
 15.87759     84.9 1.171e+04 7.106e-09
 15.89728     84.5 1.228e+04 8.303e-09
 15.91696     83.9 1.297e+04 1.274e-08
 15.93665     83.6 1.358e+04 2.213e-08
 15.95633     83.9 1.411e+04 3.514e-08
 15.97602     84.4 1.438e+04 4.413e-08
 15.99570     84.9 1.436e+04 4.475e-08
 16.01432     85.4 1.414e+04 4.065e-08
 16.02416     86.2 1.434e+04 4.305e-08
 16.03507     86.8 1.400e+04 3.707e-08
 16.05476     86.9 1.356e+04 2.848e-08
 16.07445     86.8 1.310e+04 2.200e-08
 16.08928     86.6 1.268e+04 1.856e-08
 16.09913     87.7 1.424e+04 3.355e-08
 16.11382     88.3 1.389e+04 2.858e-08
 16.13350     89.0 1.339e+04 2.410e-08
 16.15319     89.5 1.285e+04 2.046e-08
 16.17287     89.9 1.277e+04 2.032e-08
 16.19256     90.0 1.300e+04 2.191e-08
 16.21224     90.0 1.373e+04 2.689e-08
 16.22494     89.8 1.453e+04 3.453e-08
 16.22982     90.8 1.442e+04 3.330e-08
 16.23675     90.6 1.479e+04 3.763e-08
 16.24659     90.4 1.520e+04 4.452e-08
 16.25643     90.3 1.567e+04 5.342e-08
 16.26628     90.2 1.617e+04 6.426e-08
 16.27612     90.1 1.670e+04 7.560e-08
 16.28596     89.9 1.733e+04 8.704e-08
 16.29581     89.4 1.815e+04 1.029e-07
 16.30565     88.9 1.905e+04 1.316e-07
 16.31549     88.4 1.990e+04 1.844e-07
 16.32524     87.5 2.063e+04 2.899e-07
 16.33016     88.5 2.077e+04 3.056e-07
 16.33362     86.6 2.146e+04 6.082e-07
 16.33854     82.9 2.059e+04 8.798e-07
 16.34502     79.3 2.077e+04 1.012e-06
 16.35486     72.1 2.278e+04 7.823e-07
 16.36470     51.7 2.871e+04 6.679e-07
 16.37455     29.8 2.879e+04 6.836e-07
 16.38439     15.5 2.412e+04 8.642e-07
 16.39423      5.9 2.653e+04 2.390e-07
 16.40407      2.6 2.531e+04 1.360e-07
 16.41392      2.7 2.361e+04 1.149e-07
 16.42568      6.8 2.309e+04 7.989e-08
 16.43557      5.6 2.232e+04 8.919e-08
 16.44846      9.6 2.068e+04 9.317e-08
 16.46815     13.7 2.010e+04 1.003e-07
 16.48783     17.0 1.976e+04 1.065e-07
 16.50752     20.0 1.939e+04 1.068e-07
 16.52720     22.6 1.896e+04 1.040e-07
 16.54689     24.8 1.846e+04 1.015e-07
 16.56657     26.7 1.792e+04 9.426e-08
 16.57815     28.7 1.734e+04 8.779e-08
 16.58800     30.0 1.543e+04 5.055e-08
 16.60594     32.1 1.547e+04 5.666e-08
 16.62563     34.3 1.568e+04 6.274e-08
 16.63635     36.4 1.592e+04 6.475e-08
 16.64619     36.1 1.551e+04 5.066e-08
 16.66500     37.8 1.534e+04 4.484e-08
 16.68468     39.0 1.500e+04 3.722e-08
 16.70437     39.6 1.442e+04 3.030e-08
 16.72405     39.4 1.378e+04 2.666e-08
 16.74374     39.0 1.327e+04 2.794e-08
 16.76342     38.7 1.343e+04 3.268e-08
 16.78311     39.1 1.385e+04 4.108e-08
 16.80280     39.8 1.412e+04 4.728e-08
 16.81767     40.7 1.423e+04 4.963e-08
 16.82751     40.8 1.302e+04 3.364e-08
 16.83713     41.4 1.324e+04 3.630e-08
 16.84697     41.4 1.272e+04 2.819e-08
 16.86185     41.3 1.298e+04 3.113e-08
 16.88154     39.4 1.472e+04 4.376e-08
 16.90122     32.2 1.850e+04 1.202e-07
 16.91594     27.8 1.880e+04 3.535e-07
 16.92573     28.3 1.848e+04 5.350e-07
 16.93557     28.8 1.842e+04 5.195e-07
 16.94225     29.2 1.841e+04 4.245e-07
 16.94410     29.5 1.844e+04 4.205e-07
 16.94726     29.3 1.840e+04 3.686e-07
 16.95526     29.2 1.826e+04 2.733e-07
 16.96510     27.6 1.862e+04 1.981e-07
 16.97991     20.9 2.028e+04 1.137e-07
 16.99965      9.8 1.917e+04 9.309e-08
 17.01933      3.5 1.714e+04 1.100e-07
 17.03791      1.6 1.672e+04 1.165e-07
 17.04775      3.9 1.631e+04 8.671e-08
 17.05718      2.2 1.560e+04 6.130e-08
 17.06703      2.9 1.628e+04 7.857e-08
 17.07839     -1.7 1.461e+04 3.226e-08
 17.09807     -9.5 1.180e+04 1.579e-08
 17.11776    -12.7 1.127e+04 1.375e-08
 17.13744    -15.3 1.170e+04 1.602e-08
 17.15713    -17.5 1.213e+04 2.040e-08
 17.17681    -18.6 1.242e+04 2.468e-08
 17.19650    -19.2 1.254e+04 2.636e-08
 17.21618    -20.0 1.236e+04 2.453e-08
 17.23587    -21.7 1.174e+04 1.859e-08
 17.24853    -24.2 1.107e+04 1.419e-08
 17.25838    -24.7 1.144e+04 1.632e-08
 17.27524    -27.2 1.070e+04 1.265e-08
 17.29492    -28.9 1.015e+04 1.032e-08
 17.30654    -30.2 9.712e+03 8.693e-09
 17.31638    -32.2 9.704e+03 8.838e-09
 17.33429    -33.0 9.369e+03 7.714e-09
 17.35398    -33.5 9.050e+03 6.649e-09
 17.37366    -33.9 8.739e+03 5.597e-09
 17.39335    -34.1 8.445e+03 4.678e-09
 17.41303    -33.9 8.236e+03 3.960e-09
 17.43272    -33.6 8.183e+03 3.650e-09
 17.46234    -33.3 8.228e+03 3.491e-09
 17.50181    -32.9 8.166e+03 3.051e-09
 17.53124    -34.5 8.104e+03 2.879e-09
 17.54606    -35.1 8.397e+03 3.329e-09
 17.55590    -36.9 8.492e+03 3.623e-09
 17.57052    -37.4 8.852e+03 4.710e-09
 17.59020    -37.4 9.341e+03 6.253e-09
 17.60989    -37.3 9.807e+03 7.944e-09
 17.62957    -37.2 1.019e+04 9.441e-09
 17.64926    -37.0 1.051e+04 1.035e-08
 17.65994    -37.1 1.066e+04 1.058e-08
 17.66978    -38.5 1.068e+04 1.028e-08
 17.68863    -38.9 1.064e+04 8.963e-09
 17.70831    -39.4 1.053e+04 7.843e-09
 17.72800    -39.8 1.046e+04 7.396e-09
 17.74768    -40.1 1.046e+04 7.381e-09
 17.76737    -40.4 1.061e+04 7.987e-09
 17.78557    -40.4 1.074e+04 9.111e-09
 17.79541    -41.7 1.104e+04 1.132e-08
 17.80674    -41.7 1.113e+04 1.213e-08
 17.82642    -41.9 1.126e+04 1.265e-08
 17.84611    -42.5 1.162e+04 1.390e-08
 17.86072    -43.9 1.239e+04 1.718e-08
 17.87056    -45.1 1.227e+04 1.590e-08
 17.88548    -47.1 1.291e+04 2.075e-08
 17.90516    -48.3 1.317e+04 2.624e-08
 17.92485    -48.7 1.312e+04 2.874e-08
 17.94453    -48.6 1.282e+04 2.858e-08
 17.96422    -47.8 1.211e+04 2.083e-08
 17.98390    -47.6 1.131e+04 1.238e-08
 18.00359    -48.0 1.055e+04 6.678e-09
 18.02327    -49.1 9.865e+03 3.945e-09
 18.03493    -49.6 9.337e+03 2.873e-09
 18.04477    -51.2 8.899e+03 2.642e-09
 18.06150    -50.1 8.797e+03 2.439e-09
 18.07134    -50.4 8.792e+03 2.463e-09
 18.08233    -49.7 8.802e+03 2.378e-09
 18.10201    -49.0 8.843e+03 2.367e-09
 18.12170    -48.5 9.096e+03 2.533e-09
 18.14138    -48.2 9.397e+03 3.021e-09
 18.16107    -47.8 9.629e+03 3.907e-09
 18.18075    -47.1 9.805e+03 5.105e-09
 18.20044    -46.1 9.966e+03 6.408e-09
 18.22012    -44.9 1.007e+04 7.462e-09
 18.23981    -43.8 1.007e+04 7.888e-09
 18.25949    -42.7 1.003e+04 7.930e-09
 18.27212    -41.6 9.845e+03 7.390e-09
 18.27723    -41.8 9.830e+03 7.370e-09
 18.28428    -41.9 9.678e+03 7.055e-09
 18.29887    -41.1 9.488e+03 6.057e-09
 18.31855    -40.2 9.310e+03 5.261e-09
 18.33824    -39.3 9.205e+03 4.752e-09
 18.36786    -38.3 9.103e+03 4.286e-09
 18.40733    -35.9 8.948e+03 3.841e-09
 18.44670    -33.9 9.042e+03 4.147e-09
 18.47310    -31.6 9.214e+03 4.783e-09
 18.49278    -32.3 9.915e+03 7.539e-09
 18.51415    -30.1 9.941e+03 7.802e-09
 18.53384    -29.7 9.764e+03 8.426e-09
 18.56481    -27.7 9.542e+03 6.898e-09
 18.60418    -26.3 9.427e+03 6.301e-09
 18.64355    -25.0 9.570e+03 6.486e-09
 18.68292    -23.4 9.947e+03 7.580e-09
 18.72229    -21.4 9.965e+03 7.555e-09
 18.76166    -19.1 9.896e+03 7.075e-09
 18.80103    -16.4 9.588e+03 5.349e-09
 18.84040    -14.2 9.399e+03 3.973e-09
 18.87466    -11.8 9.457e+03 3.649e-09
 18.89434    -13.9 1.003e+04 5.342e-09
 18.91914    -12.0 1.055e+04 7.939e-09
 18.95851     -9.4 1.130e+04 1.322e-08
 18.98794     -6.9 1.148e+04 1.704e-08
 19.00283     -5.3 1.196e+04 2.089e-08
 19.01267     -4.5 1.201e+04 2.020e-08
 19.02722     -3.6 1.272e+04 2.431e-08
 19.04690     -3.6 1.307e+04 2.739e-08
 19.06659     -3.0 1.338e+04 4.116e-08
 19.08509     -1.3 1.406e+04 5.754e-08
 19.09493     -1.7 1.375e+04 4.689e-08
 19.10596      0.2 1.388e+04 5.367e-08
 19.12564      2.3 1.423e+04 5.854e-08
 19.14533      3.0 1.538e+04 5.823e-08
 19.16501      2.4 1.751e+04 7.222e-08
 19.18470      1.6 1.944e+04 1.018e-07
 19.20438      0.7 1.992e+04 1.452e-07
 19.21910     -0.2 1.914e+04 1.537e-07
 19.22889     -0.3 1.848e+04 1.628e-07
 19.23873     -0.2 1.835e+04 1.492e-07
 19.24717     -0.3 1.763e+04 1.348e-07
 19.25214      1.5 1.825e+04 1.673e-07
 19.26344      1.4 1.796e+04 1.349e-07
 19.28312      0.1 1.752e+04 8.580e-08
 19.29571     -2.7 1.705e+04 5.797e-08
 19.30555    -11.4 1.412e+04 2.628e-08
 19.32249    -13.4 1.376e+04 2.819e-08
 19.34218    -14.3 1.348e+04 2.979e-08
 19.36186    -14.6 1.351e+04 3.059e-08
 19.37189    -15.5 1.428e+04 3.190e-08
 19.37677    -15.3 1.437e+04 3.366e-08
 19.38637    -17.6 1.541e+04 3.698e-08
 19.39600    -22.2 1.723e+04 4.452e-08
 19.40092    -25.8 1.735e+04 4.797e-08
 19.40606    -28.0 1.814e+04 5.818e-08
 19.41590    -32.1 1.770e+04 1.194e-07
 19.42574    -33.0 1.740e+04 1.765e-07
 19.43558    -32.9 1.740e+04 2.440e-07
 19.44543    -33.3 1.724e+04 2.549e-07
 19.45527    -32.7 1.715e+04 2.628e-07
 19.46511    -32.5 1.726e+04 2.041e-07
 19.47495    -33.6 1.811e+04 1.468e-07
 19.48480    -37.2 1.887e+04 9.300e-08
 19.49160    -42.4 1.768e+04 5.487e-08
 19.49652    -47.0 1.533e+04 3.694e-08
 19.50131    -50.8 1.353e+04 3.111e-08
 19.50624    -50.8 1.339e+04 2.965e-08
 19.51929    -52.3 1.316e+04 3.087e-08
 19.53903    -53.4 1.353e+04 3.667e-08
 19.55871    -54.1 1.393e+04 3.996e-08
 19.57840    -55.2 1.427e+04 4.254e-08
 19.59808    -56.3 1.444e+04 4.467e-08
 19.61777    -57.1 1.443e+04 4.603e-08
 19.63745    -57.7 1.437e+04 4.633e-08
 19.65714    -58.1 1.424e+04 4.615e-08
 19.67682    -58.4 1.417e+04 4.472e-08
 19.69651    -58.7 1.406e+04 4.210e-08
 19.70711    -58.8 1.390e+04 3.899e-08
 19.71696    -58.1 1.400e+04 4.142e-08
 19.73121    -58.1 1.386e+04 4.033e-08
 19.74106    -60.2 1.344e+04 3.127e-08
 19.75557    -59.9 1.324e+04 2.641e-08
 19.77525    -59.9 1.291e+04 2.150e-08
 19.79494    -60.1 1.230e+04 1.718e-08
 19.81462    -60.9 1.155e+04 1.428e-08
 19.83431    -61.4 1.106e+04 1.292e-08
 19.85399    -61.5 1.095e+04 1.269e-08
 19.87368    -61.4 1.099e+04 1.289e-08
 19.89336    -61.5 1.115e+04 1.352e-08
 19.90789    -61.7 1.131e+04 1.428e-08
 19.91774    -61.8 1.174e+04 1.639e-08
 19.93273    -62.5 1.201e+04 1.799e-08
 19.95242    -63.2 1.225e+04 1.999e-08
 19.97073    -63.8 1.243e+04 2.178e-08
 19.98057    -64.4 1.231e+04 2.125e-08
 19.99179    -64.8 1.240e+04 2.223e-08
 20.01147    -65.3 1.234e+04 2.170e-08
 20.03116    -66.0 1.221e+04 1.919e-08
 20.05084    -67.4 1.208e+04 1.669e-08
 20.07053    -69.2 1.206e+04 1.603e-08
 20.09021    -71.3 1.232e+04 1.721e-08
 20.10867    -73.2 1.261e+04 2.081e-08
 20.11852    -73.8 1.266e+04 2.149e-08
 20.12958    -75.3 1.262e+04 2.201e-08
 20.14927    -76.8 1.225e+04 1.939e-08
 20.16895    -78.4 1.167e+04 1.450e-08
 20.18864    -80.2 1.101e+04 1.056e-08
 20.20832    -81.7 1.045e+04 8.135e-09
 20.22009    -82.8 1.006e+04 7.148e-09
 20.22993    -83.3 1.049e+04 8.577e-09
 20.24769    -83.6 1.025e+04 8.040e-09
 20.26738    -83.6 1.007e+04 7.604e-09
 20.28706    -83.5 9.943e+03 7.227e-09
 20.30675    -83.3 9.874e+03 6.930e-09
 20.31930    -83.2 9.852e+03 6.708e-09
 20.32914    -83.2 1.020e+04 8.131e-09
 20.34612    -83.2 1.039e+04 8.428e-09
 20.36580    -83.5 1.065e+04 8.889e-09
 20.38549    -83.8 1.087e+04 9.337e-09
 20.40517    -84.2 1.096e+04 9.580e-09
 20.42486    -84.5 1.097e+04 9.664e-09
 20.44454    -84.6 1.085e+04 9.546e-09
 20.45960    -84.7 1.067e+04 9.213e-09
 20.46944    -84.2 1.052e+04 8.164e-09
 20.48392    -84.2 1.047e+04 8.144e-09
 20.50360    -84.2 1.042e+04 7.963e-09
 20.52008    -83.9 1.037e+04 7.573e-09
 20.52992    -83.5 1.054e+04 9.093e-09
 20.54297    -83.1 1.046e+04 8.547e-09
 20.56266    -82.6 1.035e+04 7.918e-09
 20.58234    -82.0 1.022e+04 7.214e-09
 20.60203    -81.3 1.009e+04 6.484e-09
 20.62171    -80.5 9.951e+03 5.793e-09
 20.64140    -79.6 9.819e+03 5.206e-09
 20.66108    -78.7 9.712e+03 4.728e-09
 20.68077    -77.7 9.632e+03 4.314e-09
 20.69911    -76.7 9.571e+03 3.965e-09
 20.70896    -76.5 9.614e+03 4.110e-09
 20.72014    -75.6 9.578e+03 3.952e-09
 20.73070    -74.7 9.567e+03 3.912e-09
 20.74054    -74.1 9.651e+03 4.314e-09
 20.75951    -73.3 9.621e+03 4.242e-09
 20.77919    -72.5 9.622e+03 4.251e-09
 20.79888    -71.8 9.670e+03 4.499e-09
 20.81856    -71.2 9.751e+03 4.911e-09
 20.83825    -70.4 9.842e+03 5.592e-09
 20.85793    -69.9 9.958e+03 6.185e-09
 20.87762    -69.1 1.012e+04 7.344e-09
 20.89730    -68.6 1.019e+04 7.950e-09
 20.91699    -67.7 1.035e+04 9.190e-09
 20.93148    -67.4 1.046e+04 9.898e-09
 20.94142    -67.0 1.030e+04 8.613e-09
 20.94857    -66.1 1.038e+04 9.650e-09
 20.95831    -65.5 1.099e+04 1.275e-08
 20.97604    -65.1 1.103e+04 1.330e-08
 20.99573    -64.5 1.104e+04 1.360e-08
 21.01541    -64.1 1.102e+04 1.361e-08
 21.03510    -63.4 1.085e+04 1.311e-08
 21.05478    -62.7 1.067e+04 1.203e-08
 21.07447    -62.1 1.044e+04 1.085e-08
 21.09415    -61.4 1.027e+04 9.840e-09
 21.12378    -60.5 1.007e+04 8.745e-09
 21.16325    -59.0 9.932e+03 7.988e-09
 21.20262    -57.6 9.970e+03 7.997e-09
 21.23205    -56.3 9.873e+03 7.791e-09
 21.25164    -55.9 1.031e+04 9.436e-09
 21.27132    -55.6 1.082e+04 1.194e-08
 21.29101    -55.5 1.143e+04 1.612e-08
 21.31069    -55.3 1.193e+04 2.154e-08
 21.33038    -54.6 1.229e+04 2.664e-08
 21.34289    -53.8 1.241e+04 2.891e-08
 21.35273    -54.1 1.260e+04 2.982e-08
 21.36975    -53.3 1.247e+04 2.926e-08
 21.38943    -52.4 1.207e+04 2.263e-08
 21.40912    -52.1 1.165e+04 1.525e-08
 21.42750    -52.0 1.144e+04 1.082e-08
 21.43734    -50.5 1.108e+04 1.163e-08
 21.44849    -50.4 1.088e+04 7.968e-09
 21.46817    -50.4 1.071e+04 6.187e-09
 21.48786    -50.2 1.069e+04 5.814e-09
 21.50754    -49.9 1.109e+04 6.033e-09
 21.52723    -49.9 1.198e+04 7.785e-09
 21.54367    -49.9 1.291e+04 1.160e-08
 21.55351    -49.3 1.224e+04 9.212e-09
 21.56660    -49.1 1.310e+04 1.430e-08
 21.58628    -48.8 1.372e+04 2.197e-08
 21.60597    -48.3 1.412e+04 3.196e-08
 21.62565    -48.0 1.437e+04 4.372e-08
 21.64534    -48.0 1.463e+04 5.565e-08
 21.66502    -48.1 1.492e+04 6.760e-08
 21.67686    -48.1 1.521e+04 8.166e-08
 21.68670    -47.1 1.445e+04 5.360e-08
 21.70439    -47.2 1.482e+04 7.279e-08
 21.72408    -46.8 1.528e+04 8.913e-08
 21.74376    -46.4 1.553e+04 9.641e-08
 21.75429    -46.0 1.558e+04 9.243e-08
 21.76413    -46.2 1.510e+04 7.979e-08
 21.78313    -45.4 1.491e+04 6.721e-08
 21.80282    -45.0 1.461e+04 4.802e-08
 21.82250    -45.2 1.413e+04 3.383e-08
 21.84219    -46.3 1.411e+04 2.997e-08
 21.86187    -50.5 1.585e+04 3.774e-08
 21.88156    -56.1 1.758e+04 9.517e-08
 21.89627    -58.5 1.830e+04 1.767e-07
 21.90607    -61.3 1.830e+04 1.996e-07
 21.91591    -63.8 1.787e+04 1.967e-07
 21.92120    -65.6 1.692e+04 1.277e-07
 21.92612    -65.8 1.760e+04 1.514e-07
 21.93560    -68.9 1.632e+04 5.250e-08
 21.94544    -72.5 1.483e+04 2.070e-08
 21.95502    -75.2 1.364e+04 1.056e-08
 21.96491    -74.5 1.375e+04 1.499e-08
 21.97999    -75.1 1.297e+04 7.805e-09
 21.99967    -75.4 1.245e+04 3.142e-09
 22.01936    -75.7 1.244e+04 1.743e-09
 22.03904    -75.8 1.232e+04 1.279e-09
 22.06867    -75.5 1.212e+04 9.716e-10
 22.10813    -73.6 1.186e+04 7.217e-10
 22.14620    -71.7 1.175e+04 5.667e-10
 22.16589    -71.6 1.192e+04 7.039e-10
 22.18687    -70.1 1.201e+04 4.857e-10
 22.22624    -68.6 1.197e+04 4.157e-10
 22.26562    -66.9 1.201e+04 3.963e-10
 22.30499    -65.3 1.204e+04 3.960e-10
 22.34436    -64.4 1.259e+04 4.399e-10
 22.38373    -64.2 1.239e+04 9.301e-10
 22.40544    -63.6 1.220e+04 2.376e-09
 22.42512    -64.0 1.223e+04 2.659e-09
 22.46247    -63.7 1.245e+04 4.249e-09
 22.50184    -63.8 1.255e+04 4.774e-09
 22.54121    -64.6 1.249e+04 3.828e-09
 22.56745    -65.0 1.247e+04 1.910e-09
 22.58714    -66.0 1.250e+04 2.895e-09
 22.61995    -66.5 1.247e+04 1.684e-09
 22.65932    -66.7 1.247e+04 1.412e-09
 22.69869    -66.3 1.251e+04 1.396e-09
 22.73806    -66.4 1.283e+04 1.878e-09
 22.77743    -66.9 1.310e+04 3.516e-09
 22.81680    -67.9 1.352e+04 7.082e-09
 22.85617    -69.1 1.386e+04 1.182e-08
 22.88447    -70.3 1.399e+04 1.360e-08
 22.90415    -68.9 1.381e+04 1.223e-08
 22.93491    -70.1 1.391e+04 1.321e-08
 22.96901    -70.7 1.385e+04 1.122e-08
 22.98870    -71.5 1.356e+04 7.186e-09
 23.01365    -71.5 1.363e+04 4.366e-09
 23.05302    -71.2 1.374e+04 3.583e-09
 23.09239    -70.7 1.385e+04 3.566e-09
 23.13176    -70.7 1.413e+04 4.521e-09
 23.17113    -70.8 1.434e+04 6.119e-09
 23.21050    -71.1 1.458e+04 7.631e-09
 23.24987    -71.7 1.465e+04 8.174e-09
 23.28924    -72.1 1.420e+04 7.589e-09
 23.32861    -72.1 1.361e+04 6.106e-09
 23.36350    -71.7 1.305e+04 4.878e-09
 23.38308    -71.4 1.325e+04 4.651e-09
 23.39006    -70.9 1.305e+04 4.245e-09
 23.40985    -70.6 1.302e+04 4.256e-09
 23.44672    -69.5 1.284e+04 3.985e-09
 23.48609    -68.2 1.256e+04 3.786e-09
 23.52546    -66.9 1.220e+04 3.529e-09
 23.56483    -65.4 1.205e+04 3.242e-09
 23.60420    -63.9 1.206e+04 3.137e-09
 23.64357    -63.1 1.202e+04 3.530e-09
 23.67300    -64.3 1.270e+04 4.810e-09
 23.69259    -66.1 1.380e+04 9.906e-09
 23.71228    -67.5 1.517e+04 3.596e-08
 23.73196    -66.9 1.609e+04 1.121e-07
 23.75165    -66.0 1.667e+04 1.853e-07
 23.77133    -66.0 1.664e+04 1.935e-07
 23.79102    -65.6 1.556e+04 1.159e-07
 23.80147    -64.8 1.410e+04 5.078e-08
 23.81131    -64.9 1.350e+04 3.323e-08
 23.83039    -65.3 1.269e+04 1.407e-08
 23.85007    -66.7 1.217e+04 7.314e-09
 23.86202    -67.5 1.111e+04 4.878e-09
 23.87186    -69.2 1.048e+04 3.824e-09
 23.88944    -68.4 1.034e+04 3.695e-09
 23.91907    -67.9 1.023e+04 3.643e-09
 23.95854    -66.7 1.010e+04 3.956e-09
 23.99791    -65.7 1.014e+04 5.140e-09
 24.03728    -65.2 1.021e+04 6.560e-09
 24.07665    -65.0 1.015e+04 7.385e-09
 24.11602    -64.7 9.995e+03 7.572e-09
 24.15539    -64.4 9.734e+03 7.262e-09
 24.19338    -63.8 9.718e+03 7.304e-09
 24.21307    -63.4 9.422e+03 6.462e-09
 24.23413    -62.8 9.672e+03 7.238e-09
 24.26356    -62.8 1.045e+04 9.580e-09
 24.28315    -63.0 1.085e+04 1.155e-08
 24.30283    -62.5 1.120e+04 1.391e-08
 24.32252    -62.0 1.144e+04 1.564e-08
 24.34104    -61.6 1.163e+04 1.710e-08
 24.35089    -63.1 1.184e+04 1.939e-08
 24.36189    -63.1 1.216e+04 2.030e-08
 24.38157    -63.2 1.254e+04 2.169e-08
 24.40126    -63.6 1.301e+04 2.388e-08
 24.41365    -63.9 1.338e+04 2.628e-08
 24.42349    -63.7 1.418e+04 4.618e-08
 24.44063    -63.5 1.457e+04 4.966e-08
 24.46031    -63.5 1.470e+04 4.857e-08
 24.48000    -63.9 1.461e+04 4.021e-08
 24.49968    -64.7 1.439e+04 3.268e-08
 24.51937    -66.5 1.444e+04 3.113e-08
 24.53905    -69.5 1.534e+04 4.314e-08
 24.55874    -72.2 1.634e+04 8.493e-08
 24.57842    -75.5 1.761e+04 1.235e-07
 24.59040    -82.3 1.838e+04 1.270e-07
 24.59527    -76.3 1.849e+04 1.804e-07
 24.60293    -80.7 1.888e+04 1.823e-07
 24.61277    -87.5 1.985e+04 1.561e-07
 24.61926    -96.3 2.052e+04 1.243e-07
 24.62418    -97.1 2.201e+04 1.510e-07
 24.63246   -109.0 2.155e+04 1.377e-07
 24.64230   -118.2 1.995e+04 1.455e-07
 24.65214   -123.4 1.862e+04 1.622e-07
 24.66199   -126.3 1.759e+04 1.696e-07
 24.67183   -127.7 1.701e+04 1.505e-07
 24.68167   -128.7 1.657e+04 1.248e-07
 24.69648   -129.8 1.607e+04 9.692e-08
 24.71622   -131.0 1.463e+04 5.283e-08
 24.73590   -131.6 1.355e+04 3.395e-08
 24.75559   -132.3 1.227e+04 2.220e-08
 24.77527   -132.4 1.154e+04 1.726e-08
 24.79496   -132.2 1.091e+04 1.381e-08
 24.81464   -131.6 1.036e+04 1.107e-08
 24.82505   -130.9 9.912e+03 8.999e-09
 24.83048   -131.6 9.586e+03 7.955e-09
 24.83976   -131.4 9.441e+03 7.268e-09
 24.85401   -130.6 9.049e+03 5.778e-09
 24.87370   -129.8 8.776e+03 4.772e-09
 24.89339   -129.0 8.620e+03 4.133e-09
 24.91307   -128.1 8.562e+03 3.805e-09
 24.94270   -127.2 8.534e+03 3.635e-09
 24.98216   -125.6 8.479e+03 3.539e-09
 25.01619   -124.6 8.610e+03 3.680e-09
 25.03587   -125.1 8.524e+03 3.485e-09
 25.06090   -124.4 8.645e+03 3.668e-09
 25.10027   -124.3 8.722e+03 3.794e-09
 25.13964   -124.4 8.783e+03 3.868e-09
 25.17901   -124.4 8.862e+03 3.886e-09
 25.21839   -124.3 8.909e+03 3.821e-09
 25.25776   -123.9 8.898e+03 3.266e-09
 25.29713   -123.2 8.842e+03 2.735e-09
 25.31898   -122.2 8.835e+03 2.463e-09
 25.33867   -122.7 9.316e+03 3.056e-09
 25.37587   -121.4 9.399e+03 2.979e-09
 25.41524   -119.9 9.459e+03 2.933e-09
 25.43743   -118.5 9.527e+03 2.859e-09
 25.45712   -117.9 9.468e+03 2.904e-09
 25.49398   -116.4 9.520e+03 2.846e-09
 25.53335   -115.0 9.606e+03 2.636e-09
 25.57272   -113.8 9.696e+03 2.341e-09
 25.61209   -112.5 9.786e+03 2.004e-09
 25.65146   -111.2 9.885e+03 1.685e-09
 25.69083   -109.7 1.004e+04 1.424e-09
 25.73020   -108.0 1.022e+04 1.280e-09
 25.76957   -106.2 1.031e+04 1.237e-09
 25.79801   -104.3 1.050e+04 1.217e-09
 25.81770   -104.2 1.068e+04 1.361e-09
 25.83900   -102.4 1.089e+04 1.538e-09
 25.85868   -102.1 1.089e+04 1.538e-09
 25.88768   -100.4 1.110e+04 1.768e-09
 25.92705    -98.7 1.141e+04 1.960e-09
 25.96642    -97.0 1.179e+04 2.048e-09
 26.00579    -95.4 1.216e+04 2.039e-09
 26.04516    -93.9 1.241e+04 2.015e-09
 26.08453    -92.5 1.259e+04 1.969e-09
 26.12390    -91.0 1.274e+04 1.915e-09
 26.16327    -89.7 1.291e+04 1.883e-09
 26.20264    -88.3 1.291e+04 1.996e-09
 26.24056    -86.8 1.294e+04 2.186e-09
 26.26024    -86.4 1.311e+04 1.471e-09
 26.27704    -84.7 1.316e+04 1.447e-09
 26.29673    -84.9 1.300e+04 2.367e-09
 26.32075    -83.3 1.307e+04 2.540e-09
 26.36012    -81.8 1.315e+04 2.793e-09
 26.39949    -80.5 1.323e+04 3.121e-09
 26.43886    -79.6 1.326e+04 3.449e-09
 26.47823    -79.2 1.336e+04 4.220e-09
 26.51760    -79.2 1.340e+04 5.521e-09
 26.55697    -79.3 1.347e+04 7.619e-09
 26.59634    -79.6 1.357e+04 9.526e-09
 26.63571    -80.2 1.361e+04 1.000e-08
 26.66180    -80.7 1.346e+04 8.608e-09
 26.68149    -81.1 1.341e+04 7.718e-09
 26.71446    -81.3 1.332e+04 4.704e-09
 26.75383    -81.5 1.334e+04 3.075e-09
 26.77576    -81.4 1.325e+04 2.584e-09
 26.79544    -82.2 1.324e+04 3.490e-09
 26.83257    -81.0 1.322e+04 2.781e-09
 26.87194    -79.8 1.332e+04 2.514e-09
 26.91131    -78.5 1.337e+04 2.468e-09
 26.95068    -77.4 1.350e+04 2.562e-09
 26.99005    -76.4 1.349e+04 2.825e-09
 27.02942    -75.6 1.344e+04 3.078e-09
 27.06336    -74.8 1.337e+04 3.365e-09
 27.08305    -75.2 1.345e+04 3.175e-09
 27.10816    -74.4 1.334e+04 3.462e-09
 27.14753    -73.5 1.327e+04 4.125e-09
 27.18690    -72.6 1.320e+04 5.114e-09
 27.22627    -71.7 1.316e+04 5.607e-09
 27.25478    -71.1 1.297e+04 5.391e-09
 27.27447    -69.9 1.334e+04 5.363e-09
 27.30501    -69.2 1.327e+04 5.093e-09
 27.34438    -68.2 1.316e+04 3.693e-09
 27.38375    -67.3 1.309e+04 2.709e-09
 27.42312    -66.3 1.303e+04 2.466e-09
 27.46249    -65.2 1.301e+04 2.461e-09
 27.48461    -64.3 1.295e+04 2.925e-09
 27.50430    -65.5 1.301e+04 2.662e-09
 27.54123    -64.5 1.292e+04 3.533e-09
 27.58060    -63.5 1.284e+04 4.265e-09
 27.61997    -62.5 1.278e+04 4.426e-09
 27.65934    -61.3 1.246e+04 4.115e-09
 27.69871    -59.8 1.233e+04 3.181e-09
 27.73381    -58.2 1.239e+04 2.547e-09
 27.75350    -58.0 1.242e+04 1.925e-09
 27.77745    -56.6 1.238e+04 1.841e-09
 27.81682    -55.2 1.237e+04 1.909e-09
 27.85619    -54.0 1.228e+04 2.099e-09
 27.88617    -53.0 1.223e+04 2.243e-09
 27.90586    -53.5 1.232e+04 2.603e-09
 27.93493    -52.6 1.232e+04 2.688e-09
 27.97430    -52.0 1.223e+04 2.758e-09
 28.01367    -51.4 1.216e+04 2.823e-09
 28.05304    -50.6 1.205e+04 2.737e-09
 28.09241    -49.6 1.191e+04 2.297e-09
 28.13178    -48.3 1.184e+04 1.656e-09
 28.17116    -47.3 1.178e+04 1.273e-09
 28.21053    -46.4 1.174e+04 1.214e-09
 28.23253    -45.8 1.169e+04 1.568e-09
 28.25221    -45.4 1.190e+04 1.329e-09
 28.28773    -44.6 1.162e+04 2.553e-09
 28.30742    -45.3 1.159e+04 2.522e-09
 28.32864    -44.2 1.148e+04 3.316e-09
 28.36801    -43.7 1.135e+04 3.350e-09
 28.40738    -42.9 1.101e+04 2.397e-09
 28.44675    -42.6 1.093e+04 1.357e-09
 28.48612    -42.6 1.091e+04 9.703e-10
 28.52549    -42.0 1.079e+04 9.040e-10
 28.56486    -41.1 1.068e+04 8.242e-10
 28.60423    -40.3 1.057e+04 7.133e-10
 28.64360    -39.6 1.045e+04 6.266e-10
 28.68297    -39.4 1.044e+04 6.053e-10
 28.70898    -39.6 1.034e+04 7.554e-10
 28.71788    -41.1 1.024e+04 7.220e-10
 28.73124    -40.9 1.016e+04 7.435e-10
 28.76171    -40.7 9.905e+03 1.079e-09
 28.80108    -40.2 9.856e+03 1.205e-09
 28.84045    -39.8 9.730e+03 1.091e-09
 28.87982    -39.4 9.714e+03 7.789e-10
 28.91919    -39.2 9.684e+03 5.875e-10
 28.95856    -38.8 9.707e+03 5.322e-10
 28.99793    -38.4 9.841e+03 5.306e-10
 29.03730    -38.3 1.008e+04 7.206e-10
 29.07667    -38.1 1.020e+04 1.382e-09
 29.11054    -37.8 1.064e+04 2.822e-09
 29.13023    -38.9 1.068e+04 3.148e-09
 29.15541    -38.6 1.109e+04 5.341e-09
 29.18484    -37.5 1.154e+04 7.211e-09
 29.20023    -37.5 1.164e+04 8.254e-09
 29.21017    -37.1 1.115e+04 5.479e-09
 29.23415    -36.7 1.134e+04 7.324e-09
 29.27352    -36.4 1.138e+04 7.744e-09
 29.31289    -36.3 1.122e+04 6.908e-09
 29.35226    -36.2 1.092e+04 5.443e-09
 29.39163    -35.9 1.065e+04 4.715e-09
 29.43100    -35.0 1.050e+04 4.079e-09
 29.47037    -34.2 1.041e+04 3.727e-09
 29.49980    -33.2 1.027e+04 3.265e-09
 29.51939    -33.3 1.028e+04 3.353e-09
 29.53169    -32.7 1.048e+04 4.234e-09
 29.54153    -32.3 1.023e+04 3.192e-09
 29.55876    -32.1 1.019e+04 3.337e-09
 29.57845    -31.6 1.036e+04 3.800e-09
 29.59813    -31.4 1.037e+04 4.196e-09
 29.61782    -30.5 1.063e+04 5.009e-09
 29.63750    -30.4 1.068e+04 5.301e-09
 29.65719    -29.6 1.091e+04 5.880e-09
 29.67687    -29.5 1.091e+04 5.591e-09
 29.68910    -29.1 1.101e+04 5.407e-09
 29.70889    -27.5 1.112e+04 6.049e-09
 29.74597    -27.0 1.122e+04 6.145e-09
 29.78534    -26.6 1.132e+04 6.480e-09
 29.81477    -26.1 1.144e+04 6.804e-09
 29.83435    -26.2 1.155e+04 6.905e-09
 29.85404    -26.2 1.174e+04 6.514e-09
 29.87372    -26.2 1.207e+04 6.950e-09
 29.89341    -26.4 1.223e+04 7.316e-09
 29.91309    -26.4 1.246e+04 9.168e-09
 29.92862    -26.5 1.269e+04 1.212e-08
 29.93846    -24.5 1.244e+04 7.581e-09
 29.94300    -24.7 1.279e+04 1.133e-08
 29.95284    -24.6 1.264e+04 9.208e-09
 29.97215    -24.8 1.319e+04 1.547e-08
 29.99183    -25.2 1.389e+04 2.635e-08
 30.01152    -25.2 1.475e+04 4.111e-08
 30.03121    -25.2 1.532e+04 5.126e-08
 30.05089    -25.6 1.550e+04 5.058e-08
 30.07058    -26.5 1.516e+04 3.004e-08
 30.09026    -28.6 1.409e+04 1.462e-08
 30.10995    -31.1 1.338e+04 1.086e-08
 30.12963    -33.5 1.353e+04 1.089e-08
 30.14378    -36.3 1.379e+04 1.824e-08
 30.15362    -36.1 1.397e+04 1.583e-08
 30.16813    -37.4 1.399e+04 2.963e-08
 30.17798    -36.3 1.427e+04 2.888e-08
 30.18869    -36.9 1.442e+04 4.021e-08
 30.20837    -38.0 1.427e+04 3.995e-08
 30.22806    -39.0 1.325e+04 2.074e-08
 30.24774    -40.6 1.241e+04 8.495e-09
 30.26743    -42.5 1.184e+04 4.779e-09
 30.28711    -43.1 1.145e+04 3.764e-09
 30.30680    -43.2 1.123e+04 3.341e-09
 30.32648    -43.3 1.109e+04 3.152e-09
 30.34456    -43.1 1.101e+04 3.094e-09
 30.35440    -43.0 1.110e+04 3.337e-09
 30.36585    -42.6 1.103e+04 3.439e-09
 30.38554    -42.2 1.098e+04 3.508e-09
 30.40522    -41.6 1.091e+04 3.427e-09
 30.41749    -41.3 1.081e+04 3.300e-09
 30.42733    -41.2 1.086e+04 3.620e-09
 30.45453    -40.1 1.074e+04 3.163e-09
 30.49400    -38.6 1.039e+04 2.122e-09
 30.53337    -36.9 1.004e+04 1.378e-09
 30.57274    -35.1 9.867e+03 9.978e-10
 30.61211    -33.3 9.795e+03 8.924e-10
 30.64736    -31.9 9.718e+03 9.875e-10
 30.66704    -31.5 9.829e+03 1.323e-09
 30.69085    -30.6 9.796e+03 2.204e-09
 30.72028    -29.9 1.003e+04 3.353e-09
 30.73987    -30.1 1.003e+04 3.695e-09
 30.75596    -29.8 1.034e+04 5.401e-09
 30.76580    -29.8 1.047e+04 5.909e-09
 30.77924    -30.7 1.064e+04 6.881e-09
 30.79893    -31.6 1.085e+04 8.076e-09
 30.81861    -33.2 1.091e+04 8.349e-09
 30.83830    -35.2 1.075e+04 8.215e-09
 30.85798    -36.7 1.075e+04 8.064e-09
 30.87767    -38.6 1.051e+04 7.545e-09
 30.89652    -39.8 1.056e+04 7.726e-09
 30.90636    -40.2 1.054e+04 8.020e-09
 30.91704    -42.0 1.050e+04 8.016e-09
 30.93672    -44.2 1.083e+04 9.117e-09
 30.95641    -46.8 1.114e+04 1.150e-08
 30.96658    -48.7 1.162e+04 1.606e-08
 30.97643    -48.6 1.152e+04 1.516e-08
 30.99578    -49.8 1.207e+04 2.075e-08
 31.01546    -50.6 1.241e+04 2.410e-08
 31.03515    -51.7 1.242e+04 2.430e-08
 31.05483    -52.6 1.208e+04 2.108e-08
 31.07452    -53.5 1.158e+04 1.699e-08
 31.09420    -54.4 1.120e+04 1.457e-08
 31.12383    -54.9 1.101e+04 1.348e-08
 31.14597    -55.2 1.109e+04 1.391e-08
 31.15572    -55.5 1.124e+04 1.488e-08
 31.16737    -56.1 1.141e+04 1.573e-08
 31.17721    -56.1 1.131e+04 1.534e-08
 31.19263    -56.8 1.141e+04 1.554e-08
 31.21231    -57.6 1.153e+04 1.598e-08
 31.23200    -58.4 1.166e+04 1.653e-08
 31.25168    -59.2 1.171e+04 1.678e-08
 31.27137    -59.8 1.162e+04 1.597e-08
 31.29105    -60.3 1.136e+04 1.355e-08
 31.31074    -60.9 1.105e+04 1.101e-08
 31.33042    -61.5 1.083e+04 9.523e-09
 31.35011    -62.0 1.078e+04 9.135e-09
 31.36815    -62.4 1.095e+04 9.470e-09
 31.37799    -61.5 1.051e+04 7.563e-09
 31.38539    -61.8 1.076e+04 8.157e-09
 31.39523    -62.3 1.071e+04 7.805e-09
 31.40916    -63.1 1.134e+04 9.845e-09
 31.42885    -64.1 1.213e+04 1.429e-08
 31.44853    -64.8 1.289e+04 2.269e-08
 31.46822    -65.0 1.349e+04 3.403e-08
 31.48790    -64.9 1.383e+04 4.231e-08
 31.50759    -64.8 1.396e+04 4.518e-08
 31.52728    -64.9 1.350e+04 3.638e-08
 31.54696    -65.2 1.295e+04 2.620e-08
 31.56665    -65.8 1.225e+04 1.693e-08
 31.57877    -66.6 1.153e+04 1.107e-08
 31.58861    -65.3 1.200e+04 1.546e-08
 31.60602    -65.8 1.136e+04 1.076e-08
 31.62491    -66.2 1.099e+04 8.230e-09
 31.63475    -66.8 1.099e+04 8.853e-09
 31.64539    -66.9 1.088e+04 7.862e-09
 31.66507    -67.0 1.092e+04 7.670e-09
 31.68476    -69.4 1.222e+04 9.183e-09
 31.70444    -73.2 1.484e+04 2.146e-08
 31.72413    -75.2 1.611e+04 6.025e-08
 31.74381    -75.9 1.675e+04 1.096e-07
 31.76350    -77.0 1.690e+04 1.277e-07
 31.77955    -78.1 1.618e+04 9.753e-08
 31.78939    -78.4 1.724e+04 1.564e-07
 31.80287    -79.3 1.573e+04 7.997e-08
 31.82255    -80.4 1.383e+04 3.710e-08
 31.84224    -81.5 1.272e+04 2.359e-08
 31.86192    -81.9 1.228e+04 2.033e-08
 31.87426    -82.0 1.217e+04 1.965e-08
 31.88411    -82.5 1.269e+04 2.621e-08
 31.90129    -82.5 1.270e+04 2.711e-08
 31.92098    -82.6 1.275e+04 2.919e-08
 31.94066    -82.5 1.274e+04 3.026e-08
 31.96035    -82.1 1.257e+04 3.027e-08
 31.98003    -81.8 1.233e+04 2.734e-08
 31.99017    -81.6 1.204e+04 2.357e-08
 32.00002    -82.2 1.218e+04 2.511e-08
 32.01940    -82.2 1.194e+04 2.273e-08
 32.03909    -82.3 1.171e+04 2.094e-08
 32.05877    -82.4 1.147e+04 1.949e-08
 32.07846    -82.4 1.126e+04 1.835e-08
 32.09814    -82.4 1.107e+04 1.749e-08
 32.11378    -82.5 1.092e+04 1.673e-08
 32.12362    -83.3 1.035e+04 1.333e-08
 32.13751    -83.2 1.018e+04 1.234e-08
 32.15720    -83.3 1.002e+04 1.135e-08
 32.17688    -83.4 9.844e+03 1.047e-08
 32.19095    -83.5 9.706e+03 9.804e-09
 32.20080    -83.4 9.384e+03 8.229e-09
 32.21625    -83.6 9.375e+03 8.180e-09
 32.23594    -84.3 9.554e+03 8.787e-09
 32.25563    -85.1 9.982e+03 1.062e-08
 32.27531    -85.8 1.044e+04 1.304e-08
 32.29500    -86.6 1.076e+04 1.485e-08
 32.31468    -87.4 1.084e+04 1.528e-08
 32.33437    -88.2 1.069e+04 1.462e-08
 32.35329    -88.5 1.026e+04 1.184e-08
 32.36313    -88.9 1.025e+04 1.192e-08
 32.37374    -89.0 9.790e+03 9.384e-09
 32.39173    -89.2 9.458e+03 7.704e-09
 32.40158    -89.6 9.525e+03 7.878e-09
 32.41311    -89.7 9.331e+03 6.990e-09
 32.43279    -89.5 9.277e+03 6.756e-09
 32.45248    -89.3 9.294e+03 6.749e-09
 32.47216    -89.3 9.621e+03 7.527e-09
 32.49185    -89.3 1.011e+04 9.667e-09
 32.51153    -89.1 1.066e+04 1.284e-08
 32.53122    -88.9 1.119e+04 1.646e-08
 32.55090    -88.8 1.159e+04 1.943e-08
 32.57059    -88.8 1.174e+04 2.051e-08
 32.59027    -88.9 1.174e+04 2.060e-08
 32.60236    -88.7 1.159e+04 1.947e-08
 32.60489    -89.3 1.153e+04 1.871e-08
 32.61249    -89.6 1.106e+04 1.532e-08
 32.62964    -89.2 1.089e+04 1.397e-08
 32.64933    -88.8 1.076e+04 1.282e-08
 32.66901    -88.4 1.065e+04 1.176e-08
 32.68870    -88.0 1.053e+04 1.082e-08
 32.70838    -87.5 1.044e+04 1.020e-08
 32.72807    -87.0 1.037e+04 9.674e-09
 32.74775    -86.4 1.029e+04 9.092e-09
 32.76744    -85.6 1.025e+04 8.539e-09
 32.78712    -84.9 1.024e+04 8.044e-09
 32.80314    -84.3 1.023e+04 7.556e-09
 32.81298    -84.4 1.011e+04 6.806e-09
 32.82649    -83.7 1.009e+04 6.375e-09
 32.84216    -83.1 1.008e+04 5.997e-09
 32.85201    -83.2 1.018e+04 6.786e-09
 32.86586    -82.5 1.020e+04 6.530e-09
 32.88555    -81.8 1.025e+04 6.380e-09
 32.90523    -81.1 1.029e+04 6.300e-09
 32.92492    -80.3 1.034e+04 6.238e-09
 32.94460    -79.6 1.043e+04 6.182e-09
 32.96429    -78.8 1.049e+04 6.130e-09
 32.98398    -78.1 1.055e+04 6.087e-09
 33.00366    -77.6 1.070e+04 6.055e-09
 33.01376    -77.4 1.096e+04 6.471e-09
 33.02360    -77.0 1.073e+04 5.831e-09
 33.04303    -76.9 1.102e+04 6.804e-09
 33.06272    -77.3 1.154e+04 9.064e-09
 33.08168    -78.0 1.219e+04 1.355e-08
 33.09152    -78.7 1.288e+04 2.288e-08
 33.10209    -78.9 1.371e+04 3.756e-08
 33.12177    -79.0 1.417e+04 4.907e-08
 33.14146    -79.2 1.421e+04 5.121e-08
 33.16114    -79.2 1.362e+04 4.112e-08
 33.18083    -79.0 1.263e+04 2.525e-08
 33.20051    -79.2 1.165e+04 1.460e-08
 33.21454    -79.5 1.089e+04 9.192e-09
 33.22438    -78.5 1.096e+04 9.825e-09
 33.23988    -78.6 1.038e+04 6.659e-09
 33.25957    -78.2 9.868e+03 4.853e-09
 33.27925    -77.2 9.493e+03 3.689e-09
 33.29894    -76.2 9.342e+03 2.971e-09
 33.32856    -75.3 9.282e+03 2.568e-09
 33.36803    -73.9 9.217e+03 2.348e-09
 33.40740    -72.1 9.215e+03 2.323e-09
 33.44677    -70.5 9.367e+03 2.583e-09
 33.48614    -69.0 9.421e+03 2.875e-09
 33.52551    -67.8 9.389e+03 2.931e-09
 33.56090    -66.5 9.188e+03 2.660e-09
 33.58059    -66.9 9.270e+03 3.019e-09
 33.60425    -65.3 9.034e+03 2.518e-09
 33.62614    -63.2 8.855e+03 2.129e-09
 33.64583    -62.1 9.111e+03 2.696e-09
 33.68299    -60.1 8.980e+03 2.334e-09
 33.72236    -58.0 8.863e+03 1.946e-09
 33.76173    -55.7 8.838e+03 1.711e-09
 33.80110    -53.3 8.811e+03 1.535e-09
 33.84047    -50.9 8.812e+03 1.388e-09
 33.87984    -48.6 8.826e+03 1.343e-09
 33.91921    -46.3 8.959e+03 1.446e-09
 33.95858    -43.9 9.171e+03 1.785e-09
 33.99795    -41.6 9.509e+03 2.272e-09
 34.02770    -39.3 9.959e+03 3.009e-09
 34.04739    -38.8 9.732e+03 2.712e-09
 34.05952    -37.5 1.005e+04 3.631e-09
 34.06926    -37.9 1.008e+04 3.699e-09
 34.08634    -37.5 1.017e+04 4.211e-09
 34.10603    -36.2 1.039e+04 5.154e-09
 34.12571    -35.4 1.056e+04 5.932e-09
 34.14540    -34.4 1.074e+04 6.700e-09
 34.16508    -33.4 1.091e+04 7.203e-09
 34.18477    -32.5 1.099e+04 7.372e-09
 34.20445    -31.8 1.102e+04 7.284e-09
 34.22414    -31.0 1.102e+04 6.847e-09
 34.23813    -30.1 1.100e+04 6.184e-09
 34.24797    -29.8 1.085e+04 5.768e-09
 34.26351    -28.9 1.092e+04 5.311e-09
 34.28319    -28.1 1.090e+04 4.539e-09
 34.29894    -27.4 1.093e+04 3.951e-09
 34.30878    -27.8 1.086e+04 4.512e-09
 34.32256    -27.2 1.092e+04 4.272e-09
 34.34225    -26.6 1.097e+04 4.131e-09
 34.36193    -26.0 1.094e+04 4.052e-09
 34.38162    -25.2 1.132e+04 4.422e-09
 34.40130    -25.0 1.133e+04 4.659e-09
 34.42099    -23.6 1.164e+04 5.611e-09
 34.43891    -23.5 1.159e+04 5.879e-09
 34.44885    -22.9 1.163e+04 5.552e-09
 34.47040    -21.4 1.207e+04 7.326e-09
 34.49983    -20.9 1.280e+04 9.781e-09
 34.51942    -22.6 1.385e+04 1.643e-08
 34.53845    -24.2 1.488e+04 3.616e-08
 34.54829    -24.3 1.454e+04 3.765e-08
 34.55879    -24.3 1.557e+04 8.087e-08
 34.57847    -23.1 1.674e+04 1.313e-07
 34.59816    -23.5 1.705e+04 1.404e-07
 34.61784    -24.3 1.680e+04 9.421e-08
 34.63753    -25.7 1.625e+04 6.174e-08
 34.64953    -26.1 1.570e+04 5.303e-08
 34.65938    -24.9 1.494e+04 3.230e-08
 34.67690    -24.5 1.491e+04 3.319e-08
 34.69658    -23.8 1.544e+04 4.180e-08
 34.71627    -25.4 1.744e+04 5.594e-08
 34.73098    -29.7 1.923e+04 1.038e-07
 34.74078    -32.7 1.929e+04 2.169e-07
 34.74983    -34.3 1.902e+04 4.261e-07
 34.75475    -34.3 1.841e+04 8.826e-07
 34.76046    -34.0 1.806e+04 1.719e-06
 34.77030    -34.3 1.802e+04 1.949e-06
 34.78015    -34.9 1.835e+04 1.023e-06
 34.78771    -36.0 1.888e+04 2.154e-07
 34.79263    -35.8 1.893e+04 2.888e-07
 34.79983    -39.2 1.770e+04 9.288e-08
 34.81464    -41.7 1.593e+04 5.062e-08
 34.83438    -44.8 1.327e+04 1.383e-08
 34.85031    -46.5 1.193e+04 7.309e-09
 34.86016    -46.1 1.183e+04 7.068e-09
 34.87375    -45.8 1.149e+04 5.690e-09
 34.89343    -44.9 1.125e+04 4.558e-09
 34.91312    -44.4 1.110e+04 3.654e-09
 34.93280    -44.1 1.102e+04 3.037e-09
 34.95249    -44.0 1.100e+04 2.709e-09
 34.97217    -44.0 1.099e+04 2.634e-09
 34.99186    -44.0 1.108e+04 2.724e-09
 35.01154    -44.1 1.109e+04 3.274e-09
 35.02732    -44.0 1.107e+04 4.077e-09
 35.03716    -44.1 1.112e+04 3.953e-09
 35.05091    -43.6 1.118e+04 4.870e-09
 35.06094    -43.2 1.128e+04 5.730e-09
 35.07078    -43.4 1.141e+04 6.055e-09
 35.09028    -43.0 1.134e+04 6.497e-09
 35.10997    -42.7 1.122e+04 6.515e-09
 35.12965    -42.2 1.106e+04 6.297e-09
 35.14934    -41.7 1.098e+04 6.085e-09
 35.17897    -40.7 1.096e+04 5.928e-09
 35.20849    -39.4 1.074e+04 4.639e-09
 35.22808    -39.0 1.071e+04 4.387e-09
 35.24777    -38.0 1.069e+04 3.963e-09
 35.26172    -37.6 1.060e+04 3.712e-09
 35.27166    -38.1 1.041e+04 2.502e-09
 35.29717    -36.7 1.029e+04 2.308e-09
 35.33654    -35.2 1.020e+04 2.195e-09
 35.37591    -33.6 1.013e+04 2.138e-09
 35.41528    -32.1 1.007e+04 2.190e-09
 35.45465    -30.6 1.005e+04 2.408e-09
 35.49403    -29.0 1.018e+04 2.782e-09
 35.51639    -27.7 1.037e+04 3.138e-09
 35.53607    -28.1 1.044e+04 2.809e-09
 35.57277    -27.5 1.064e+04 3.246e-09
 35.61214    -27.3 1.088e+04 4.171e-09
 35.65151    -27.4 1.122e+04 5.804e-09
 35.67322    -27.7 1.163e+04 8.033e-09
 35.68297    -28.8 1.161e+04 8.135e-09
 35.70052    -29.4 1.174e+04 8.627e-09
 35.72021    -30.2 1.219e+04 1.009e-08
 35.73989    -31.4 1.243e+04 1.160e-08
 35.75571    -32.4 1.256e+04 1.392e-08
 35.76555    -31.9 1.239e+04 1.085e-08
 35.77926    -33.1 1.237e+04 1.274e-08
 35.79895    -34.2 1.237e+04 1.479e-08
 35.81863    -35.2 1.236e+04 1.650e-08
 35.83832    -36.0 1.234e+04 1.713e-08
 35.85800    -36.7 1.221e+04 1.668e-08
 35.87390    -37.2 1.197e+04 1.521e-08
 35.88375    -36.8 1.204e+04 1.524e-08
 35.89737    -37.4 1.189e+04 1.408e-08
 35.91706    -37.7 1.179e+04 1.354e-08
 35.93675    -37.9 1.175e+04 1.350e-08
 35.95643    -37.9 1.173e+04 1.363e-08
 35.97612    -37.9 1.168e+04 1.359e-08
 35.99522    -37.7 1.162e+04 1.375e-08
 36.00506    -38.2 1.129e+04 1.192e-08
 36.01549    -37.7 1.114e+04 1.118e-08
 36.04511    -37.1 1.091e+04 9.450e-09
 36.07464    -36.0 1.125e+04 1.092e-08
 36.08453    -35.9 1.132e+04 1.047e-08
 36.09437    -35.8 1.207e+04 1.585e-08
 36.11391    -37.1 1.323e+04 2.200e-08
 36.13360    -39.0 1.452e+04 3.798e-08
 36.15328    -40.3 1.562e+04 6.979e-08
 36.17297    -40.9 1.631e+04 1.076e-07
 36.19265    -41.2 1.652e+04 1.252e-07
 36.21234    -41.5 1.611e+04 9.924e-08
 36.23202    -42.2 1.503e+04 5.769e-08
 36.24458    -43.2 1.362e+04 3.374e-08
 36.25442    -44.6 1.271e+04 2.402e-08
 36.27139    -45.0 1.208e+04 1.806e-08
 36.28531    -45.0 1.165e+04 1.465e-08
 36.29515    -46.0 1.135e+04 1.392e-08
 36.31076    -45.6 1.102e+04 1.173e-08
 36.33045    -45.3 1.082e+04 1.057e-08
 36.35013    -45.1 1.069e+04 1.004e-08
 36.36982    -44.9 1.067e+04 9.963e-09
 36.38950    -44.9 1.082e+04 1.069e-08
 36.40919    -45.0 1.096e+04 1.162e-08
 36.42887    -44.9 1.114e+04 1.232e-08
 36.44856    -44.9 1.122e+04 1.205e-08
 36.46824    -45.2 1.123e+04 1.108e-08
 36.48409    -46.0 1.097e+04 9.799e-09
 36.49210    -47.4 1.081e+04 9.598e-09
 36.49593    -47.9 1.014e+04 6.334e-09
 36.50761    -48.4 1.007e+04 6.315e-09
 36.52730    -48.6 1.003e+04 6.667e-09
 36.54698    -48.7 9.980e+03 7.106e-09
 36.56667    -48.5 9.959e+03 7.243e-09
 36.58635    -48.3 9.824e+03 6.954e-09
 36.60604    -48.1 9.578e+03 6.056e-09
 36.63567    -47.8 9.227e+03 4.691e-09
 36.67513    -46.5 8.737e+03 3.095e-09
 36.71450    -45.5 8.568e+03 2.364e-09
 36.75387    -44.3 8.535e+03 2.207e-09
 36.79324    -43.3 8.692e+03 2.456e-09
 36.83261    -42.4 8.965e+03 3.524e-09
 36.87198    -41.1 9.215e+03 4.555e-09
 36.89769    -40.0 9.290e+03 4.782e-09
 36.91737    -40.0 9.283e+03 4.441e-09
 36.95072    -39.0 9.274e+03 3.972e-09
 36.97316    -38.4 9.256e+03 3.347e-09
 36.99285    -38.8 9.238e+03 2.944e-09
 37.02947    -38.8 9.375e+03 3.000e-09
 37.05890    -39.3 9.827e+03 4.485e-09
 37.07848    -39.9 1.006e+04 6.106e-09
 37.09817    -39.6 1.059e+04 9.378e-09
 37.10811    -40.0 1.091e+04 1.102e-08
 37.11796    -39.8 1.080e+04 1.047e-08
 37.13754    -39.8 1.142e+04 1.407e-08
 37.15722    -40.7 1.158e+04 1.487e-08
 37.17691    -41.2 1.159e+04 1.490e-08
 37.19659    -41.5 1.144e+04 1.195e-08
 37.21248    -42.2 1.116e+04 9.065e-09
 37.22232    -42.3 1.095e+04 6.714e-09
 37.23596    -43.3 1.075e+04 5.632e-09
 37.25565    -44.2 1.068e+04 5.353e-09
 37.27533    -44.9 1.070e+04 5.349e-09
 37.29502    -45.8 1.079e+04 5.631e-09
 37.30890    -46.6 1.091e+04 6.103e-09
 37.31874    -46.8 1.110e+04 7.569e-09
 37.33439    -47.6 1.118e+04 7.818e-09
 37.35407    -48.3 1.117e+04 7.768e-09
 37.37376    -48.5 1.097e+04 6.770e-09
 37.39345    -48.6 1.077e+04 5.250e-09
 37.41313    -48.6 1.064e+04 3.761e-09
 37.43282    -48.7 1.050e+04 2.752e-09
 37.45209    -48.7 1.026e+04 2.044e-09
 37.47187    -47.1 9.881e+03 1.497e-09
 37.50191    -45.9 9.630e+03 1.130e-09
 37.54128    -44.3 9.585e+03 1.089e-09
 37.58065    -42.4 9.570e+03 1.222e-09
 37.62002    -40.5 9.577e+03 1.382e-09
 37.65939    -38.3 9.574e+03 1.406e-09
 37.69876    -36.1 9.511e+03 1.287e-09
 37.72049    -33.9 9.498e+03 1.180e-09
 37.74018    -33.3 9.506e+03 1.114e-09
 37.77750    -31.1 9.546e+03 1.100e-09
 37.81687    -28.9 9.629e+03 1.254e-09
 37.85624    -26.6 9.762e+03 1.553e-09
 37.89561    -24.6 9.968e+03 1.922e-09
 37.93122    -22.9 1.020e+04 2.472e-09
 37.95090    -20.6 9.802e+03 1.297e-09
 37.97435    -18.9 1.012e+04 1.616e-09
 38.01372    -16.9 1.019e+04 2.563e-09
 38.05309    -14.7 1.043e+04 4.002e-09
 38.09246    -12.5 1.083e+04 5.089e-09
 38.12206    -11.1 1.117e+04 6.494e-09
 38.14174    -10.3 1.112e+04 6.168e-09
 38.17120     -9.0 1.153e+04 9.028e-09
 38.20063     -7.5 1.192e+04 1.174e-08
 38.22022     -7.4 1.206e+04 1.198e-08
 38.23991     -6.9 1.211e+04 1.209e-08
 38.25959     -6.6 1.199e+04 1.145e-08
 38.27928     -6.1 1.199e+04 1.052e-08
 38.29896     -5.8 1.186e+04 9.838e-09
 38.31865     -5.4 1.191e+04 9.059e-09
 38.33248     -5.2 1.196e+04 8.991e-09
 38.34233     -5.1 1.190e+04 8.445e-09
 38.35802     -4.8 1.200e+04 9.423e-09
 38.37770     -4.8 1.235e+04 1.033e-08
 38.39739     -4.6 1.250e+04 1.262e-08
 38.41707     -4.6 1.285e+04 1.384e-08
 38.42974     -4.2 1.267e+04 1.665e-08
 38.43958     -3.6 1.275e+04 1.685e-08
 38.45644     -3.4 1.286e+04 1.777e-08
 38.47613     -3.5 1.266e+04 1.652e-08
 38.49581     -4.0 1.270e+04 1.356e-08
 38.51550     -5.3 1.253e+04 1.148e-08
 38.53326     -6.4 1.226e+04 1.023e-08
 38.54311     -6.1 1.225e+04 1.060e-08
 38.55487     -7.2 1.236e+04 9.109e-09
 38.57455     -8.8 1.232e+04 8.293e-09
 38.59424    -10.3 1.230e+04 8.268e-09
 38.61392    -11.7 1.236e+04 1.040e-08
 38.63361    -12.2 1.254e+04 1.457e-08
 38.65329    -12.1 1.276e+04 2.076e-08
 38.66925    -11.4 1.294e+04 2.538e-08
 38.67909    -10.8 1.298e+04 2.467e-08
 38.69266    -10.1 1.309e+04 2.691e-08
 38.71235     -9.4 1.295e+04 2.567e-08
 38.73203     -8.6 1.256e+04 2.005e-08
 38.74389     -7.9 1.195e+04 1.431e-08
 38.75373     -8.1 1.183e+04 1.320e-08
 38.77140     -7.3 1.150e+04 9.559e-09
 38.79109     -6.6 1.118e+04 6.884e-09
 38.81077     -5.9 1.090e+04 5.382e-09
 38.83046     -4.8 1.085e+04 4.745e-09
 38.85015     -4.0 1.077e+04 4.212e-09
 38.86983     -2.6 1.036e+04 4.218e-09
 38.88952     -1.3 1.056e+04 3.830e-09
 38.90877     -0.0 1.055e+04 4.279e-09
 38.91861     -0.2 1.093e+04 6.004e-09
 38.92889      1.0 1.071e+04 6.455e-09
 38.94467      2.4 1.090e+04 5.809e-09
 38.95451      1.9 1.101e+04 6.549e-09
 38.96826      2.7 1.120e+04 7.151e-09
 38.98794      3.4 1.126e+04 8.395e-09
 39.00763      4.5 1.125e+04 9.449e-09
 39.02731      5.7 1.141e+04 1.051e-08
 39.04700      6.8 1.145e+04 1.151e-08
 39.06668      8.0 1.148e+04 1.089e-08
 39.08637      8.7 1.168e+04 1.126e-08
 39.10605      9.6 1.163e+04 1.104e-08
 39.12574     10.4 1.156e+04 1.046e-08
 39.14542     11.0 1.157e+04 1.023e-08
 39.15812     10.4 1.160e+04 1.087e-08
 39.16797      9.6 1.176e+04 1.187e-08
 39.18479     10.2 1.157e+04 1.113e-08
 39.20448     11.0 1.136e+04 1.020e-08
 39.22416     11.8 1.121e+04 8.778e-09
 39.24385     12.3 1.113e+04 7.520e-09
 39.26353     12.6 1.106e+04 6.577e-09
 39.28322     12.7 1.092e+04 5.880e-09
 39.30290     13.0 1.070e+04 5.265e-09
 39.32259     13.5 1.054e+04 4.682e-09
 39.34227     13.8 1.046e+04 4.188e-09
 39.35607     14.0 1.042e+04 3.858e-09
 39.36591     13.2 1.043e+04 3.803e-09
 39.38164     13.5 1.044e+04 3.818e-09
 39.39764     13.6 1.059e+04 4.122e-09
 39.40748     12.2 1.080e+04 4.963e-09
 39.42101     12.0 1.112e+04 6.523e-09
 39.44070     11.5 1.168e+04 1.001e-08
 39.46038     11.0 1.250e+04 1.807e-08
 39.48007     11.1 1.313e+04 3.126e-08
 39.49975     11.9 1.364e+04 4.062e-08
 39.51944     12.2 1.364e+04 3.975e-08
 39.53912     13.2 1.300e+04 2.742e-08
 39.55685     12.8 1.223e+04 1.625e-08
 39.56670     12.6 1.197e+04 1.480e-08
 39.57850     11.7 1.124e+04 8.164e-09
 39.59818     10.4 1.072e+04 5.637e-09
 39.61787     10.5 1.033e+04 4.725e-09
 39.63715     10.8 1.032e+04 4.681e-09
 39.64700     10.4 1.028e+04 4.690e-09
 39.65724     11.1 1.029e+04 4.937e-09
 39.67692     12.2 1.038e+04 5.471e-09
 39.69661     13.1 1.059e+04 6.099e-09
 39.71629     13.9 1.083e+04 6.990e-09
 39.73598     14.6 1.115e+04 8.635e-09
 39.75566     15.1 1.165e+04 1.180e-08
 39.76748     14.7 1.250e+04 1.736e-08
 39.77732     14.7 1.201e+04 1.342e-08
 39.79503     13.3 1.341e+04 2.675e-08
 39.80975      9.8 1.554e+04 5.450e-08
 39.81954      6.7 1.749e+04 1.009e-07
 39.82938      3.3 1.817e+04 2.151e-07
 39.83923      3.4 1.783e+04 4.110e-07
 39.84907      3.5 1.784e+04 4.955e-07
 39.85891      4.4 1.750e+04 4.045e-07
 39.87372      5.1 1.691e+04 1.331e-07
 39.88651      3.2 1.597e+04 3.576e-08
 39.89635      4.1 1.579e+04 6.615e-08
 39.91314      1.3 1.422e+04 2.761e-08
 39.93283      0.5 1.267e+04 1.376e-08
 39.95251      0.4 1.221e+04 1.030e-08
 39.98214      1.9 1.213e+04 1.118e-08
 40.02161      3.1 1.209e+04 1.184e-08
 40.06098      4.3 1.204e+04 1.124e-08
 40.10035      5.4 1.200e+04 8.745e-09
 40.13972      5.8 1.201e+04 6.147e-09
 40.16923      6.1 1.191e+04 4.425e-09
 40.18892      7.0 1.162e+04 2.967e-09
 40.21846      7.8 1.166e+04 2.129e-09
 40.25783      8.7 1.166e+04 2.025e-09
 40.29720      9.5 1.165e+04 2.553e-09
 40.33657     11.1 1.174e+04 3.278e-09
 40.36573     12.9 1.187e+04 3.144e-09
 40.38542     13.7 1.172e+04 3.422e-09
 40.41531     15.5 1.184e+04 2.681e-09
 40.45468     17.1 1.197e+04 2.004e-09
 40.49405     18.7 1.200e+04 1.624e-09
 40.53342     20.5 1.197e+04 1.492e-09
 40.57079     22.4 1.199e+04 1.509e-09
 40.59048     23.2 1.201e+04 1.478e-09
 40.61216     25.0 1.215e+04 1.426e-09
 40.65153     26.9 1.225e+04 1.438e-09
 40.69090     28.7 1.234e+04 1.538e-09
 40.73027     30.5 1.241e+04 1.631e-09
 40.76964     32.4 1.246e+04 1.719e-09
 40.80901     34.5 1.255e+04 1.713e-09
 40.84476     36.8 1.256e+04 1.622e-09
 40.86445     36.9 1.258e+04 1.486e-09
 40.88775     39.3 1.267e+04 1.337e-09
 40.92712     41.8 1.279e+04 1.070e-09
 40.96649     44.2 1.289e+04 8.373e-10
 40.99204     46.5 1.295e+04 7.081e-10
 41.01173     47.2 1.301e+04 6.642e-10
 41.04523     49.6 1.299e+04 6.693e-10
 41.08460     51.9 1.297e+04 7.035e-10
 41.12397     54.1 1.298e+04 8.191e-10
 41.16334     56.3 1.297e+04 1.061e-09
 41.20271     58.4 1.293e+04 1.440e-09
 41.24208     60.3 1.296e+04 1.924e-09
 41.28145     62.1 1.304e+04 2.378e-09
 41.32082     63.7 1.316e+04 2.672e-09
 41.34348     65.1 1.332e+04 2.782e-09
 41.36316     64.6 1.340e+04 2.697e-09
 41.39360     65.8 1.351e+04 2.802e-09
 41.41329     66.7 1.349e+04 1.924e-09
 41.43894     67.9 1.360e+04 2.338e-09
 41.47831     68.9 1.369e+04 3.086e-09
 41.51768     69.3 1.362e+04 3.734e-09
 41.55705     69.5 1.354e+04 3.683e-09
 41.59642     69.7 1.336e+04 3.142e-09
 41.63579     70.2 1.321e+04 2.198e-09
 41.67516     71.0 1.313e+04 1.472e-09
 41.71453     72.0 1.289e+04 1.227e-09
 41.75390     73.6 1.278e+04 1.246e-09
 41.79327     75.5 1.269e+04 1.324e-09
 41.81485     77.4 1.262e+04 1.418e-09
 41.82440     78.2 1.261e+04 1.047e-09
 41.84219     78.0 1.256e+04 1.148e-09
 41.87201     80.1 1.245e+04 1.274e-09
 41.91138     82.0 1.233e+04 1.425e-09
 41.95075     83.9 1.225e+04 1.605e-09
 41.99012     85.6 1.217e+04 1.846e-09
 42.02949     87.2 1.212e+04 2.188e-09
 42.06886     88.5 1.207e+04 2.484e-09
 42.10823     89.3 1.204e+04 2.503e-09
 42.14760     90.2 1.196e+04 2.405e-09
 42.18697     91.3 1.184e+04 2.108e-09
 42.21641     92.6 1.176e+04 1.734e-09
 42.23609     93.3 1.166e+04 1.558e-09
 42.26571     94.8 1.161e+04 1.349e-09
 42.30154     96.5 1.157e+04 1.167e-09
 42.32122     96.8 1.157e+04 1.080e-09
 42.34445     98.7 1.155e+04 9.868e-10
 42.38382    100.7 1.150e+04 8.963e-10
 42.42319    102.9 1.143e+04 8.597e-10
 42.46256    105.2 1.143e+04 8.643e-10
 42.50193    107.6 1.139e+04 9.125e-10
 42.54130    109.9 1.135e+04 1.095e-09
 42.58067    112.3 1.145e+04 1.467e-09
 42.61797    114.5 1.166e+04 2.027e-09
 42.63766    115.5 1.140e+04 1.897e-09
 42.65941    117.2 1.156e+04 2.471e-09
 42.68884    118.0 1.166e+04 3.001e-09
 42.70843    119.0 1.177e+04 3.774e-09
 42.72812    120.1 1.196e+04 4.834e-09
 42.74780    121.0 1.218e+04 6.070e-09
 42.76749    121.6 1.239e+04 7.444e-09
 42.78717    122.1 1.258e+04 8.865e-09
 42.80005    122.5 1.273e+04 1.017e-08
 42.80990    122.3 1.256e+04 8.766e-09
 42.82654    122.5 1.263e+04 9.111e-09
 42.83824    122.6 1.267e+04 9.162e-09
 42.84808    123.5 1.233e+04 7.444e-09
 42.86591    123.5 1.238e+04 7.555e-09
 42.88560    123.6 1.243e+04 7.714e-09
 42.90528    123.5 1.258e+04 8.066e-09
 42.92497    123.3 1.282e+04 9.356e-09
 42.94465    123.1 1.307e+04 1.147e-08
 42.96434    122.8 1.325e+04 1.343e-08
 42.98402    122.7 1.322e+04 1.317e-08
 43.01365    121.8 1.283e+04 9.737e-09
 43.03922    121.9 1.232e+04 5.119e-09
 43.04545    123.8 1.302e+04 1.085e-08
 43.04941    123.1 1.256e+04 7.542e-09
 43.06276    122.9 1.214e+04 5.730e-09
 43.08245    122.9 1.178e+04 3.292e-09
 43.10213    122.9 1.140e+04 2.174e-09
 43.12182    124.3 1.196e+04 3.305e-09
 43.14150    124.4 1.163e+04 2.491e-09
 43.16119    124.6 1.149e+04 2.009e-09
 43.18087    125.1 1.145e+04 1.736e-09
 43.20056    125.7 1.143e+04 1.621e-09
 43.22024    126.4 1.142e+04 1.617e-09
 43.23980    127.1 1.144e+04 1.624e-09
 43.24964    127.4 1.136e+04 1.919e-09
 43.25962    128.0 1.150e+04 1.966e-09
 43.27908    128.7 1.160e+04 2.096e-09
 43.28893    128.9 1.138e+04 1.983e-09
 43.29899    129.5 1.143e+04 2.096e-09
 43.31867    130.1 1.149e+04 2.322e-09
 43.33836    130.8 1.156e+04 2.698e-09
 43.35804    131.4 1.166e+04 3.315e-09
 43.37773    132.1 1.186e+04 4.330e-09
 43.39741    132.7 1.212e+04 5.962e-09
 43.41710    133.2 1.245e+04 8.597e-09
 43.43678    133.9 1.280e+04 1.242e-08
 43.45043    134.5 1.317e+04 1.713e-08
 43.46027    134.5 1.358e+04 2.626e-08
 43.47615    135.3 1.388e+04 3.021e-08
 43.49584    135.8 1.404e+04 3.053e-08
 43.51552    136.2 1.408e+04 3.016e-08
 43.52844    136.5 1.412e+04 2.920e-08
 43.53828    136.3 1.430e+04 3.610e-08
 43.55489    136.5 1.418e+04 3.245e-08
 43.57458    136.8 1.400e+04 2.833e-08
 43.59426    137.0 1.389e+04 2.448e-08
 43.61395    137.2 1.390e+04 2.155e-08
 43.63363    137.4 1.396e+04 2.137e-08
 43.65121    137.7 1.410e+04 2.166e-08
 43.66105    137.3 1.347e+04 1.246e-08
 43.67300    137.2 1.346e+04 1.262e-08
 43.69269    137.0 1.344e+04 1.345e-08
 43.71237    136.6 1.348e+04 1.568e-08
 43.73206    135.7 1.365e+04 2.042e-08
 43.75174    134.7 1.412e+04 3.042e-08
 43.76795    133.7 1.493e+04 5.094e-08
 43.77780    133.1 1.500e+04 5.439e-08
 43.79111    132.0 1.578e+04 7.838e-08
 43.81080    130.4 1.598e+04 8.306e-08
 43.83048    129.1 1.577e+04 7.805e-08
 43.85017    129.1 1.512e+04 5.982e-08
 43.86183    129.2 1.426e+04 3.810e-08
 43.87167    129.1 1.408e+04 2.911e-08
 43.88954    129.0 1.340e+04 2.116e-08
 43.90922    128.8 1.285e+04 1.603e-08
 43.92891    128.8 1.250e+04 1.314e-08
 43.94859    129.0 1.228e+04 1.144e-08
 43.96828    129.5 1.211e+04 1.015e-08
 43.98797    130.3 1.194e+04 8.866e-09
 44.00747    131.0 1.174e+04 7.510e-09
 44.01731    131.1 1.191e+04 1.121e-08
 44.02734    132.0 1.164e+04 9.563e-09
 44.04702    133.1 1.138e+04 8.036e-09
 44.06261    134.1 1.119e+04 6.808e-09
 44.07245    134.0 1.135e+04 8.618e-09
 44.08639    135.1 1.117e+04 7.378e-09
 44.10608    136.3 1.105e+04 6.425e-09
 44.12576    137.5 1.099e+04 5.719e-09
 44.14545    138.6 1.097e+04 5.165e-09
 44.16513    139.8 1.094e+04 4.704e-09
 44.18482    141.1 1.091e+04 4.282e-09
 44.20450    142.3 1.093e+04 3.749e-09
 44.23413    144.3 1.077e+04 3.334e-09
 44.25702    147.2 1.074e+04 2.986e-09
 44.26660    146.8 1.095e+04 2.876e-09
 44.27323    146.4 1.106e+04 2.209e-09
 44.28324    147.8 1.099e+04 2.079e-09
 44.31287    150.3 1.099e+04 2.167e-09
 44.35234    153.6 1.093e+04 2.167e-09
 44.38177    155.5 1.080e+04 2.092e-09
 44.40135    157.2 1.074e+04 2.211e-09
 44.42104    159.2 1.075e+04 2.445e-09
 44.44072    161.2 1.084e+04 2.786e-09
 44.46041    162.9 1.096e+04 3.200e-09
 44.47401    164.6 1.109e+04 3.651e-09
 44.48386    164.6 1.123e+04 3.450e-09
 44.49634    166.3 1.138e+04 3.884e-09
 44.50618    166.7 1.141e+04 4.573e-09
 44.51946    168.6 1.164e+04 5.233e-09
 44.53915    170.3 1.192e+04 5.990e-09
 44.55883    171.7 1.219e+04 6.971e-09
 44.57852    173.0 1.250e+04 8.747e-09
 44.59820    174.6 1.319e+04 1.289e-08
 44.61789    176.6 1.410e+04 2.010e-08
 44.63260    177.4 1.443e+04 2.466e-08
 44.64240    178.1 1.475e+04 2.887e-08
 44.65224    178.5 1.541e+04 3.529e-08
 44.66208    178.4 1.652e+04 4.579e-08
 44.67193    177.6 1.824e+04 6.676e-08
 44.67962    176.3 1.932e+04 1.310e-07
 44.68454    175.6 1.930e+04 1.536e-07
 44.69161    176.0 1.886e+04 4.822e-07
 44.70145    176.9 1.816e+04 1.411e-06
 44.70881    177.4 1.796e+04 2.132e-06
 44.71371    177.8 1.768e+04 3.215e-06
 44.71863    178.3 1.719e+04 5.811e-06
 44.72355    178.5 1.654e+04 1.216e-05
 44.72847    178.2 1.608e+04 2.225e-05
 44.73222    176.6 1.607e+04 2.516e-05
 44.73469    176.1 1.610e+04 2.288e-05
 44.74065    172.8 1.635e+04 1.685e-05
 44.74558    172.8 1.584e+04 3.430e-05
 44.74816    169.3 1.628e+04 2.280e-05
 44.75308    166.4 1.677e+04 1.503e-05
 44.76048    162.3 1.720e+04 9.617e-06
 44.77035    156.6 2.033e+04 1.709e-06
 44.78001    151.2 2.397e+04 3.059e-07
 44.78493    150.4 2.093e+04 3.732e-07
 44.79004    148.7 2.012e+04 2.264e-07
 44.79988    148.6 1.990e+04 1.879e-07
 44.80972    149.0 2.002e+04 1.653e-07
 44.81956    149.4 1.975e+04 1.489e-07
 44.83438    149.9 1.867e+04 1.457e-07
 44.85411    151.0 1.808e+04 1.093e-07
 44.87380    151.9 1.762e+04 7.606e-08
 44.88542    152.9 1.685e+04 5.613e-08
 44.89526    152.3 1.591e+04 6.656e-08
 44.91317    153.7 1.576e+04 6.017e-08
 44.93285    155.2 1.571e+04 5.457e-08
 44.95254    156.5 1.557e+04 4.722e-08
 44.97222    157.6 1.528e+04 3.892e-08
 44.98521    158.5 1.480e+04 3.128e-08
 44.99506    159.0 1.538e+04 5.060e-08
 45.01159    159.9 1.511e+04 4.153e-08
 45.03128    160.8 1.461e+04 3.062e-08
 45.05096    161.4 1.400e+04 2.114e-08
 45.07065    162.1 1.332e+04 1.463e-08
 45.08630    162.8 1.219e+04 7.385e-09
 45.09614    163.7 1.275e+04 1.082e-08
 45.11002    164.6 1.223e+04 7.649e-09
 45.13964    166.5 1.168e+04 4.471e-09
 45.17911    169.3 1.114e+04 2.628e-09
 45.21508    172.1 1.074e+04 1.763e-09
 45.23467    173.0 1.084e+04 1.940e-09
 45.25775    176.4 1.088e+04 2.014e-09
 45.29722    179.7 1.073e+04 1.974e-09
 45.33659    183.2 1.075e+04 2.001e-09
 45.37596    186.6 1.085e+04 2.148e-09
 45.41533    189.6 1.105e+04 2.464e-09
 45.45470    191.3 1.107e+04 2.742e-09
 45.48413    194.4 1.099e+04 3.400e-09
 45.49760    196.6 1.113e+04 4.205e-09
 45.50744    197.8 1.103e+04 4.687e-09
 45.52341    199.7 1.125e+04 5.810e-09
 45.54309    201.4 1.149e+04 6.854e-09
 45.56278    202.9 1.174e+04 7.659e-09
 45.58246    204.3 1.201e+04 8.202e-09
 45.60215    205.6 1.227e+04 8.608e-09
 45.62183    206.8 1.249e+04 9.096e-09
 45.64152    207.9 1.268e+04 9.883e-09
 45.66120    208.9 1.286e+04 1.102e-08
 45.68089    209.8 1.304e+04 1.231e-08
 45.69838    210.4 1.315e+04 1.331e-08
 45.70823    211.7 1.337e+04 1.490e-08
 45.71360    212.1 1.337e+04 1.491e-08
 45.72344    213.2 1.403e+04 2.148e-08
 45.73994    213.4 1.398e+04 2.088e-08
 45.75963    213.6 1.379e+04 1.953e-08
 45.77931    213.9 1.354e+04 1.781e-08
 45.79900    214.3 1.323e+04 1.613e-08
 45.81868    215.0 1.289e+04 1.473e-08
 45.83837    215.8 1.252e+04 1.382e-08
 45.85805    216.9 1.223e+04 1.321e-08
 45.87774    218.3 1.208e+04 1.309e-08
 45.89742    220.0 1.209e+04 1.324e-08
 45.90901    221.4 1.222e+04 1.426e-08
 45.91885    221.9 1.206e+04 9.325e-09
 45.93679    222.3 1.232e+04 1.111e-08
 45.95311    222.0 1.322e+04 1.757e-08
 45.96296    220.7 1.432e+04 2.690e-08
 45.97616    220.4 1.584e+04 5.634e-08
 45.99585    220.2 1.715e+04 1.090e-07
 46.01553    219.1 1.809e+04 1.488e-07
 46.03522    216.7 1.820e+04 1.460e-07
 46.05490    214.4 1.789e+04 1.153e-07
 46.07459    212.9 1.689e+04 6.777e-08
 46.09427    211.3 1.513e+04 3.220e-08
 46.10979    209.5 1.344e+04 1.983e-08
 46.11963    209.3 1.261e+04 1.536e-08
 46.13364    208.7 1.246e+04 1.494e-08
 46.15333    208.7 1.246e+04 1.512e-08
 46.17301    209.0 1.257e+04 1.624e-08
 46.19263    209.3 1.288e+04 1.845e-08
 46.21231    210.0 1.252e+04 1.603e-08
 46.23207    210.6 1.283e+04 1.807e-08
 46.25176    211.2 1.315e+04 2.047e-08
 46.27144    211.9 1.347e+04 2.340e-08
 46.29113    212.8 1.379e+04 2.667e-08
 46.31057    213.9 1.406e+04 3.009e-08
 46.32041    214.0 1.331e+04 2.203e-08
 46.33050    215.2 1.361e+04 2.477e-08
 46.35018    216.4 1.388e+04 2.738e-08
 46.36987    217.6 1.410e+04 2.942e-08
 46.38955    218.9 1.429e+04 3.091e-08
 46.40924    220.1 1.445e+04 3.226e-08
 46.42892    221.2 1.464e+04 3.382e-08
 46.44198    222.3 1.485e+04 3.590e-08
 46.45183    223.1 1.471e+04 3.715e-08
 46.46829    224.1 1.496e+04 4.041e-08
 46.48798    225.1 1.530e+04 4.471e-08
 46.50766    225.7 1.571e+04 5.020e-08
 46.52119    225.9 1.611e+04 5.680e-08
 46.53103    226.1 1.629e+04 5.745e-08
 46.54703    226.2 1.673e+04 6.782e-08
 46.56672    226.2 1.718e+04 8.072e-08
 46.58640    226.0 1.754e+04 9.034e-08
 46.60609    225.2 1.761e+04 9.102e-08
 46.62577    224.2 1.752e+04 8.830e-08
 46.64546    223.5 1.706e+04 7.455e-08
 46.66514    223.2 1.614e+04 5.248e-08
 46.68150    222.9 1.483e+04 3.261e-08
 46.69134    223.8 1.540e+04 4.171e-08
 46.70451    223.5 1.410e+04 2.643e-08
 46.72197    223.1 1.272e+04 1.660e-08
 46.73181    223.1 1.228e+04 1.437e-08
 46.74388    222.6 1.110e+04 9.783e-09
 46.76357    222.5 1.061e+04 7.924e-09
 46.78325    222.8 1.054e+04 7.402e-09
 46.80294    223.5 1.054e+04 7.224e-09
 46.82262    224.6 1.055e+04 7.175e-09
 46.84231    225.8 1.057e+04 7.161e-09
 46.86199    227.1 1.065e+04 7.187e-09
 46.88168    228.3 1.078e+04 7.344e-09
 46.90136    229.5 1.095e+04 7.640e-09
 46.92101    230.7 1.116e+04 8.095e-09
 46.93256    231.6 1.184e+04 1.009e-08
 46.94244    231.8 1.205e+04 1.047e-08
 46.96042    233.0 1.231e+04 1.119e-08
 46.98011    234.2 1.258e+04 1.200e-08
 46.99979    235.4 1.289e+04 1.288e-08
 47.01948    236.6 1.321e+04 1.384e-08
 47.03916    237.7 1.358e+04 1.486e-08
 47.05885    238.7 1.396e+04 1.587e-08
 47.07853    239.6 1.426e+04 1.645e-08
 47.09822    240.7 1.456e+04 1.666e-08
 47.11790    240.8 1.531e+04 1.672e-08
 47.13262    240.1 1.569e+04 1.715e-08
 47.13820    239.8 1.596e+04 1.726e-08
 47.14312    238.4 1.566e+04 1.503e-08
 47.15225    234.3 2.437e+04 1.403e-08
 47.16210    212.7 6.004e+04 1.067e-08
 47.16945    199.9 6.328e+04 1.818e-08
 47.17269    187.5 4.547e+04 1.574e-07
 47.17515    160.7 1.888e+04 1.462e-05
 47.17927    147.4 1.508e+04 9.270e-05
 47.18419    138.1 1.467e+04 1.294e-04
 47.18834    127.8 1.625e+04 4.060e-05
 47.19081    118.5 1.854e+04 1.244e-05
 47.19403    116.5 2.155e+04 4.451e-06
 47.20144    101.5 5.190e+04 1.074e-07
 47.21131     79.9 8.704e+04 4.433e-09
 47.22115     45.0 6.672e+04 3.479e-09
 47.23596     -9.6 1.753e+04 8.810e-09
 47.25570    -15.7 1.271e+04 9.329e-09
 47.27538    -17.0 1.409e+04 9.131e-09
 47.29507    -18.8 1.915e+04 1.063e-08
 47.30978    -22.7 1.981e+04 2.874e-09
 47.31958    -23.4 1.869e+04 3.813e-09
 47.32942    -15.2 1.369e+04 1.165e-08
 47.33898    -15.3 1.413e+04 1.256e-08
 47.34395    -15.3 1.375e+04 1.102e-08
 47.35412    -17.3 2.168e+04 1.482e-08
 47.36884    -24.7 3.173e+04 3.006e-08
 47.37863    -24.1 3.309e+04 3.152e-08
 47.38847    -17.3 3.388e+04 2.558e-08
 47.39832    -14.2 3.258e+04 2.388e-08
 47.40816    -11.0 2.640e+04 2.516e-08
 47.41471    -10.3 2.242e+04 2.385e-08
 47.41968    -10.5 1.555e+04 1.922e-08
 47.43286     -8.1 1.476e+04 2.514e-08
 47.45255     -5.0 1.500e+04 3.001e-08
 47.47223     -2.6 1.609e+04 3.800e-08
 47.48695     -1.2 1.677e+04 4.590e-08
 47.49674     -1.5 1.885e+04 6.108e-08
 47.50659     -1.8 2.063e+04 9.226e-08
 47.51643     -2.5 2.240e+04 1.513e-07
 47.52627     -3.9 2.238e+04 2.944e-07
 47.53447     -5.3 2.090e+04 5.728e-07
 47.53939     -5.4 2.340e+04 3.274e-07
 47.54468     -8.8 2.036e+04 1.085e-06
 47.54960    -12.0 2.387e+04 5.590e-07
 47.55580    -17.2 1.804e+04 4.053e-06
 47.56564    -20.7 1.652e+04 1.408e-05
 47.57300    -23.0 1.600e+04 2.642e-05
 47.57789    -29.1 1.633e+04 2.885e-05
 47.58530    -43.5 1.723e+04 1.648e-05
 47.59517    -60.5 1.762e+04 9.095e-06
 47.60501    -69.3 1.782e+04 5.181e-06
 47.61485    -73.2 1.833e+04 2.965e-06
 47.62470    -75.9 1.895e+04 1.815e-06
 47.63454    -78.0 1.944e+04 1.288e-06
 47.64438    -79.1 2.026e+04 9.478e-07
 47.64999    -79.7 2.138e+04 6.487e-07
 47.65491    -84.5 2.515e+04 1.457e-07
 47.66407    -88.7 2.086e+04 4.045e-08
 47.67391    -90.2 1.737e+04 2.962e-08
 47.68375    -90.7 1.534e+04 2.426e-08
 47.69359    -90.4 1.422e+04 2.066e-08
 47.70344    -89.7 1.378e+04 1.871e-08
 47.71328    -89.1 1.355e+04 1.784e-08
 47.72312    -88.2 1.336e+04 1.673e-08
 47.73296    -87.7 1.340e+04 1.595e-08
 47.74281    -86.6 1.328e+04 1.476e-08
 47.75038    -85.8 1.320e+04 1.458e-08
 47.75535    -88.2 1.135e+04 1.061e-08
 47.76751    -87.1 1.099e+04 9.043e-09
 47.78720    -85.6 1.095e+04 8.412e-09
 47.80688    -84.3 1.079e+04 7.936e-09
 47.82657    -83.2 1.065e+04 7.742e-09
 47.84625    -82.3 1.058e+04 7.713e-09
 47.86594    -81.6 1.058e+04 8.007e-09
 47.88562    -81.0 1.069e+04 8.542e-09
 47.89876    -80.6 1.082e+04 9.192e-09
 47.90860    -81.1 1.077e+04 8.971e-09
 47.92499    -80.6 1.078e+04 9.219e-09
 47.94468    -80.2 1.077e+04 9.249e-09
 47.95618    -79.9 1.063e+04 9.013e-09
 47.96602    -80.5 1.025e+04 7.599e-09
 47.98405    -80.4 1.012e+04 7.223e-09
 48.00373    -80.3 9.964e+03 6.739e-09
 48.02342    -80.5 9.829e+03 6.329e-09
 48.04310    -81.0 9.749e+03 6.081e-09
 48.06279    -81.5 9.719e+03 5.991e-09
 48.08247    -82.2 9.724e+03 5.986e-09
 48.10216    -82.9 9.809e+03 6.118e-09
 48.12184    -83.7 1.004e+04 6.655e-09
 48.13827    -84.4 1.034e+04 7.626e-09
 48.14811    -83.6 9.880e+03 6.521e-09
 48.15696    -83.8 1.007e+04 7.054e-09
 48.16681    -83.2 9.996e+03 6.893e-09
 48.18090    -83.3 1.010e+04 7.213e-09
 48.20058    -83.3 1.027e+04 7.681e-09
 48.22027    -83.3 1.056e+04 8.613e-09
 48.23995    -83.3 1.095e+04 1.018e-08
 48.25964    -83.2 1.140e+04 1.249e-08
 48.27932    -82.9 1.182e+04 1.525e-08
 48.29901    -82.2 1.214e+04 1.782e-08
 48.31869    -81.4 1.235e+04 1.956e-08
 48.33838    -80.6 1.243e+04 2.019e-08
 48.35774    -79.6 1.231e+04 1.859e-08
 48.36759    -79.0 1.187e+04 1.649e-08
 48.37775    -77.9 1.170e+04 1.491e-08
 48.39744    -76.8 1.082e+04 1.020e-08
 48.41712    -75.8 1.040e+04 7.600e-09
 48.43681    -74.7 9.895e+03 5.418e-09
 48.45649    -73.2 9.426e+03 3.894e-09
 48.48612    -71.6 9.180e+03 3.004e-09
 48.52558    -70.0 8.793e+03 2.199e-09
 48.56495    -66.8 8.321e+03 1.732e-09
 48.60432    -63.5 8.217e+03 1.649e-09
 48.62734    -60.3 8.201e+03 1.632e-09
 48.64702    -60.2 8.348e+03 1.659e-09
 48.68306    -57.0 8.432e+03 1.706e-09
 48.72244    -53.8 8.466e+03 1.740e-09
 48.75950    -50.7 8.495e+03 1.783e-09
 48.77919    -49.8 8.282e+03 1.606e-09
 48.80118    -46.9 8.324e+03 1.722e-09
 48.84055    -44.0 8.436e+03 1.880e-09
 48.87992    -41.5 8.719e+03 2.098e-09
 48.91929    -40.0 9.218e+03 2.686e-09
 48.94872    -39.2 9.629e+03 4.154e-09
 48.96830    -38.8 9.916e+03 5.252e-09
 48.97977    -38.1 1.056e+04 8.624e-09
 48.98961    -37.4 9.881e+03 5.848e-09
 49.00767    -37.1 1.033e+04 7.338e-09
 49.02736    -36.4 1.101e+04 1.050e-08
 49.04704    -36.4 1.130e+04 1.284e-08
 49.06673    -35.6 1.153e+04 1.539e-08
 49.08641    -34.5 1.181e+04 1.534e-08
 49.10610    -34.4 1.164e+04 1.340e-08
 49.12579    -34.7 1.174e+04 1.281e-08
 49.14547    -35.0 1.138e+04 1.093e-08
 49.16516    -34.6 1.123e+04 1.018e-08
 49.18055    -34.8 1.093e+04 9.078e-09
 49.19039    -33.6 1.086e+04 8.759e-09
 49.20453    -32.6 1.082e+04 8.237e-09
 49.23415    -32.0 1.035e+04 6.484e-09
 49.27362    -30.9 1.005e+04 5.115e-09
 49.31299    -29.6 1.000e+04 4.782e-09
 49.35236    -28.3 1.005e+04 4.964e-09
 49.39173    -27.4 1.022e+04 6.174e-09
 49.43110    -26.7 1.062e+04 8.430e-09
 49.46053    -25.4 1.097e+04 9.810e-09
 49.48012    -25.2 1.117e+04 1.052e-08
 49.49980    -25.5 1.137e+04 1.182e-08
 49.51949    -25.6 1.175e+04 1.338e-08
 49.53917    -26.3 1.204e+04 1.613e-08
 49.55886    -26.5 1.261e+04 2.177e-08
 49.57854    -27.0 1.320e+04 2.995e-08
 49.59196    -27.2 1.377e+04 4.156e-08
 49.59861    -26.9 1.393e+04 4.659e-08
 49.60489    -26.9 1.327e+04 3.314e-08
 49.61791    -26.4 1.375e+04 4.489e-08
 49.63760    -25.1 1.430e+04 5.209e-08
 49.65728    -24.4 1.452e+04 5.274e-08
 49.67697    -23.9 1.434e+04 4.149e-08
 49.69665    -24.0 1.371e+04 2.999e-08
 49.71634    -24.0 1.292e+04 2.233e-08
 49.73602    -23.9 1.218e+04 1.730e-08
 49.75571    -23.6 1.180e+04 1.443e-08
 49.77539    -23.0 1.171e+04 1.378e-08
 49.79274    -22.2 1.201e+04 1.403e-08
 49.80258    -22.0 1.184e+04 1.303e-08
 49.82470    -22.1 1.198e+04 1.396e-08
 49.86417    -21.0 1.200e+04 1.511e-08
 49.90354    -20.1 1.191e+04 1.565e-08
 49.94291    -19.0 1.158e+04 1.354e-08
 49.98228    -17.9 1.098e+04 1.005e-08
 50.00355    -16.5 1.040e+04 6.568e-09
 50.02324    -15.5 1.053e+04 7.403e-09
 50.06102    -14.2 9.996e+03 4.399e-09
 50.08411    -13.1 9.575e+03 2.943e-09
 50.10380    -14.2 9.750e+03 4.029e-09
 50.13976    -12.5 9.381e+03 2.832e-09
 50.17913    -10.8 9.162e+03 2.096e-09
 50.21851     -9.3 9.054e+03 1.797e-09
 50.25788     -7.5 9.017e+03 1.689e-09
 50.29725     -5.5 8.846e+03 1.614e-09
 50.33662     -2.9 8.702e+03 1.299e-09
 50.37599     -0.7 8.894e+03 7.952e-10
 50.40512      0.7 8.987e+03 6.352e-10
 50.42480      0.4 8.910e+03 1.140e-09
 50.45473      2.2 8.884e+03 1.303e-09
 50.49410      4.4 8.954e+03 1.527e-09
 50.53347      6.5 9.081e+03 1.756e-09
 50.56314      8.4 9.230e+03 2.025e-09
 50.58282      6.9 9.276e+03 1.645e-09
 50.61221      8.6 9.381e+03 1.670e-09
 50.65158     10.0 9.472e+03 1.617e-09
 50.69095     11.2 9.505e+03 1.477e-09
 50.73032     12.1 9.559e+03 1.383e-09
 50.76969     12.7 9.633e+03 1.396e-09
 50.80668     13.2 9.722e+03 1.558e-09
 50.82636     12.8 9.688e+03 1.367e-09
 50.84843     13.0 9.910e+03 1.775e-09
 50.88780     13.0 1.013e+04 2.343e-09
 50.92717     13.0 1.035e+04 2.785e-09
 50.96654     12.8 1.046e+04 2.750e-09
 51.00591     13.1 1.041e+04 2.398e-09
 51.04217     13.2 1.025e+04 1.965e-09
 51.06185     12.2 1.012e+04 1.791e-09
 51.08465     12.5 9.860e+03 1.643e-09
 51.12402     13.4 9.638e+03 1.418e-09
 51.16339     14.5 9.474e+03 1.317e-09
 51.20276     15.5 9.480e+03 1.396e-09
 51.22792     16.5 9.494e+03 1.844e-09
 51.24761     15.8 9.314e+03 1.937e-09
 51.28150     17.4 9.321e+03 2.380e-09
 51.32087     18.7 9.342e+03 2.459e-09
 51.36024     19.8 9.382e+03 2.497e-09
 51.39961     20.5 9.541e+03 2.738e-09
 51.43898     20.9 9.877e+03 3.743e-09
 51.47835     21.6 1.034e+04 5.445e-09
 51.51772     22.4 1.063e+04 6.327e-09
 51.54088     23.1 1.072e+04 5.751e-09
 51.56057     23.2 1.081e+04 6.691e-09
 51.59646     23.4 1.103e+04 6.728e-09
 51.62948     22.9 1.148e+04 7.658e-09
 51.64907     22.9 1.180e+04 1.177e-08
 51.66517     22.1 1.218e+04 1.375e-08
 51.68485     21.0 1.264e+04 1.803e-08
 51.70454     20.3 1.299e+04 2.285e-08
 51.72422     19.6 1.321e+04 2.671e-08
 51.74391     19.0 1.318e+04 2.647e-08
 51.76359     18.4 1.302e+04 2.341e-08
 51.78020     17.8 1.264e+04 1.849e-08
 51.79004     17.2 1.273e+04 1.765e-08
 51.80296     16.7 1.202e+04 1.099e-08
 51.82265     16.4 1.148e+04 6.933e-09
 51.83991     16.1 1.117e+04 4.625e-09
 51.84976     16.0 1.114e+04 4.337e-09
 51.86202     15.4 1.092e+04 3.205e-09
 51.88170     14.9 1.072e+04 2.651e-09
 51.90139     14.6 1.062e+04 2.360e-09
 51.92107     14.4 1.058e+04 2.251e-09
 51.94076     14.1 1.055e+04 2.301e-09
 51.96044     14.2 1.053e+04 2.297e-09
 51.99007     14.4 1.061e+04 2.327e-09
 52.01991     15.1 1.050e+04 2.047e-09
 52.03960     15.3 1.030e+04 1.594e-09
 52.05073     16.7 1.027e+04 1.174e-09
 52.07042     16.4 1.017e+04 1.096e-09
 52.10828     17.2 1.017e+04 7.090e-10
 52.14765     18.7 1.006e+04 6.848e-10
 52.18702     20.3 1.009e+04 7.578e-10
 52.22639     21.9 1.023e+04 9.601e-10
 52.26576     23.3 1.038e+04 1.326e-09
 52.30513     24.4 1.062e+04 1.818e-09
 52.34450     25.4 1.080e+04 2.307e-09
 52.38387     26.1 1.101e+04 2.530e-09
 52.42324     26.6 1.114e+04 2.571e-09
 52.45229     26.9 1.128e+04 2.727e-09
 52.47198     26.7 1.136e+04 2.753e-09
 52.49894     26.3 1.168e+04 3.740e-09
 52.51863     26.9 1.156e+04 3.404e-09
 52.54135     26.8 1.189e+04 5.965e-09
 52.58072     27.0 1.227e+04 8.959e-09
 52.62009     27.1 1.257e+04 1.079e-08
 52.65946     26.9 1.296e+04 1.239e-08
 52.69883     26.1 1.324e+04 1.341e-08
 52.73820     25.5 1.315e+04 1.222e-08
 52.77757     25.7 1.280e+04 9.376e-09
 52.81694     26.2 1.241e+04 6.704e-09
 52.85385     27.3 1.212e+04 4.691e-09
 52.87354     27.2 1.219e+04 5.528e-09
 52.89568     28.8 1.196e+04 3.906e-09
 52.93505     30.3 1.180e+04 2.750e-09
 52.97442     32.1 1.165e+04 2.482e-09
 52.99766     34.0 1.167e+04 2.650e-09
 53.01734     34.7 1.157e+04 1.956e-09
 53.05316     36.3 1.167e+04 2.953e-09
 53.09253     37.9 1.169e+04 5.051e-09
 53.13191     39.0 1.162e+04 6.520e-09
 53.17128     39.7 1.150e+04 6.346e-09
 53.21065     40.6 1.115e+04 5.208e-09
 53.25002     41.7 1.082e+04 3.633e-09
 53.27510     42.7 1.056e+04 2.562e-09
 53.29479     42.8 1.079e+04 2.915e-09
 53.32876     43.9 1.079e+04 3.064e-09
 53.36813     44.9 1.091e+04 3.841e-09
 53.40750     45.8 1.124e+04 5.792e-09
 53.44687     46.8 1.173e+04 8.659e-09
 53.47578     47.5 1.182e+04 9.327e-09
 53.48553     47.2 1.199e+04 9.531e-09
 53.48633     47.4 1.201e+04 9.921e-09
 53.49627     48.4 1.169e+04 8.822e-09
 53.52561     49.0 1.169e+04 8.702e-09
 53.56498     49.9 1.143e+04 8.010e-09
 53.60435     51.0 1.108e+04 6.654e-09
 53.64372     52.4 1.076e+04 5.066e-09
 53.67666     54.0 1.058e+04 3.780e-09
 53.69635     53.5 1.067e+04 3.379e-09
 53.72246     55.3 1.072e+04 3.608e-09
 53.76183     57.1 1.089e+04 4.600e-09
 53.80120     58.6 1.112e+04 6.161e-09
 53.84057     59.9 1.147e+04 7.876e-09
 53.87994     60.8 1.179e+04 8.898e-09
 53.91931     61.6 1.185e+04 8.840e-09
 53.95571     62.4 1.181e+04 7.640e-09
 53.97540     63.8 1.156e+04 6.670e-09
 53.99805     64.7 1.131e+04 5.062e-09
 54.03742     65.8 1.102e+04 4.334e-09
 54.06685     65.7 1.110e+04 4.584e-09
 54.08644     65.5 1.129e+04 5.437e-09
 54.09771     65.0 1.155e+04 7.467e-09
 54.10755     63.6 1.230e+04 1.573e-08
 54.12581     63.5 1.279e+04 2.392e-08
 54.14549     63.5 1.313e+04 3.123e-08
 54.16518     63.5 1.328e+04 3.489e-08
 54.18486     63.4 1.312e+04 3.209e-08
 54.20455     62.9 1.276e+04 2.712e-08
 54.21472     61.9 1.222e+04 2.023e-08
 54.22456     62.8 1.237e+04 2.114e-08
 54.24392     61.2 1.159e+04 1.364e-08
 54.26360     59.1 1.071e+04 9.008e-09
 54.28329     57.0 9.943e+03 6.604e-09
 54.29849     55.5 9.425e+03 5.361e-09
 54.30834     54.0 8.957e+03 4.248e-09
 54.32266     53.1 8.735e+03 3.627e-09
 54.34235     52.0 8.552e+03 3.168e-09
 54.36203     50.7 8.554e+03 3.155e-09
 54.38172     48.8 8.723e+03 3.408e-09
 54.40140     46.8 9.031e+03 4.262e-09
 54.42109     45.4 9.365e+03 5.568e-09
 54.44077     43.8 1.001e+04 7.672e-09
 54.45423     41.4 1.111e+04 1.189e-08
 54.46407     40.6 1.137e+04 1.294e-08
 54.48014     37.3 1.240e+04 2.058e-08
 54.49927     34.4 1.298e+04 2.642e-08
 54.50912     33.3 1.336e+04 3.128e-08
 54.51951     30.4 1.340e+04 3.007e-08
 54.53920     26.7 1.344e+04 2.605e-08
 54.55888     19.6 1.451e+04 2.972e-08
 54.57857      8.0 1.724e+04 6.661e-08
 54.59825      2.4 1.648e+04 1.038e-07
 54.61794      2.1 1.549e+04 7.100e-08
 54.63762     -1.8 1.503e+04 2.767e-08
 54.65731    -10.8 1.327e+04 1.077e-08
 54.67699    -15.9 1.133e+04 8.553e-09
 54.69375    -17.4 1.118e+04 9.922e-09
 54.70359    -19.1 1.174e+04 1.627e-08
 54.70990    -19.1 1.187e+04 1.894e-08
 54.71974    -19.3 1.118e+04 1.150e-08
 54.73605    -19.4 1.120e+04 1.327e-08
 54.75573    -19.2 1.109e+04 1.448e-08
 54.77542    -18.5 1.100e+04 1.458e-08
 54.79510    -17.7 1.091e+04 1.354e-08
 54.81479    -17.1 1.061e+04 1.105e-08
 54.83447    -16.5 1.027e+04 8.927e-09
 54.85416    -15.9 9.972e+03 7.019e-09
 54.87384    -15.4 9.607e+03 5.312e-09
 54.89353    -14.8 9.286e+03 4.300e-09
 54.91068    -14.4 9.095e+03 3.789e-09
 54.92052    -13.8 9.384e+03 4.647e-09
 54.93290    -13.1 9.114e+03 4.258e-09
 54.94310    -12.2 9.024e+03 4.053e-09
 54.95295    -12.8 8.989e+03 4.013e-09
 54.97227    -11.8 9.150e+03 4.235e-09
 54.99195    -11.4 9.208e+03 4.326e-09
 55.01164    -10.4 9.447e+03 5.300e-09
 55.03133    -10.1 9.574e+03 5.512e-09
 55.05101     -9.3 9.756e+03 6.792e-09
 55.07070     -8.9 9.950e+03 7.279e-09
 55.09038     -8.2 1.025e+04 9.214e-09
 55.11007     -7.6 1.040e+04 9.911e-09
 55.12130     -6.8 1.051e+04 1.077e-08
 55.13114     -6.9 1.073e+04 1.174e-08
 55.14944     -6.6 1.068e+04 1.174e-08
 55.16912     -5.5 1.057e+04 1.048e-08
 55.18262     -5.2 1.046e+04 9.925e-09
 55.19246     -5.7 1.021e+04 8.897e-09
 55.20849     -4.7 1.012e+04 7.745e-09
 55.22818     -4.6 1.014e+04 7.693e-09
 55.25780     -3.4 1.009e+04 7.147e-09
 55.29727     -2.0 9.946e+03 6.524e-09
 55.32228     -0.2 9.892e+03 6.005e-09
 55.34196      0.0 9.894e+03 5.995e-09
 55.36607      1.7 9.680e+03 5.232e-09
 55.38566      1.9 9.719e+03 5.225e-09
 55.41239      3.5 9.794e+03 5.300e-09
 55.43217      3.8 9.452e+03 4.275e-09
 55.45475      5.9 9.314e+03 3.762e-09
 55.49412      7.8 9.326e+03 3.536e-09
 55.53349      9.9 9.343e+03 3.451e-09
 55.57286     12.0 9.336e+03 3.330e-09
 55.61223     14.2 9.305e+03 3.090e-09
 55.65160     16.5 9.293e+03 2.918e-09
 55.69097     18.7 9.353e+03 2.985e-09
 55.72384     20.7 9.554e+03 3.360e-09
 55.74352     20.7 9.628e+03 3.295e-09
 55.76971     22.5 9.956e+03 4.301e-09
 55.80908     24.1 1.033e+04 5.680e-09
 55.84845     25.5 1.069e+04 7.092e-09
 55.88782     26.5 1.098e+04 8.404e-09
 55.91120     27.2 1.115e+04 9.563e-09
 55.93088     28.2 1.133e+04 1.012e-08
 55.96656     28.5 1.165e+04 1.261e-08
 56.00593     28.6 1.170e+04 1.319e-08
 56.04530     28.9 1.137e+04 1.103e-08
 56.08468     29.5 1.073e+04 6.850e-09
 56.12405     30.0 1.012e+04 3.307e-09
 56.14508     30.4 9.661e+03 1.570e-09
 56.16477     30.4 1.009e+04 3.451e-09
 56.20279     31.1 9.621e+03 2.167e-09
 56.24216     32.3 9.269e+03 1.605e-09
 56.28153     33.7 9.047e+03 1.349e-09
 56.32090     35.4 8.804e+03 1.284e-09
 56.36027     37.1 8.737e+03 1.317e-09
 56.39023     38.9 8.680e+03 1.430e-09
 56.40991     39.0 8.720e+03 1.188e-09
 56.43901     40.6 8.716e+03 1.428e-09
 56.47838     42.1 8.907e+03 2.050e-09
 56.51775     43.3 9.290e+03 3.221e-09
 56.54665     44.3 9.758e+03 4.894e-09
 56.56633     44.1 9.782e+03 4.956e-09
 56.59649     44.7 1.019e+04 6.182e-09
 56.63586     44.9 1.021e+04 6.122e-09
 56.67523     45.3 1.014e+04 5.360e-09
 56.71460     45.9 9.911e+03 3.945e-09
 56.75397     46.6 9.669e+03 2.625e-09
 56.79334     47.1 9.465e+03 1.797e-09
 56.83271     47.9 9.232e+03 1.631e-09
 56.86926     48.9 9.217e+03 1.660e-09
 56.88894     49.1 9.046e+03 1.407e-09
 56.91145     50.0 9.030e+03 1.539e-09
 56.94821     50.7 9.078e+03 1.828e-09
 56.96789     51.4 8.943e+03 1.287e-09
 56.99019     52.1 9.015e+03 1.576e-09
 57.02956     52.7 9.092e+03 1.845e-09
 57.06893     53.1 9.141e+03 1.993e-09
 57.10830     53.4 9.152e+03 2.014e-09
 57.14767     53.8 9.129e+03 1.954e-09
 57.18704     54.2 9.061e+03 1.781e-09
 57.22641     54.6 8.953e+03 1.553e-09
 57.26578     55.2 8.802e+03 1.366e-09
 57.30515     55.9 8.685e+03 1.324e-09
 57.34452     56.9 8.683e+03 1.353e-09
 57.36797     57.7 8.694e+03 1.543e-09
 57.37322     58.0 8.653e+03 1.501e-09
 57.38914     59.4 8.663e+03 1.498e-09
 57.42326     60.1 8.841e+03 1.974e-09
 57.46263     60.9 9.178e+03 2.784e-09
 57.50200     61.8 9.498e+03 3.824e-09
 57.54138     62.6 9.626e+03 4.235e-09
 57.58075     63.2 9.580e+03 4.132e-09
 57.62012     63.5 9.462e+03 3.712e-09
 57.65949     64.0 9.500e+03 2.965e-09
 57.69886     64.8 9.600e+03 3.081e-09
 57.73823     65.9 9.822e+03 3.639e-09
 57.77101     67.8 1.018e+04 4.973e-09
 57.79070     66.9 1.123e+04 1.053e-08
 57.80703     68.8 1.121e+04 1.063e-08
 57.82661     70.3 1.143e+04 1.178e-08
 57.84630     71.5 1.196e+04 1.444e-08
 57.85665     72.5 1.273e+04 1.884e-08
 57.86649     73.8 1.294e+04 2.177e-08
 57.88567     75.1 1.395e+04 3.116e-08
 57.90535     76.5 1.506e+04 4.597e-08
 57.92504     77.8 1.611e+04 6.570e-08
 57.94473     78.1 1.704e+04 8.555e-08
 57.96441     77.7 1.817e+04 1.046e-07
 57.97636     74.7 1.903e+04 1.227e-07
 57.98123     76.4 1.924e+04 1.469e-07
 57.98627     74.8 1.984e+04 1.861e-07
 57.99119     74.2 2.004e+04 2.287e-07
 57.99876     72.0 2.055e+04 2.534e-07
 58.00860     69.5 2.071e+04 2.515e-07
 58.01845     66.9 2.072e+04 2.336e-07
 58.02829     64.5 2.047e+04 1.981e-07
 58.03813     62.5 2.015e+04 1.451e-07
 58.04797     60.8 1.992e+04 1.038e-07
 58.06279     56.0 1.864e+04 5.006e-08
 58.08252     49.3 1.899e+04 2.202e-08
 58.09616     41.6 2.448e+04 1.712e-08
 58.10103     35.4 8.689e+04 3.408e-09
 58.10703     32.3 9.135e+04 2.732e-09
 58.11687     38.5 5.391e+04 7.791e-09
 58.12671     25.7 2.823e+04 3.277e-08
 58.13656      8.8 3.353e+04 5.899e-08
 58.14640     -8.3 3.674e+04 2.630e-07
 58.15376    -20.9 2.951e+04 9.955e-07
 58.15836    -28.2 2.116e+04 4.653e-06
 58.16082    -34.5 1.673e+04 2.752e-05
 58.16358    -38.6 1.341e+04 4.703e-04
 58.16850    -50.9 1.345e+04 4.661e-04
 58.17342    -62.1 1.744e+04 2.369e-05
 58.17834    -69.0 2.143e+04 3.704e-06
 58.18326    -75.6 2.289e+04 6.980e-07
 58.18818    -75.4 2.247e+04 5.676e-07
 58.19194    -72.1 2.217e+04 6.478e-07
 58.19440    -79.4 2.292e+04 2.205e-07
 58.19802    -79.4 2.231e+04 1.853e-07
 58.20543    -79.4 2.123e+04 1.611e-07
 58.21530    -78.3 2.048e+04 1.419e-07
 58.22074    -77.2 1.894e+04 9.779e-08
 58.22566    -78.7 1.572e+04 4.646e-08
 58.23498    -77.3 1.503e+04 4.067e-08
 58.24483    -76.3 1.460e+04 3.602e-08
 58.25467    -75.7 1.405e+04 3.062e-08
 58.26451    -75.6 1.355e+04 2.574e-08
 58.27435    -75.8 1.325e+04 2.268e-08
 58.28420    -76.4 1.315e+04 2.130e-08
 58.29236    -78.2 1.281e+04 1.868e-08
 58.29728    -77.7 1.312e+04 2.078e-08
 58.30388    -78.8 1.319e+04 2.080e-08
 58.31869    -81.8 1.319e+04 2.127e-08
 58.33568    -84.1 1.340e+04 2.544e-08
 58.34552    -81.6 1.260e+04 1.915e-08
 58.35811    -82.1 1.326e+04 2.737e-08
 58.37780    -81.9 1.378e+04 3.445e-08
 58.39285    -81.6 1.416e+04 3.845e-08
 58.40264    -81.9 1.494e+04 4.973e-08
 58.41215    -82.0 1.495e+04 5.056e-08
 58.42199    -82.1 1.498e+04 5.079e-08
 58.43183    -82.3 1.486e+04 5.035e-08
 58.44168    -82.3 1.480e+04 5.010e-08
 58.45649    -82.2 1.460e+04 4.684e-08
 58.47622    -82.8 1.468e+04 4.713e-08
 58.49591    -83.4 1.491e+04 5.243e-08
 58.51559    -83.6 1.527e+04 6.015e-08
 58.53528    -84.0 1.546e+04 6.329e-08
 58.55496    -84.3 1.537e+04 6.011e-08
 58.57465    -84.4 1.487e+04 5.051e-08
 58.58503    -84.3 1.405e+04 3.782e-08
 58.59417    -83.9 1.473e+04 5.676e-08
 58.60347    -84.2 1.395e+04 3.543e-08
 58.61402    -84.0 1.273e+04 2.230e-08
 58.63370    -83.5 1.186e+04 1.573e-08
 58.65339    -82.7 1.132e+04 1.245e-08
 58.67307    -81.5 1.101e+04 1.073e-08
 58.69276    -80.2 1.085e+04 9.856e-09
 58.71245    -79.0 1.076e+04 9.357e-09
 58.73213    -77.8 1.072e+04 9.116e-09
 58.75182    -76.5 1.069e+04 9.255e-09
 58.77150    -75.4 1.078e+04 9.736e-09
 58.79119    -74.4 1.090e+04 1.028e-08
 58.80425    -73.4 1.101e+04 1.069e-08
 58.81409    -73.2 1.067e+04 8.683e-09
 58.82455    -72.1 1.081e+04 9.232e-09
 58.83439    -72.2 1.077e+04 9.043e-09
 58.85024    -71.3 1.092e+04 9.336e-09
 58.86993    -70.5 1.103e+04 9.415e-09
 58.88961    -69.7 1.114e+04 9.261e-09
 58.90930    -69.0 1.125e+04 9.004e-09
 58.92898    -68.4 1.134e+04 8.787e-09
 58.94867    -67.7 1.140e+04 8.678e-09
 58.96835    -67.2 1.136e+04 8.533e-09
 58.98804    -66.6 1.134e+04 8.428e-09
 59.00503    -66.1 1.132e+04 8.345e-09
 59.01487    -65.3 1.150e+04 8.718e-09
 59.02741    -64.7 1.157e+04 8.958e-09
 59.04709    -64.1 1.166e+04 9.322e-09
 59.06406    -63.7 1.175e+04 9.845e-09
 59.07391    -64.2 1.186e+04 1.070e-08
 59.08646    -64.0 1.192e+04 1.120e-08
 59.10615    -64.0 1.196e+04 1.191e-08
 59.12583    -64.1 1.206e+04 1.315e-08
 59.14552    -64.3 1.221e+04 1.505e-08
 59.16520    -64.5 1.240e+04 1.750e-08
 59.18489    -64.6 1.253e+04 1.969e-08
 59.20457    -64.7 1.254e+04 2.043e-08
 59.21565    -64.7 1.240e+04 2.020e-08
 59.22550    -63.8 1.258e+04 2.168e-08
 59.24394    -63.7 1.234e+04 2.024e-08
 59.26363    -63.6 1.212e+04 1.748e-08
 59.28331    -63.7 1.193e+04 1.476e-08
 59.30300    -64.0 1.181e+04 1.268e-08
 59.31342    -64.3 1.172e+04 1.155e-08
 59.32326    -64.2 1.166e+04 1.157e-08
 59.34237    -64.2 1.163e+04 1.141e-08
 59.36205    -64.3 1.163e+04 1.156e-08
 59.38174    -64.2 1.153e+04 1.113e-08
 59.40142    -64.1 1.140e+04 9.624e-09
 59.41643    -64.1 1.130e+04 7.535e-09
 59.42628    -62.5 1.176e+04 1.298e-08
 59.44080    -62.5 1.174e+04 1.017e-08
 59.46048    -62.9 1.168e+04 7.083e-09
 59.48017    -63.7 1.133e+04 4.701e-09
 59.49985    -64.8 1.040e+04 3.622e-09
 59.51954    -65.7 9.796e+03 3.462e-09
 59.53922    -65.8 9.681e+03 3.383e-09
 59.55293    -65.6 9.623e+03 3.347e-09
 59.56278    -65.0 9.576e+03 3.086e-09
 59.57859    -64.6 9.495e+03 2.934e-09
 59.59828    -64.0 9.474e+03 2.867e-09
 59.61722    -63.4 9.479e+03 2.843e-09
 59.62706    -62.8 9.393e+03 2.635e-09
 59.63765    -62.2 9.442e+03 2.678e-09
 59.65733    -61.6 9.532e+03 2.811e-09
 59.67702    -61.0 9.668e+03 3.099e-09
 59.69670    -60.3 9.834e+03 3.563e-09
 59.71639    -59.6 9.976e+03 4.144e-09
 59.73607    -58.8 1.012e+04 4.797e-09
 59.75576    -58.1 1.034e+04 5.435e-09
 59.77544    -58.0 1.077e+04 6.598e-09
 59.79245    -60.8 1.312e+04 1.368e-08
 59.80229    -57.6 1.095e+04 5.284e-09
 59.81481    -61.8 1.407e+04 1.716e-08
 59.82784    -65.0 1.606e+04 6.054e-08
 59.83768    -63.9 1.600e+04 5.499e-08
 59.85418    -65.4 1.721e+04 1.340e-07
 59.86890    -66.4 1.778e+04 1.738e-07
 59.87869    -67.3 1.787e+04 1.783e-07
 59.88853    -68.3 1.784e+04 1.552e-07
 59.89838    -70.1 1.751e+04 8.014e-08
 59.90822    -73.9 1.664e+04 4.086e-08
 59.91703    -78.1 1.514e+04 2.572e-08
 59.92195    -76.2 1.579e+04 2.844e-08
 59.93287    -80.8 1.446e+04 2.110e-08
 59.95261    -86.0 1.384e+04 1.910e-08
 59.97229    -89.2 1.324e+04 2.295e-08
 59.99198    -90.4 1.338e+04 2.754e-08
 60.01166    -91.4 1.319e+04 2.744e-08
 60.02862    -92.0 1.232e+04 1.896e-08
 60.03846    -92.2 1.334e+04 3.312e-08
 60.04181    -92.3 1.204e+04 1.762e-08
 60.05165    -92.0 1.220e+04 1.951e-08
 60.07072    -92.1 1.122e+04 1.104e-08
 60.09040    -92.1 1.048e+04 6.346e-09
 60.11009    -91.9 9.957e+03 3.936e-09
 60.13972    -91.4 9.557e+03 2.606e-09
 60.17918    -90.0 9.218e+03 1.932e-09
 60.21855    -87.6 8.763e+03 1.274e-09
 60.23944    -85.2 8.559e+03 8.804e-10
 60.25912    -85.2 8.675e+03 1.106e-09
 60.28152    -82.9 8.584e+03 8.202e-10
 60.30120    -81.9 8.532e+03 8.525e-10
 60.33666    -79.7 8.534e+03 7.004e-10
 60.37603    -77.5 8.542e+03 6.660e-10
 60.41540    -75.6 8.572e+03 6.691e-10
 60.45477    -73.9 8.687e+03 7.783e-10
 60.49415    -72.5 8.790e+03 9.778e-10
 60.53352    -71.3 8.946e+03 1.174e-09
 60.57289    -70.8 9.205e+03 1.346e-09
 60.61226    -70.8 9.480e+03 1.727e-09
 60.64100    -71.4 9.683e+03 2.670e-09
 60.66068    -71.6 1.033e+04 7.078e-09
 60.69100    -71.8 1.062e+04 8.799e-09
 60.73037    -72.4 1.075e+04 8.841e-09
 60.75980    -73.2 1.059e+04 7.642e-09
 60.77019    -74.7 1.102e+04 8.106e-09
 60.78013    -73.9 1.060e+04 6.856e-09
 60.79917    -77.9 1.163e+04 8.208e-09
 60.81875    -82.1 1.299e+04 1.613e-08
 60.83844    -85.7 1.384e+04 2.901e-08
 60.85143    -88.7 1.424e+04 3.708e-08
 60.86127    -89.5 1.462e+04 4.245e-08
 60.87781    -92.9 1.461e+04 4.417e-08
 60.89750    -96.1 1.404e+04 3.447e-08
 60.91718    -99.4 1.315e+04 1.973e-08
 60.93687   -102.4 1.241e+04 1.158e-08
 60.95655   -104.6 1.199e+04 8.157e-09
 60.97624   -106.0 1.170e+04 6.708e-09
 60.99592   -107.0 1.151e+04 6.233e-09
 61.00971   -107.7 1.147e+04 6.160e-09
 61.01955   -108.9 1.129e+04 5.560e-09
 61.03529   -109.5 1.126e+04 5.597e-09
 61.05221   -110.1 1.123e+04 5.699e-09
 61.06205   -110.6 1.131e+04 5.911e-09
 61.07466   -111.0 1.123e+04 5.825e-09
 61.09435   -111.4 1.112e+04 5.553e-09
 61.11403   -111.9 1.100e+04 5.163e-09
 61.13372   -112.2 1.089e+04 4.753e-09
 61.15340   -112.6 1.079e+04 4.342e-09
 61.17309   -112.9 1.067e+04 3.910e-09
 61.19277   -113.1 1.055e+04 3.467e-09
 61.21246   -113.2 1.042e+04 3.149e-09
 61.23948   -113.4 1.026e+04 2.743e-09
 61.25926   -114.3 1.033e+04 2.729e-09
 61.28155   -114.4 1.012e+04 2.170e-09
 61.32092   -114.2 9.930e+03 1.638e-09
 61.36029   -113.9 9.811e+03 1.232e-09
 61.39966   -113.4 9.727e+03 9.690e-10
 61.43903   -112.8 9.691e+03 8.762e-10
 61.46381   -112.1 9.678e+03 8.695e-10
 61.48349   -113.1 9.604e+03 1.446e-09
 61.51777   -112.3 9.577e+03 1.590e-09
 61.55714   -111.4 9.620e+03 1.712e-09
 61.59651   -110.4 9.610e+03 1.758e-09
 61.63588   -109.2 9.612e+03 1.753e-09
 61.67525   -108.0 9.633e+03 1.752e-09
 61.71462   -106.9 9.776e+03 1.857e-09
 61.73829   -106.1 1.004e+04 2.243e-09
 61.75797   -107.5 1.043e+04 2.690e-09
 61.79336   -107.1 1.079e+04 4.039e-09
 61.83273   -106.9 1.111e+04 5.419e-09
 61.86537   -106.8 1.134e+04 6.186e-09
 61.88505   -108.7 1.134e+04 6.569e-09
 61.91147   -108.5 1.136e+04 6.196e-09
 61.94090   -107.2 1.140e+04 5.720e-09
 61.96049   -107.0 1.143e+04 5.462e-09
 61.97761   -106.8 1.146e+04 5.377e-09
 61.98745   -107.6 1.144e+04 5.219e-09
 61.99986   -107.4 1.146e+04 5.209e-09
 62.01955   -107.3 1.177e+04 5.265e-09
 62.03923   -107.4 1.208e+04 5.887e-09
 62.05892   -107.4 1.231e+04 7.106e-09
 62.07580   -107.4 1.256e+04 8.837e-09
 62.08564   -107.6 1.247e+04 8.373e-09
 62.09829   -107.6 1.272e+04 1.030e-08
 62.11797   -107.5 1.299e+04 1.244e-08
 62.13766   -107.5 1.331e+04 1.488e-08
 62.15734   -107.7 1.362e+04 1.741e-08
 62.17703   -108.1 1.384e+04 1.989e-08
 62.19671   -108.5 1.385e+04 2.025e-08
 62.21640   -108.6 1.368e+04 1.971e-08
 62.22696   -108.6 1.336e+04 1.682e-08
 62.23681   -109.5 1.310e+04 1.586e-08
 62.25577   -109.2 1.283e+04 1.315e-08
 62.27545   -108.8 1.258e+04 1.045e-08
 62.28642   -108.4 1.232e+04 8.352e-09
 62.29626   -108.1 1.229e+04 8.381e-09
 62.31482   -107.6 1.201e+04 6.789e-09
 62.34445   -107.2 1.167e+04 5.269e-09
 62.38392   -105.2 1.130e+04 4.052e-09
 62.42329   -103.1 1.118e+04 3.647e-09
 62.46266   -101.1 1.117e+04 3.596e-09
 62.50203    -99.4 1.123e+04 3.684e-09
 62.54140    -98.1 1.138e+04 4.312e-09
 62.58077    -97.3 1.156e+04 5.533e-09
 62.62014    -97.0 1.185e+04 7.411e-09
 62.65951    -97.1 1.223e+04 9.637e-09
 62.68818    -97.6 1.263e+04 1.156e-08
 62.70533    -97.3 1.255e+04 1.130e-08
 62.71603    -98.3 1.261e+04 1.278e-08
 62.73825    -99.6 1.280e+04 1.336e-08
 62.77762   -100.6 1.285e+04 1.339e-08
 62.80705   -100.8 1.290e+04 1.188e-08
 62.82664   -101.3 1.290e+04 1.134e-08
 62.84632   -101.4 1.281e+04 1.062e-08
 62.86601   -101.5 1.266e+04 9.621e-09
 62.88569   -101.3 1.246e+04 8.268e-09
 62.89860   -101.0 1.225e+04 6.929e-09
 62.90845   -100.7 1.232e+04 7.461e-09
 62.92506   -100.3 1.210e+04 6.242e-09
 62.94475    -99.9 1.195e+04 5.427e-09
 62.95535    -99.5 1.183e+04 4.679e-09
 62.96519   -100.1 1.165e+04 3.935e-09
 62.98412    -99.5 1.161e+04 3.611e-09
 63.00380    -98.9 1.159e+04 3.337e-09
 63.02349    -98.4 1.158e+04 3.193e-09
 63.04317    -97.7 1.162e+04 3.128e-09
 63.06286    -97.2 1.164e+04 3.108e-09
 63.08254    -96.4 1.172e+04 3.135e-09
 63.09938    -95.8 1.183e+04 3.179e-09
 63.10923    -95.5 1.175e+04 3.048e-09
 63.12192    -94.9 1.193e+04 3.024e-09
 63.14160    -94.5 1.212e+04 3.186e-09
 63.16129    -94.2 1.226e+04 3.714e-09
 63.18097    -93.9 1.240e+04 4.699e-09
 63.19487    -93.5 1.259e+04 6.207e-09
 63.20471    -94.0 1.254e+04 5.806e-09
 63.22034    -93.8 1.279e+04 7.902e-09
 63.24003    -93.6 1.307e+04 1.061e-08
 63.25971    -93.5 1.333e+04 1.330e-08
 63.27940    -93.4 1.352e+04 1.539e-08
 63.29908    -93.5 1.358e+04 1.601e-08
 63.31001    -93.5 1.353e+04 1.591e-08
 63.31985    -92.6 1.339e+04 1.431e-08
 63.33845    -92.3 1.321e+04 1.366e-08
 63.35814    -92.0 1.301e+04 1.146e-08
 63.37782    -91.9 1.283e+04 9.284e-09
 63.40745    -92.2 1.261e+04 7.200e-09
 63.44692    -90.4 1.212e+04 4.879e-09
 63.48629    -87.9 1.177e+04 3.175e-09
 63.51098    -85.7 1.173e+04 2.533e-09
 63.53067    -84.4 1.175e+04 3.489e-09
 63.55509    -83.0 1.173e+04 2.885e-09
 63.57467    -82.6 1.168e+04 2.795e-09
 63.59436    -81.6 1.160e+04 2.665e-09
 63.61404    -81.2 1.156e+04 2.644e-09
 63.63373    -80.4 1.143e+04 2.723e-09
 63.65341    -80.1 1.123e+04 2.957e-09
 63.67310    -79.5 1.102e+04 3.375e-09
 63.68374    -79.0 1.086e+04 3.631e-09
 63.69358    -79.3 1.093e+04 3.371e-09
 63.71157    -78.7 1.077e+04 3.829e-09
 63.72141    -78.0 1.066e+04 3.228e-09
 63.73215    -77.5 1.055e+04 3.343e-09
 63.75184    -77.0 1.042e+04 3.430e-09
 63.77152    -76.6 1.031e+04 3.536e-09
 63.79121    -76.3 1.022e+04 3.732e-09
 63.81089    -76.0 1.015e+04 4.069e-09
 63.83058    -75.6 1.014e+04 4.546e-09
 63.85027    -75.4 1.022e+04 5.072e-09
 63.86995    -75.5 1.055e+04 5.830e-09
 63.88964    -80.3 1.299e+04 8.602e-09
 63.90932    -88.6 1.732e+04 5.308e-08
 63.92214    -91.7 1.832e+04 1.981e-07
 63.92618    -91.2 1.827e+04 1.883e-07
 63.92807    -91.4 1.836e+04 2.037e-07
 63.93383    -92.8 1.886e+04 3.991e-07
 63.94367    -94.7 1.915e+04 6.109e-07
 63.95351    -97.7 1.918e+04 6.656e-07
 63.96336    -99.9 1.886e+04 5.390e-07
 63.97320   -100.8 1.816e+04 2.775e-07
 63.98304   -101.5 1.695e+04 1.409e-07
 63.99288   -102.3 1.578e+04 9.013e-08
 64.00770   -102.7 1.470e+04 6.007e-08
 64.02743   -103.0 1.244e+04 2.814e-08
 64.04712   -103.7 1.089e+04 1.590e-08
 64.06680   -104.2 9.983e+03 1.089e-08
 64.08649   -104.2 9.660e+03 9.166e-09
 64.10617   -103.6 9.480e+03 8.388e-09
 64.12297   -103.1 9.441e+03 8.204e-09
 64.13281   -102.8 9.212e+03 7.044e-09
 64.14554   -102.4 9.201e+03 7.005e-09
 64.16277   -102.1 9.348e+03 7.375e-09
 64.17261   -102.1 9.560e+03 8.306e-09
 64.18491   -101.8 9.808e+03 9.710e-09
 64.20460   -101.4 1.006e+04 1.136e-08
 64.22428   -101.0 1.029e+04 1.285e-08
 64.24397   -100.6 1.047e+04 1.380e-08
 64.26365   -100.2 1.059e+04 1.411e-08
 64.28334    -99.7 1.062e+04 1.409e-08
 64.30302    -99.2 1.066e+04 1.365e-08
 64.32271    -98.6 1.071e+04 1.300e-08
 64.33360    -98.0 1.077e+04 1.264e-08
 64.34344    -98.2 1.074e+04 1.244e-08
 64.36208    -97.7 1.099e+04 1.274e-08
 64.38176    -97.2 1.127e+04 1.350e-08
 64.40145    -96.6 1.154e+04 1.474e-08
 64.41212    -96.0 1.178e+04 1.629e-08
 64.42197    -95.9 1.142e+04 1.340e-08
 64.44082    -95.2 1.167e+04 1.508e-08
 64.46050    -94.6 1.188e+04 1.646e-08
 64.48019    -94.0 1.202e+04 1.697e-08
 64.49987    -93.5 1.207e+04 1.700e-08
 64.51956    -93.2 1.211e+04 1.648e-08
 64.53438    -92.9 1.211e+04 1.615e-08
 64.54422    -93.0 1.164e+04 1.326e-08
 64.55893    -92.7 1.170e+04 1.355e-08
 64.57862    -92.5 1.189e+04 1.497e-08
 64.59830    -92.2 1.214e+04 1.701e-08
 64.61799    -91.9 1.238e+04 1.912e-08
 64.63767    -91.6 1.253e+04 2.050e-08
 64.65164    -91.5 1.257e+04 2.088e-08
 64.66148    -91.2 1.215e+04 1.714e-08
 64.67704    -91.1 1.217e+04 1.737e-08
 64.69673    -91.0 1.206e+04 1.659e-08
 64.71641    -90.8 1.186e+04 1.488e-08
 64.73516    -90.6 1.163e+04 1.278e-08
 64.74500    -90.6 1.151e+04 1.121e-08
 64.75578    -90.5 1.128e+04 9.317e-09
 64.77547    -90.4 1.102e+04 7.811e-09
 64.79515    -90.2 1.076e+04 6.692e-09
 64.81484    -89.9 1.056e+04 5.848e-09
 64.83452    -89.5 1.044e+04 5.156e-09
 64.85421    -89.3 1.039e+04 4.612e-09
 64.87389    -89.1 1.047e+04 4.217e-09
 64.89115    -88.9 1.062e+04 3.989e-09
 64.90099    -88.4 1.060e+04 3.897e-09
 64.91326    -88.3 1.073e+04 3.764e-09
 64.93295    -88.1 1.088e+04 3.713e-09
 64.94578    -87.8 1.106e+04 3.686e-09
 64.95562    -88.5 1.135e+04 3.847e-09
 64.97232    -88.1 1.130e+04 3.920e-09
 64.99200    -87.6 1.116e+04 3.798e-09
 65.01169    -87.0 1.122e+04 3.232e-09
 65.03137    -86.7 1.131e+04 2.646e-09
 65.06100    -86.4 1.128e+04 2.114e-09
 65.10047    -85.1 1.112e+04 1.572e-09
 65.13086    -83.4 1.099e+04 1.091e-09
 65.14762    -82.9 1.140e+04 1.655e-09
 65.15660    -83.6 1.121e+04 1.481e-09
 65.17921    -81.7 1.119e+04 1.060e-09
 65.21858    -79.9 1.123e+04 8.029e-10
 65.25795    -78.2 1.117e+04 7.186e-10
 65.29732    -76.3 1.115e+04 6.980e-10
 65.33669    -74.4 1.125e+04 7.125e-10
 65.37606    -72.6 1.133e+04 7.690e-10
 65.41543    -70.9 1.147e+04 8.252e-10
 65.45480    -69.4 1.161e+04 9.168e-10
 65.49417    -68.0 1.172e+04 1.114e-09
 65.53354    -66.7 1.189e+04 1.500e-09
 65.55816    -65.5 1.219e+04 2.180e-09
 65.57784    -65.8 1.219e+04 2.051e-09
 65.60989    -65.2 1.261e+04 3.415e-09
 65.62958    -64.3 1.244e+04 2.958e-09
 65.64171    -63.7 1.283e+04 4.569e-09
 65.66130    -63.8 1.303e+04 5.685e-09
 65.68098    -63.5 1.334e+04 8.039e-09
 65.70067    -63.6 1.356e+04 9.773e-09
 65.72035    -63.4 1.390e+04 1.298e-08
 65.74004    -63.9 1.411e+04 1.518e-08
 65.75875    -64.3 1.422e+04 1.829e-08
 65.76859    -64.2 1.402e+04 1.695e-08
 65.77941    -64.6 1.400e+04 1.699e-08
 65.79909    -64.9 1.380e+04 1.590e-08
 65.81878    -65.0 1.357e+04 1.386e-08
 65.83846    -65.1 1.329e+04 1.158e-08
 65.85815    -65.1 1.307e+04 9.789e-09
 65.86890    -65.1 1.287e+04 8.360e-09
 65.87874    -64.2 1.300e+04 8.870e-09
 65.89752    -63.9 1.294e+04 8.083e-09
 65.91720    -63.5 1.290e+04 7.185e-09
 65.93689    -63.2 1.288e+04 6.388e-09
 65.95962    -63.0 1.271e+04 4.957e-09
 65.97941    -62.2 1.249e+04 2.965e-09
 66.00598    -61.1 1.238e+04 2.182e-09
 66.04535    -60.1 1.243e+04 1.920e-09
 66.08472    -59.0 1.251e+04 1.723e-09
 66.10860    -57.9 1.254e+04 1.664e-09
 66.12829    -56.7 1.259e+04 1.512e-09
 66.16346    -55.6 1.260e+04 1.485e-09
 66.20283    -54.5 1.270e+04 1.522e-09
 66.24220    -53.8 1.286e+04 1.684e-09
 66.28157    -53.7 1.332e+04 2.146e-09
 66.32094    -55.0 1.383e+04 4.775e-09
 66.34802    -56.8 1.404e+04 7.073e-09
 66.35777    -56.2 1.432e+04 1.242e-08
 66.36996    -58.6 1.532e+04 2.575e-08
 66.38077    -61.4 1.630e+04 4.497e-08
 66.39061    -60.3 1.551e+04 4.656e-08
 66.40933    -63.7 1.627e+04 5.718e-08
 66.42902    -68.0 1.644e+04 5.719e-08
 66.44870    -72.4 1.601e+04 3.894e-08
 66.46839    -76.5 1.490e+04 2.120e-08
 66.48807    -79.3 1.384e+04 1.280e-08
 66.50776    -80.2 1.323e+04 9.098e-09
 66.52744    -80.4 1.290e+04 6.703e-09
 66.54713    -80.4 1.271e+04 4.767e-09
 66.56681    -80.0 1.257e+04 3.314e-09
 66.58754    -79.5 1.256e+04 2.315e-09
 66.60732    -79.8 1.256e+04 2.271e-09
 66.63591    -79.6 1.239e+04 1.839e-09
 66.67528    -78.7 1.209e+04 1.654e-09
 66.71465    -77.6 1.199e+04 1.627e-09
 66.75402    -76.6 1.188e+04 1.666e-09
 66.78253    -75.6 1.177e+04 1.757e-09
 66.80221    -74.6 1.184e+04 1.970e-09
 66.83276    -73.6 1.185e+04 2.235e-09
 66.87213    -72.8 1.192e+04 2.488e-09
 66.91150    -72.1 1.191e+04 2.649e-09
 66.95087    -71.6 1.181e+04 2.719e-09
 66.98030    -70.9 1.167e+04 2.744e-09
 66.99296    -70.9 1.166e+04 2.917e-09
 67.00280    -70.6 1.174e+04 3.043e-09
 67.01957    -70.1 1.181e+04 3.418e-09
 67.03926    -69.7 1.188e+04 3.714e-09
 67.05894    -69.2 1.192e+04 4.035e-09
 67.07631    -68.7 1.193e+04 4.310e-09
 67.08615    -68.3 1.179e+04 3.883e-09
 67.09831    -67.7 1.179e+04 4.026e-09
 67.11800    -67.1 1.180e+04 4.124e-09
 67.13768    -66.4 1.181e+04 4.180e-09
 67.15737    -65.6 1.180e+04 4.229e-09
 67.17705    -64.8 1.180e+04 4.267e-09
 67.19374    -64.0 1.196e+04 4.130e-09
 67.20358    -63.5 1.188e+04 4.019e-09
 67.21642    -62.6 1.196e+04 3.813e-09
 67.23611    -61.8 1.203e+04 3.633e-09
 67.25579    -60.9 1.209e+04 3.510e-09
 67.27548    -60.0 1.207e+04 3.458e-09
 67.29516    -59.0 1.202e+04 3.477e-09
 67.31485    -58.1 1.200e+04 3.499e-09
 67.34447    -56.7 1.205e+04 3.783e-09
 67.38394    -54.8 1.210e+04 4.286e-09
 67.42331    -53.6 1.241e+04 6.054e-09
 67.46268    -53.0 1.298e+04 1.060e-08
 67.49211    -52.2 1.331e+04 1.612e-08
 67.51170    -52.0 1.376e+04 2.353e-08
 67.53139    -51.4 1.415e+04 2.994e-08
 67.55107    -51.0 1.434e+04 3.269e-08
 67.56518    -50.9 1.439e+04 3.026e-08
 67.57502    -50.8 1.428e+04 3.122e-08
 67.59044    -50.4 1.405e+04 2.412e-08
 67.60514    -50.6 1.400e+04 1.799e-08
 67.61498    -48.9 1.432e+04 2.628e-08
 67.62981    -49.4 1.420e+04 2.021e-08
 67.64950    -50.0 1.395e+04 1.588e-08
 67.66918    -50.4 1.359e+04 1.310e-08
 67.68887    -50.7 1.321e+04 1.082e-08
 67.70855    -50.8 1.287e+04 8.602e-09
 67.72824    -50.9 1.257e+04 6.491e-09
 67.74792    -50.9 1.230e+04 4.723e-09
 67.76761    -50.8 1.210e+04 3.553e-09
 67.78729    -50.7 1.202e+04 2.651e-09
 67.80470    -50.5 1.206e+04 2.096e-09
 67.81348    -49.8 1.214e+04 2.750e-09
 67.81576    -49.6 1.236e+04 2.858e-09
 67.82666    -49.6 1.231e+04 2.419e-09
 67.84635    -49.4 1.232e+04 2.323e-09
 67.86603    -49.4 1.258e+04 2.310e-09
 67.88572    -49.4 1.266e+04 2.844e-09
 67.90540    -49.3 1.267e+04 3.679e-09
 67.92509    -49.0 1.271e+04 4.667e-09
 67.94477    -48.9 1.275e+04 5.424e-09
 67.96446    -48.8 1.273e+04 5.765e-09
 67.98414    -48.8 1.270e+04 5.818e-09
 68.00383    -48.6 1.258e+04 5.728e-09
 68.01654    -48.2 1.255e+04 5.096e-09
 68.02639    -48.0 1.265e+04 5.486e-09
 68.04320    -47.6 1.262e+04 4.725e-09
 68.05405    -47.2 1.253e+04 4.064e-09
 68.06390    -47.3 1.258e+04 4.376e-09
 68.08257    -46.9 1.247e+04 3.879e-09
 68.10225    -46.5 1.241e+04 3.475e-09
 68.12194    -46.1 1.235e+04 3.214e-09
 68.14162    -45.6 1.229e+04 3.027e-09
 68.17125    -44.5 1.234e+04 2.809e-09
 68.21072    -42.3 1.231e+04 2.575e-09
 68.25009    -40.4 1.236e+04 2.557e-09
 68.28946    -38.5 1.249e+04 2.778e-09
 68.31889    -37.1 1.259e+04 3.320e-09
 68.33848    -36.9 1.254e+04 3.433e-09
 68.36810    -35.6 1.255e+04 3.939e-09
 68.40757    -34.5 1.262e+04 3.999e-09
 68.42814    -33.6 1.273e+04 3.923e-09
 68.44783    -32.6 1.293e+04 5.908e-09
 68.48631    -31.9 1.284e+04 5.111e-09
 68.52344    -31.0 1.281e+04 4.353e-09
 68.54312    -31.5 1.286e+04 3.446e-09
 68.56505    -30.5 1.287e+04 2.864e-09
 68.60442    -29.3 1.299e+04 3.034e-09
 68.62883    -28.6 1.297e+04 4.636e-09
 68.63857    -28.2 1.308e+04 4.459e-09
 68.65344    -28.2 1.300e+04 5.096e-09
 68.67312    -27.1 1.314e+04 6.522e-09
 68.69281    -26.7 1.308e+04 7.265e-09
 68.71249    -26.2 1.321e+04 8.176e-09
 68.73218    -26.2 1.317e+04 8.697e-09
 68.75186    -26.2 1.332e+04 9.847e-09
 68.77155    -26.5 1.329e+04 1.178e-08
 68.78244    -26.4 1.349e+04 1.498e-08
 68.79228    -26.2 1.341e+04 1.087e-08
 68.81092    -27.4 1.367e+04 1.483e-08
 68.82951    -29.0 1.422e+04 2.427e-08
 68.83935    -29.7 1.478e+04 4.066e-08
 68.85029    -30.8 1.555e+04 6.953e-08
 68.86997    -32.2 1.592e+04 8.366e-08
 68.88966    -34.3 1.555e+04 6.853e-08
 68.90934    -36.2 1.485e+04 4.767e-08
 68.92903    -37.5 1.400e+04 2.846e-08
 68.94871    -38.4 1.321e+04 1.533e-08
 68.96840    -39.0 1.263e+04 8.414e-09
 68.98809    -39.3 1.225e+04 5.440e-09
 69.00777    -39.3 1.192e+04 4.027e-09
 69.02195    -38.5 1.172e+04 3.216e-09
 69.03180    -38.0 1.170e+04 3.070e-09
 69.04013    -37.4 1.163e+04 2.582e-09
 69.04998    -37.9 1.155e+04 2.220e-09
 69.07677    -36.7 1.146e+04 2.134e-09
 69.11623    -34.6 1.120e+04 1.731e-09
 69.15560    -32.5 1.109e+04 1.532e-09
 69.19497    -30.4 1.109e+04 1.533e-09
 69.23127    -28.7 1.129e+04 1.990e-09
 69.25095    -28.7 1.120e+04 1.405e-09
 69.27371    -27.0 1.135e+04 2.133e-09
 69.31309    -25.7 1.163e+04 4.033e-09
 69.35246    -24.5 1.198e+04 7.698e-09
 69.39183    -23.5 1.210e+04 1.132e-08
 69.43120    -23.1 1.210e+04 1.248e-08
 69.47057    -22.6 1.151e+04 8.699e-09
 69.50118    -22.4 1.083e+04 3.148e-09
 69.52086    -20.2 1.146e+04 6.966e-09
 69.54931    -21.0 1.068e+04 3.088e-09
 69.58868    -21.4 1.026e+04 2.200e-09
 69.62805    -20.9 9.997e+03 2.057e-09
 69.65251    -19.7 9.848e+03 2.578e-09
 69.67220    -19.6 1.001e+04 2.790e-09
 69.70679    -17.9 1.003e+04 3.183e-09
 69.74616    -16.5 9.974e+03 3.209e-09
 69.78553    -15.2 9.979e+03 3.126e-09
 69.82490    -14.2 9.978e+03 3.705e-09
 69.86427    -13.5 1.045e+04 6.051e-09
 69.90364    -12.9 1.140e+04 1.030e-08
 69.93307    -14.3 1.248e+04 2.185e-08
 69.95266    -14.8 1.297e+04 3.058e-08
 69.97234    -15.4 1.337e+04 3.748e-08
 69.98985    -15.6 1.359e+04 4.285e-08
 69.99970    -15.3 1.258e+04 2.398e-08
 70.01171    -15.7 1.209e+04 1.457e-08
 70.03140    -17.9 1.142e+04 8.116e-09
 70.05108    -20.2 1.054e+04 5.355e-09
 70.06372    -21.4 9.938e+03 4.391e-09
 70.07356    -21.2 9.926e+03 4.556e-09
 70.09045    -21.5 9.761e+03 4.301e-09
 70.11014    -21.4 9.731e+03 4.413e-09
 70.12982    -21.3 9.958e+03 4.763e-09
 70.14951    -21.7 1.027e+04 5.748e-09
 70.16919    -22.4 1.070e+04 7.785e-09
 70.18888    -23.2 1.114e+04 1.109e-08
 70.20856    -23.5 1.142e+04 1.563e-08
 70.22825    -23.3 1.162e+04 1.893e-08
 70.23921    -23.1 1.172e+04 1.963e-08
 70.24905    -23.0 1.143e+04 1.730e-08
 70.26450    -23.2 1.111e+04 1.216e-08
 70.27434    -22.8 1.099e+04 1.096e-08
 70.28730    -24.5 1.059e+04 6.966e-09
 70.30699    -26.0 1.037e+04 5.782e-09
 70.32667    -26.6 1.045e+04 5.909e-09
 70.34636    -26.7 1.059e+04 7.186e-09
 70.36604    -25.8 1.061e+04 8.525e-09
 70.38573    -24.6 1.061e+04 9.013e-09
 70.40541    -23.7 1.067e+04 8.732e-09
 70.42510    -23.0 1.088e+04 8.758e-09
 70.44479    -22.6 1.142e+04 9.578e-09
 70.46447    -23.3 1.210e+04 1.287e-08
 70.47513    -24.3 1.280e+04 2.119e-08
 70.47954    -23.8 1.315e+04 2.175e-08
 70.48857    -23.2 1.348e+04 2.275e-08
 70.50384    -23.9 1.517e+04 5.457e-08
 70.52353    -23.6 1.679e+04 1.236e-07
 70.54321    -23.0 1.788e+04 2.224e-07
 70.55793    -23.7 1.779e+04 1.937e-07
 70.56772    -24.1 1.778e+04 1.857e-07
 70.57542    -25.2 1.754e+04 1.571e-07
 70.58034    -24.8 1.765e+04 1.662e-07
 70.58740    -25.9 1.757e+04 1.478e-07
 70.59725    -27.5 1.774e+04 1.332e-07
 70.60331    -29.9 1.811e+04 1.267e-07
 70.60823    -28.8 1.821e+04 1.747e-07
 70.61693    -31.1 1.896e+04 1.729e-07
 70.62677    -35.5 2.059e+04 2.123e-07
 70.63662    -40.9 2.049e+04 4.613e-07
 70.64646    -44.4 1.889e+04 1.355e-06
 70.65630    -46.9 1.835e+04 2.381e-06
 70.66615    -50.2 1.824e+04 2.477e-06
 70.67581    -52.2 1.858e+04 1.019e-06
 70.68073    -51.6 1.851e+04 1.138e-06
 70.68583    -53.6 1.890e+04 2.174e-07
 70.70064    -58.2 1.618e+04 4.060e-08
 70.71824    -63.4 1.323e+04 8.066e-09
 70.72808    -64.7 1.331e+04 7.061e-09
 70.74006    -66.8 1.165e+04 2.528e-09
 70.75975    -66.9 1.136e+04 1.755e-09
 70.77943    -66.1 1.123e+04 1.590e-09
 70.80906    -64.8 1.119e+04 1.525e-09
 70.84853    -63.3 1.097e+04 1.406e-09
 70.87688    -61.4 1.083e+04 1.260e-09
 70.89657    -61.5 1.103e+04 1.462e-09
 70.92727    -60.0 1.096e+04 1.360e-09
 70.95795    -58.6 1.093e+04 1.259e-09
 70.97764    -58.7 1.102e+04 1.285e-09
 71.00601    -57.5 1.104e+04 1.274e-09
 71.04538    -56.8 1.124e+04 1.506e-09
 71.08475    -56.5 1.149e+04 2.697e-09
 71.11418    -56.5 1.161e+04 4.133e-09
 71.13376    -57.1 1.181e+04 6.124e-09
 71.15345    -57.4 1.209e+04 8.565e-09
 71.17314    -58.0 1.238e+04 9.948e-09
 71.19282    -59.0 1.249e+04 1.028e-08
 71.20711    -60.3 1.252e+04 9.856e-09
 71.21695    -60.2 1.255e+04 1.125e-08
 71.23219    -61.3 1.252e+04 1.049e-08
 71.25188    -62.4 1.245e+04 9.231e-09
 71.27156    -63.2 1.231e+04 7.891e-09
 71.28809    -63.7 1.211e+04 6.654e-09
 71.29793    -64.3 1.211e+04 6.994e-09
 71.32087    -64.9 1.190e+04 5.707e-09
 71.36034    -65.1 1.176e+04 4.077e-09
 71.39971    -65.3 1.176e+04 3.291e-09
 71.42914    -64.8 1.163e+04 3.137e-09
 71.44663    -64.8 1.170e+04 3.154e-09
 71.45647    -64.8 1.158e+04 3.053e-09
 71.46841    -65.0 1.176e+04 3.071e-09
 71.48810    -66.1 1.215e+04 3.545e-09
 71.49871    -67.3 1.236e+04 4.580e-09
 71.50856    -68.3 1.237e+04 4.980e-09
 71.52747    -69.4 1.255e+04 6.553e-09
 71.54715    -70.7 1.270e+04 8.001e-09
 71.56684    -72.1 1.273e+04 8.681e-09
 71.58652    -73.6 1.270e+04 8.779e-09
 71.60621    -74.7 1.243e+04 8.138e-09
 71.62589    -75.3 1.212e+04 6.561e-09
 71.64558    -75.7 1.184e+04 5.029e-09
 71.67520    -75.8 1.165e+04 3.595e-09
 71.69969    -75.6 1.139e+04 1.424e-09
 71.71937    -76.3 1.133e+04 1.098e-09
 71.75404    -75.0 1.122e+04 8.843e-10
 71.79341    -73.3 1.121e+04 8.337e-10
 71.83278    -71.4 1.121e+04 8.248e-10
 71.87215    -69.6 1.123e+04 8.230e-10
 71.91152    -67.8 1.125e+04 8.263e-10
 71.93569    -66.0 1.127e+04 8.456e-10
 71.95538    -67.2 1.139e+04 1.018e-09
 71.99026    -65.4 1.144e+04 9.977e-10
 72.02963    -63.7 1.153e+04 9.940e-10
 72.06900    -62.2 1.156e+04 1.048e-09
 72.10125    -60.6 1.157e+04 1.091e-09
 72.12094    -60.7 1.148e+04 9.868e-10
 72.14774    -59.1 1.150e+04 1.007e-09
 72.18711    -57.4 1.150e+04 1.010e-09
 72.22649    -55.5 1.152e+04 9.371e-10
 72.26586    -53.6 1.157e+04 8.184e-10
 72.30523    -51.6 1.166e+04 7.070e-10
 72.34460    -49.7 1.175e+04 6.458e-10
 72.38397    -47.9 1.179e+04 6.460e-10
 72.41472    -46.2 1.161e+04 7.754e-10
 72.43441    -47.1 1.149e+04 1.081e-09
 72.46271    -45.3 1.115e+04 1.373e-09
 72.50208    -43.4 1.096e+04 1.496e-09
 72.52250    -41.3 1.072e+04 1.458e-09
 72.54218    -40.8 1.085e+04 1.383e-09
 72.58082    -38.7 1.069e+04 1.319e-09
 72.62019    -36.4 1.047e+04 1.148e-09
 72.65956    -34.2 1.034e+04 9.378e-10
 72.69893    -32.0 1.025e+04 8.049e-10
 72.73830    -29.9 1.021e+04 7.664e-10
 72.77767    -27.7 1.022e+04 7.681e-10
 72.81704    -25.8 1.017e+04 9.254e-10
 72.85641    -23.9 1.020e+04 1.215e-09
 72.89375    -22.2 1.029e+04 1.731e-09
 72.91344    -23.0 1.026e+04 1.746e-09
 72.92406    -21.7 1.042e+04 2.772e-09
 72.94374    -21.0 1.067e+04 3.138e-09
 72.97452    -19.9 1.119e+04 5.788e-09
 73.01389    -19.1 1.207e+04 1.079e-08
 73.04332    -19.3 1.234e+04 1.407e-08
 73.06291    -20.0 1.253e+04 1.653e-08
 73.08259    -19.8 1.290e+04 2.168e-08
 73.10228    -19.8 1.259e+04 2.015e-08
 73.12196    -19.3 1.226e+04 1.286e-08
 73.13449    -20.6 1.179e+04 7.238e-09
 73.14433    -20.2 1.218e+04 8.845e-09
 73.15276    -21.7 1.174e+04 6.366e-09
 73.16260    -22.5 1.212e+04 7.452e-09
 73.18102    -24.6 1.282e+04 8.157e-09
 73.20070    -30.8 1.490e+04 2.331e-08
 73.22039    -35.1 1.620e+04 8.867e-08
 73.23483    -35.8 1.698e+04 1.667e-07
 73.23970    -35.8 1.733e+04 2.051e-07
 73.24490    -36.9 1.759e+04 2.440e-07
 73.25474    -37.8 1.773e+04 2.913e-07
 73.26458    -38.4 1.713e+04 2.193e-07
 73.27242    -39.0 1.636e+04 1.140e-07
 73.27734    -39.9 1.604e+04 9.810e-08
 73.28427    -41.8 1.487e+04 4.992e-08
 73.29908    -43.6 1.357e+04 2.752e-08
 73.31881    -46.1 1.158e+04 1.032e-08
 73.33527    -47.2 1.053e+04 5.173e-09
 73.34511    -47.9 1.052e+04 5.186e-09
 73.35818    -47.4 1.016e+04 4.134e-09
 73.37787    -46.6 9.943e+03 3.383e-09
 73.39237    -46.1 9.849e+03 2.956e-09
 73.41215    -45.5 1.007e+04 3.293e-09
 73.44696    -44.0 9.838e+03 2.865e-09
 73.48633    -42.0 9.479e+03 2.400e-09
 73.52570    -40.2 9.248e+03 1.943e-09
 73.56507    -38.5 9.191e+03 1.626e-09
 73.60444    -37.1 9.199e+03 1.547e-09
 73.64381    -36.1 9.347e+03 1.774e-09
 73.68318    -35.5 9.748e+03 2.793e-09
 73.71261    -34.9 1.017e+04 3.988e-09
 73.73220    -35.1 1.030e+04 4.669e-09
 73.74667    -35.0 1.060e+04 5.252e-09
 73.75651    -35.0 1.063e+04 5.213e-09
 73.77157    -35.6 1.077e+04 5.214e-09
 73.79126    -36.3 1.094e+04 5.082e-09
 73.81094    -37.6 1.114e+04 5.076e-09
 73.83063    -39.0 1.138e+04 5.854e-09
 73.85031    -39.9 1.155e+04 7.039e-09
 73.87140    -40.6 1.166e+04 7.335e-09
 73.89108    -40.5 1.166e+04 6.641e-09
 73.91931    -40.8 1.180e+04 5.810e-09
 73.95878    -41.7 1.212e+04 4.449e-09
 73.99815    -42.9 1.227e+04 4.027e-09
 74.03752    -43.5 1.250e+04 4.868e-09
 74.07689    -43.6 1.259e+04 5.787e-09
 74.11626    -43.8 1.284e+04 7.241e-09
 74.14843    -44.1 1.322e+04 1.008e-08
 74.16811    -43.0 1.293e+04 7.715e-09
 74.19500    -43.0 1.322e+04 9.908e-09
 74.23437    -43.4 1.327e+04 1.028e-08
 74.27374    -43.4 1.300e+04 7.482e-09
 74.31311    -43.3 1.272e+04 4.586e-09
 74.35052    -42.7 1.254e+04 3.777e-09
 74.37021    -43.7 1.224e+04 3.757e-09
 74.39185    -42.6 1.211e+04 3.705e-09
 74.43122    -41.8 1.212e+04 4.171e-09
 74.47059    -41.2 1.220e+04 4.506e-09
 74.50996    -40.9 1.224e+04 4.577e-09
 74.54933    -40.8 1.232e+04 4.719e-09
 74.56967    -40.9 1.252e+04 5.589e-09
 74.58936    -39.5 1.262e+04 5.594e-09
 74.62807    -40.1 1.293e+04 7.249e-09
 74.66744    -40.8 1.312e+04 8.781e-09
 74.69687    -41.2 1.289e+04 7.650e-09
 74.71646    -41.3 1.289e+04 7.539e-09
 74.74608    -41.3 1.272e+04 6.714e-09
 74.78555    -40.3 1.237e+04 4.401e-09
 74.82492    -38.7 1.228e+04 2.852e-09
 74.84924    -37.1 1.221e+04 2.067e-09
 74.86892    -36.2 1.209e+04 2.063e-09
 74.90366    -34.5 1.209e+04 1.726e-09
 74.94303    -32.8 1.216e+04 1.602e-09
 74.97124    -31.1 1.222e+04 1.569e-09
 74.99092    -30.7 1.233e+04 1.739e-09
 75.02177    -29.1 1.231e+04 1.755e-09
 75.06114    -27.5 1.223e+04 1.765e-09
 75.10051    -25.8 1.207e+04 1.616e-09
 75.13988    -23.7 1.203e+04 1.185e-09
 75.17926    -21.6 1.209e+04 7.483e-10
 75.21863    -19.8 1.221e+04 4.837e-10
 75.25800    -18.0 1.215e+04 4.025e-10
 75.29737    -16.0 1.216e+04 3.920e-10
 75.32827    -14.2 1.233e+04 4.117e-10
 75.34795    -14.2 1.235e+04 4.099e-10
 75.37280    -12.9 1.230e+04 5.509e-10
 75.39248    -12.6 1.240e+04 5.608e-10
 75.41548    -11.3 1.242e+04 7.941e-10
 75.45485    -10.0 1.245e+04 1.001e-09
 75.49422     -8.9 1.245e+04 1.072e-09
 75.53359     -8.0 1.242e+04 9.535e-10
 75.57296     -7.3 1.233e+04 7.916e-10
 75.61233     -6.3 1.226e+04 6.971e-10
 75.65170     -5.3 1.232e+04 6.179e-10
 75.69107     -4.2 1.220e+04 6.242e-10
 75.73044     -2.7 1.199e+04 7.045e-10
 75.76981     -0.9 1.197e+04 7.309e-10
 75.79404      0.7 1.209e+04 7.042e-10
 75.81184      1.3 1.199e+04 7.332e-10
 75.82698      1.1 1.202e+04 7.124e-10
 75.84855      2.5 1.192e+04 7.814e-10
 75.88792      4.1 1.178e+04 8.527e-10
 75.92729      5.7 1.176e+04 8.755e-10
 75.96666      7.4 1.173e+04 9.350e-10
 76.00603      9.0 1.176e+04 1.110e-09
 76.04540     10.3 1.189e+04 1.611e-09
 76.08477     11.3 1.192e+04 3.298e-09
 76.12414     12.2 1.256e+04 6.461e-09
 76.15357      8.9 1.387e+04 1.434e-08
 76.17316      8.2 1.361e+04 2.888e-08
 76.19284      8.3 1.323e+04 2.667e-08
 76.20525      9.0 1.274e+04 1.402e-08
 76.21509      9.1 1.279e+04 1.564e-08
 76.23221      7.3 1.309e+04 6.409e-09
 76.25190      3.5 1.269e+04 4.033e-09
 76.27158      1.3 1.244e+04 4.501e-09
 76.29127     -0.8 1.270e+04 6.135e-09
 76.30582     -1.6 1.223e+04 1.022e-08
 76.31566     -2.0 1.214e+04 1.039e-08
 76.33064     -1.7 1.212e+04 1.259e-08
 76.35033     -1.9 1.228e+04 1.204e-08
 76.37001     -2.4 1.212e+04 1.026e-08
 76.38970     -3.3 1.210e+04 9.009e-09
 76.40603     -4.6 1.223e+04 8.434e-09
 76.41587     -4.1 1.245e+04 9.414e-09
 76.42907     -5.0 1.201e+04 1.137e-08
 76.44875     -4.7 1.186e+04 1.254e-08
 76.46844     -4.0 1.179e+04 1.118e-08
 76.48812     -4.0 1.200e+04 7.087e-09
 76.50781     -4.9 1.162e+04 5.833e-09
 76.52749     -5.3 1.137e+04 5.232e-09
 76.54533     -4.9 1.131e+04 5.118e-09
 76.55517     -5.3 1.142e+04 5.446e-09
 76.56686     -5.2 1.143e+04 6.025e-09
 76.58655     -5.0 1.150e+04 7.596e-09
 76.60623     -5.1 1.190e+04 8.773e-09
 76.61666     -5.5 1.214e+04 1.088e-08
 76.62650     -5.3 1.247e+04 1.466e-08
 76.64560     -5.8 1.281e+04 1.730e-08
 76.66529     -6.5 1.305e+04 1.996e-08
 76.68497     -7.6 1.333e+04 2.177e-08
 76.70466     -9.2 1.367e+04 2.476e-08
 76.72434    -11.5 1.399e+04 2.997e-08
 76.74403    -13.4 1.414e+04 3.748e-08
 76.76371    -14.5 1.424e+04 4.222e-08
 76.78340    -15.3 1.371e+04 3.551e-08
 76.79469    -16.0 1.288e+04 2.082e-08
 76.80453    -16.3 1.330e+04 2.396e-08
 76.81744    -17.7 1.227e+04 1.219e-08
 76.82728    -17.2 1.254e+04 1.490e-08
 76.84245    -18.4 1.184e+04 9.479e-09
 76.86214    -18.9 1.141e+04 7.412e-09
 76.88182    -18.9 1.122e+04 6.630e-09
 76.90151    -18.6 1.108e+04 6.265e-09
 76.92119    -18.0 1.095e+04 5.924e-09
 76.94088    -17.1 1.089e+04 5.367e-09
 76.96056    -16.4 1.088e+04 4.604e-09
 76.98025    -15.8 1.087e+04 3.938e-09
 76.99993    -15.2 1.092e+04 3.422e-09
 77.01822    -14.6 1.094e+04 3.045e-09
 77.02806    -14.9 1.096e+04 3.796e-09
 77.03420    -14.1 1.094e+04 3.621e-09
 77.04404    -14.6 1.106e+04 4.675e-09
 77.05899    -13.9 1.112e+04 4.738e-09
 77.07868    -13.2 1.116e+04 4.808e-09
 77.09836    -12.5 1.126e+04 4.983e-09
 77.11805    -12.1 1.134e+04 5.357e-09
 77.13773    -11.7 1.142e+04 6.068e-09
 77.15742    -11.2 1.158e+04 7.507e-09
 77.17710    -10.5 1.178e+04 1.030e-08
 77.19679     -9.8 1.210e+04 1.427e-08
 77.21647     -8.6 1.256e+04 1.915e-08
 77.22884     -7.4 1.294e+04 2.227e-08
 77.23868     -7.7 1.294e+04 2.169e-08
 77.25584     -6.9 1.312e+04 2.175e-08
 77.27372     -6.5 1.308e+04 1.874e-08
 77.28356     -7.3 1.299e+04 1.852e-08
 77.30515     -6.9 1.285e+04 1.502e-08
 77.34462     -6.4 1.270e+04 1.470e-08
 77.38399     -6.1 1.253e+04 1.343e-08
 77.41997     -5.4 1.210e+04 1.243e-08
 77.43966     -6.0 1.186e+04 1.066e-08
 77.46273     -5.1 1.138e+04 8.657e-09
 77.49216     -4.1 1.141e+04 7.821e-09
 77.51175     -4.5 1.122e+04 7.470e-09
 77.52307     -3.6 1.123e+04 8.119e-09
 77.53292     -4.2 1.140e+04 8.128e-09
 77.55112     -4.6 1.177e+04 8.715e-09
 77.57080     -5.1 1.172e+04 1.130e-08
 77.59049     -5.2 1.208e+04 1.401e-08
 77.61017     -5.4 1.220e+04 1.642e-08
 77.62986     -5.0 1.208e+04 1.780e-08
 77.64024     -4.4 1.201e+04 1.515e-08
 77.65009     -5.1 1.185e+04 1.420e-08
 77.66923     -4.7 1.187e+04 1.053e-08
 77.68891     -5.1 1.169e+04 7.848e-09
 77.70860     -5.7 1.153e+04 6.187e-09
 77.72828     -6.2 1.138e+04 5.209e-09
 77.74797     -6.4 1.121e+04 4.710e-09
 77.76259     -6.2 1.122e+04 3.814e-09
 77.77243     -6.3 1.130e+04 4.317e-09
 77.78734     -6.5 1.145e+04 2.996e-09
 77.81697     -5.9 1.120e+04 2.245e-09
 77.84122     -5.4 1.107e+04 1.163e-09
 77.86090     -7.4 1.117e+04 1.168e-09
 77.89580     -7.6 1.120e+04 9.731e-10
 77.93517     -7.6 1.139e+04 1.086e-09
 77.97454     -7.1 1.173e+04 1.756e-09
 78.00220     -6.3 1.187e+04 2.167e-09
 78.01194     -6.0 1.186e+04 1.962e-09
 78.02356     -6.6 1.180e+04 2.409e-09
 78.04180     -8.1 1.256e+04 2.722e-09
 78.05165     -9.7 1.315e+04 3.072e-09
 78.06293    -14.5 1.357e+04 7.120e-09
 78.08262    -15.7 1.276e+04 2.043e-08
 78.10230    -14.1 1.319e+04 3.245e-08
 78.12199    -13.9 1.320e+04 2.392e-08
 78.14167    -16.2 1.319e+04 9.478e-09
 78.16136    -20.2 1.172e+04 5.765e-09
 78.18104    -20.8 1.129e+04 4.875e-09
 78.20073    -20.8 1.117e+04 4.226e-09
 78.22041    -20.8 1.096e+04 3.436e-09
 78.24171    -21.1 1.075e+04 2.262e-09
 78.25404    -19.6 1.074e+04 2.228e-09
 78.26227    -19.9 1.077e+04 2.330e-09
 78.28941    -19.1 1.050e+04 1.778e-09
 78.32888    -17.2 1.023e+04 1.314e-09
 78.36825    -15.2 1.023e+04 1.204e-09
 78.39768    -13.3 1.034e+04 1.343e-09
 78.41726    -13.7 1.043e+04 1.626e-09
 78.43695    -13.7 1.081e+04 3.344e-09
 78.45321    -15.0 1.149e+04 6.528e-09
 78.46305    -16.4 1.215e+04 1.070e-08
 78.47632    -16.1 1.298e+04 2.630e-08
 78.49097    -15.3 1.364e+04 3.721e-08
 78.50082    -14.3 1.332e+04 3.269e-08
 78.51569    -13.1 1.367e+04 4.171e-08
 78.53538    -12.2 1.383e+04 3.693e-08
 78.55506    -12.7 1.344e+04 1.772e-08
 78.57475    -15.3 1.235e+04 7.850e-09
 78.59443    -17.8 1.077e+04 5.535e-09
 78.61412    -18.8 1.057e+04 4.784e-09
 78.63380    -19.2 1.053e+04 4.484e-09
 78.65349    -19.8 1.051e+04 4.410e-09
 78.66383    -20.4 1.045e+04 4.517e-09
 78.67367    -21.4 1.037e+04 4.505e-09
 78.69286    -21.9 1.035e+04 4.632e-09
 78.71254    -22.2 1.027e+04 4.669e-09
 78.73049    -22.3 1.028e+04 4.431e-09
 78.74033    -21.1 1.034e+04 4.777e-09
 78.75191    -21.3 1.037e+04 4.393e-09
 78.77160    -21.9 1.041e+04 4.001e-09
 78.79128    -22.5 1.031e+04 3.836e-09
 78.81097    -22.8 1.037e+04 3.880e-09
 78.83065    -23.3 1.044e+04 4.247e-09
 78.85034    -24.1 1.053e+04 5.103e-09
 78.86461    -24.5 1.087e+04 6.646e-09
 78.87446    -25.4 1.106e+04 7.499e-09
 78.88971    -26.3 1.138e+04 9.265e-09
 78.90939    -27.4 1.176e+04 1.163e-08
 78.92908    -28.6 1.209e+04 1.511e-08
 78.94876    -29.7 1.245e+04 1.899e-08
 78.96845    -30.4 1.276e+04 2.261e-08
 78.97984    -30.9 1.300e+04 2.504e-08
 78.98969    -30.9 1.305e+04 2.476e-08
 79.00782    -31.3 1.311e+04 2.540e-08
 79.02750    -31.4 1.293e+04 2.297e-08
 79.04719    -31.3 1.254e+04 1.715e-08
 79.06539    -31.3 1.218e+04 1.238e-08
 79.07524    -31.9 1.246e+04 1.495e-08
 79.08656    -32.0 1.218e+04 1.238e-08
 79.10624    -32.1 1.197e+04 1.150e-08
 79.12593    -31.6 1.194e+04 1.164e-08
 79.14561    -30.9 1.196e+04 1.302e-08
 79.16530    -29.9 1.195e+04 1.355e-08
 79.18498    -28.9 1.199e+04 1.288e-08
 79.20467    -28.3 1.209e+04 1.220e-08
 79.21936    -28.2 1.236e+04 1.313e-08
 79.22920    -27.5 1.176e+04 8.280e-09
 79.24404    -27.6 1.213e+04 9.360e-09
 79.26373    -27.8 1.236e+04 1.252e-08
 79.27602    -27.4 1.255e+04 1.764e-08
 79.28586    -27.5 1.241e+04 1.197e-08
 79.30310    -26.7 1.250e+04 1.540e-08
 79.32278    -25.7 1.253e+04 1.761e-08
 79.34247    -24.8 1.250e+04 1.821e-08
 79.36215    -24.0 1.238e+04 1.774e-08
 79.38184    -23.2 1.238e+04 1.758e-08
 79.40152    -22.3 1.246e+04 1.782e-08
 79.42121    -21.7 1.265e+04 2.034e-08
 79.44089    -21.6 1.342e+04 3.133e-08
 79.45887    -21.8 1.467e+04 5.491e-08
 79.46872    -22.5 1.427e+04 4.737e-08
 79.47680    -22.2 1.525e+04 7.129e-08
 79.48659    -22.8 1.557e+04 7.844e-08
 79.49493    -21.9 1.640e+04 9.932e-08
 79.50477    -22.1 1.666e+04 1.044e-07
 79.51461    -21.6 1.715e+04 1.118e-07
 79.52446    -21.6 1.737e+04 1.021e-07
 79.53430    -22.5 1.716e+04 8.264e-08
 79.54414    -23.4 1.695e+04 6.896e-08
 79.55398    -24.8 1.641e+04 5.650e-08
 79.56383    -25.7 1.612e+04 5.035e-08
 79.57367    -26.6 1.572e+04 4.433e-08
 79.58201    -26.9 1.561e+04 4.269e-08
 79.58688    -27.9 1.517e+04 3.625e-08
 79.58838    -27.4 1.464e+04 2.891e-08
 79.59832    -26.8 1.542e+04 3.693e-08
 79.61806    -26.1 1.500e+04 3.308e-08
 79.63774    -25.7 1.411e+04 2.732e-08
 79.65743    -25.1 1.365e+04 2.585e-08
 79.67711    -24.5 1.352e+04 2.596e-08
 79.68742    -23.8 1.387e+04 2.785e-08
 79.69726    -24.7 1.257e+04 1.173e-08
 79.70823    -23.9 1.278e+04 1.179e-08
 79.71807    -23.2 1.254e+04 1.080e-08
 79.73617    -22.3 1.265e+04 1.088e-08
 79.75585    -21.6 1.272e+04 1.077e-08
 79.77554    -21.3 1.282e+04 1.171e-08
 79.79522    -21.0 1.273e+04 1.444e-08
 79.81491    -20.3 1.279e+04 1.940e-08
 79.83459    -19.0 1.304e+04 2.605e-08
 79.85428    -17.5 1.308e+04 2.979e-08
 79.87396    -16.1 1.301e+04 3.022e-08
 79.88820    -14.6 1.288e+04 2.829e-08
 79.89804    -14.7 1.279e+04 2.631e-08
 79.91333    -13.5 1.262e+04 2.373e-08
 79.93302    -12.6 1.254e+04 2.243e-08
 79.94775    -11.5 1.259e+04 2.279e-08
 79.95759    -11.4 1.273e+04 2.349e-08
 79.97239    -10.6 1.311e+04 2.462e-08
 79.99208    -10.4 1.342e+04 2.909e-08
 80.01176     -9.5 1.373e+04 4.087e-08
 80.03145     -8.2 1.421e+04 5.104e-08
 80.05113     -6.9 1.457e+04 5.739e-08
 80.07082     -6.1 1.451e+04 5.652e-08
 80.08898     -5.5 1.439e+04 5.957e-08
 80.09882     -5.6 1.405e+04 4.167e-08
 80.11019     -5.3 1.430e+04 3.133e-08
 80.12987     -5.3 1.398e+04 3.010e-08
 80.14956     -5.1 1.374e+04 2.560e-08
 80.16924     -4.9 1.372e+04 2.398e-08
 80.18726     -4.7 1.361e+04 2.814e-08
 80.19710     -5.1 1.400e+04 3.493e-08
 80.20861     -4.6 1.416e+04 3.664e-08
 80.22830     -4.1 1.413e+04 3.936e-08
 80.24798     -3.3 1.400e+04 3.882e-08
 80.26767     -2.4 1.373e+04 3.672e-08
 80.28735     -1.2 1.334e+04 2.909e-08
 80.29960     -0.9 1.290e+04 2.254e-08
 80.30945     -2.6 1.253e+04 1.972e-08
 80.32672     -2.4 1.209e+04 1.600e-08
 80.34641     -2.1 1.162e+04 1.398e-08
 80.36609     -1.5 1.124e+04 1.208e-08
 80.38578     -0.9 1.086e+04 1.043e-08
 80.40546     -0.4 1.081e+04 8.032e-09
 80.42515     -0.6 1.056e+04 6.553e-09
 80.43662     -1.1 1.036e+04 5.936e-09
 80.44646     -1.7 1.165e+04 8.319e-09
 80.46452     -2.1 1.153e+04 8.759e-09
 80.48420     -2.4 1.154e+04 1.097e-08
 80.50039     -1.9 1.149e+04 1.375e-08
 80.51023     -2.0 1.154e+04 1.679e-08
 80.52357     -0.9 1.153e+04 1.815e-08
 80.54326      0.2 1.140e+04 1.789e-08
 80.56294      1.3 1.129e+04 1.664e-08
 80.58263      1.8 1.126e+04 1.560e-08
 80.60231      2.2 1.110e+04 1.446e-08
 80.62200      2.6 1.116e+04 1.479e-08
 80.64168      2.7 1.132e+04 1.601e-08
 80.66137      3.1 1.144e+04 1.778e-08
 80.67613      3.7 1.152e+04 1.921e-08
 80.68597      4.0 1.206e+04 2.437e-08
 80.70074      4.5 1.206e+04 2.452e-08
 80.71101      5.1 1.194e+04 2.321e-08
 80.72085      4.8 1.230e+04 2.635e-08
 80.74011      5.0 1.221e+04 2.469e-08
 80.75980      5.1 1.196e+04 2.118e-08
 80.77948      4.9 1.154e+04 1.672e-08
 80.79917      4.9 1.102e+04 1.370e-08
 80.81885      5.0 1.040e+04 1.061e-08
 80.83854      5.3 9.866e+03 8.004e-09
 80.85822      5.6 9.505e+03 6.074e-09
 80.88785      6.2 9.462e+03 4.221e-09
 80.91189      7.5 8.903e+03 2.875e-09
 80.92000      7.4 8.845e+03 2.830e-09
 80.92549      6.7 9.334e+03 3.057e-09
 80.93696      6.6 9.438e+03 3.020e-09
 80.96659      8.9 8.949e+03 2.518e-09
 81.00605     11.4 9.084e+03 2.729e-09
 81.04543     13.8 9.310e+03 3.352e-09
 81.08480     16.4 9.658e+03 4.872e-09
 81.11277     19.7 1.030e+04 7.632e-09
 81.13245     18.7 1.091e+04 9.553e-09
 81.15360     20.5 1.101e+04 9.921e-09
 81.16500     21.1 1.147e+04 1.199e-08
 81.17485     21.6 1.101e+04 9.124e-09
 81.19287     22.4 1.151e+04 1.135e-08
 81.21255     23.1 1.210e+04 1.529e-08
 81.23224     23.5 1.268e+04 2.131e-08
 81.25192     24.0 1.329e+04 2.988e-08
 81.27161     24.4 1.387e+04 3.872e-08
 81.29129     24.6 1.437e+04 4.705e-08
 81.31098     24.5 1.487e+04 5.062e-08
 81.32319     23.8 1.531e+04 5.264e-08
 81.33304     22.7 1.443e+04 3.383e-08
 81.35035     20.6 1.494e+04 3.881e-08
 81.37003     18.1 1.584e+04 6.405e-08
 81.38972     16.8 1.662e+04 1.122e-07
 81.40452     16.0 1.686e+04 1.393e-07
 81.41436     15.0 1.644e+04 1.099e-07
 81.42909     16.2 1.544e+04 6.426e-08
 81.44877     16.6 1.444e+04 2.674e-08
 81.46846     15.0 1.377e+04 1.091e-08
 81.48815     13.2 1.279e+04 6.779e-09
 81.50783     13.0 1.234e+04 6.263e-09
 81.52397     13.2 1.228e+04 6.520e-09
 81.53382     13.0 1.221e+04 4.833e-09
 81.54720     13.3 1.225e+04 5.611e-09
 81.56689     13.9 1.228e+04 6.818e-09
 81.58657     14.6 1.227e+04 7.852e-09
 81.60626     15.2 1.226e+04 8.285e-09
 81.62594     15.7 1.227e+04 8.514e-09
 81.64403     16.0 1.226e+04 9.027e-09
 81.65387     16.0 1.216e+04 8.905e-09
 81.66531     16.5 1.209e+04 9.344e-09
 81.68500     17.1 1.206e+04 9.627e-09
 81.70468     17.7 1.204e+04 9.636e-09
 81.72437     18.2 1.201e+04 9.579e-09
 81.73460     18.9 1.195e+04 9.492e-09
 81.74444     18.7 1.182e+04 7.123e-09
 81.76374     19.1 1.182e+04 7.967e-09
 81.78342     20.1 1.176e+04 8.525e-09
 81.80311     20.3 1.177e+04 8.776e-09
 81.83273     21.1 1.151e+04 8.066e-09
 81.87220     22.9 1.105e+04 6.273e-09
 81.91157     25.0 1.068e+04 4.234e-09
 81.93557     27.2 1.043e+04 2.706e-09
 81.95526     27.7 1.049e+04 2.642e-09
 81.99031     29.7 1.036e+04 1.843e-09
 82.02968     32.2 1.032e+04 1.785e-09
 82.06905     34.8 1.033e+04 1.891e-09
 82.10842     37.6 1.047e+04 2.224e-09
 82.13310     41.0 1.074e+04 2.961e-09
 82.15278     40.8 1.069e+04 3.289e-09
 82.17722     42.3 1.090e+04 3.885e-09
 82.19681     43.1 1.113e+04 4.644e-09
 82.21650     43.8 1.142e+04 5.781e-09
 82.23618     44.4 1.171e+04 7.564e-09
 82.25587     44.9 1.200e+04 1.019e-08
 82.27555     45.3 1.227e+04 1.353e-08
 82.29524     45.8 1.252e+04 1.704e-08
 82.31492     46.3 1.270e+04 1.917e-08
 82.33461     46.7 1.271e+04 1.863e-08
 82.34678     47.0 1.266e+04 1.620e-08
 82.35662     46.6 1.256e+04 1.108e-08
 82.37242     46.3 1.244e+04 7.855e-09
 82.38226     45.3 1.219e+04 5.272e-09
 82.39366     44.9 1.200e+04 4.381e-09
 82.41335     44.9 1.179e+04 4.295e-09
 82.43303     45.0 1.177e+04 4.389e-09
 82.45272     45.4 1.178e+04 4.709e-09
 82.47240     45.7 1.187e+04 5.292e-09
 82.49209     46.0 1.202e+04 6.225e-09
 82.51177     46.2 1.223e+04 7.562e-09
 82.53146     46.3 1.236e+04 9.529e-09
 82.54756     46.4 1.251e+04 1.228e-08
 82.55740     46.3 1.250e+04 8.684e-09
 82.57083     46.4 1.285e+04 8.762e-09
 82.59051     46.2 1.299e+04 8.670e-09
 82.61020     45.8 1.315e+04 8.270e-09
 82.62178     45.2 1.332e+04 7.643e-09
 82.63162     46.0 1.312e+04 6.675e-09
 82.64957     45.5 1.342e+04 6.328e-09
 82.66925     44.8 1.358e+04 6.455e-09
 82.68894     44.0 1.385e+04 7.057e-09
 82.70862     43.2 1.407e+04 8.251e-09
 82.72831     42.4 1.415e+04 9.825e-09
 82.74799     41.6 1.415e+04 1.135e-08
 82.75819     40.5 1.415e+04 1.281e-08
 82.76803     41.3 1.441e+04 1.572e-08
 82.78736     39.8 1.443e+04 1.755e-08
 82.80705     38.3 1.439e+04 1.917e-08
 82.82673     37.1 1.430e+04 1.991e-08
 82.84642     35.8 1.427e+04 1.865e-08
 82.86129     33.9 1.461e+04 1.751e-08
 82.87113     32.1 1.477e+04 1.468e-08
 82.88579     27.3 1.516e+04 1.767e-08
 82.90547     22.3 1.549e+04 3.112e-08
 82.92516     19.4 1.533e+04 5.288e-08
 82.94485     18.1 1.491e+04 5.125e-08
 82.95897     18.4 1.396e+04 3.495e-08
 82.96881     18.5 1.363e+04 2.692e-08
 82.98422     17.7 1.282e+04 1.145e-08
 83.00390     16.4 1.215e+04 4.472e-09
 83.02359     14.3 1.181e+04 2.322e-09
 83.04327     14.6 1.119e+04 1.658e-09
 83.06296     14.6 1.113e+04 1.643e-09
 83.09106     16.0 1.081e+04 1.243e-09
 83.11084     15.9 1.076e+04 1.001e-09
 83.13205     17.5 1.077e+04 1.003e-09
 83.15994     18.8 1.076e+04 1.206e-09
 83.17963     19.5 1.077e+04 1.067e-09
 83.21079     20.9 1.070e+04 1.513e-09
 83.25016     22.7 1.068e+04 2.042e-09
 83.28953     24.2 1.072e+04 2.130e-09
 83.32890     25.8 1.070e+04 1.940e-09
 83.36827     27.3 1.072e+04 1.487e-09
 83.40764     28.4 1.068e+04 1.166e-09
 83.44701     29.8 1.060e+04 1.165e-09
 83.48638     31.3 1.054e+04 1.296e-09
 83.52575     33.0 1.056e+04 1.641e-09
 83.56150     34.7 1.058e+04 2.103e-09
 83.58119     35.2 1.062e+04 2.243e-09
 83.58987     36.8 1.065e+04 2.464e-09
 83.60956     36.6 1.034e+04 1.999e-09
 83.64386     38.0 1.044e+04 2.109e-09
 83.68323     39.0 1.063e+04 2.373e-09
 83.72260     39.5 1.084e+04 2.867e-09
 83.76197     39.6 1.103e+04 3.386e-09
 83.80134     39.6 1.110e+04 3.392e-09
 83.84071     39.7 1.111e+04 3.065e-09
 83.88008     40.0 1.109e+04 2.387e-09
 83.91945     40.4 1.111e+04 1.705e-09
 83.95882     41.0 1.112e+04 1.383e-09
 83.98275     42.0 1.113e+04 1.360e-09
 84.00243     42.2 1.121e+04 1.721e-09
 84.03757     43.4 1.131e+04 1.678e-09
 84.06890     44.7 1.137e+04 1.690e-09
 84.08859     44.0 1.136e+04 1.728e-09
 84.11631     45.0 1.144e+04 2.132e-09
 84.15568     46.2 1.142e+04 2.811e-09
 84.18343     47.1 1.146e+04 2.974e-09
 84.19318     47.0 1.139e+04 3.323e-09
 84.20469     47.3 1.143e+04 3.866e-09
 84.22438     47.4 1.160e+04 4.867e-09
 84.24406     47.5 1.176e+04 5.801e-09
 84.26375     47.5 1.193e+04 7.085e-09
 84.28343     47.2 1.208e+04 8.788e-09
 84.30312     47.1 1.213e+04 1.056e-08
 84.31806     47.0 1.218e+04 1.164e-08
 84.32790     46.3 1.218e+04 1.178e-08
 84.34249     46.1 1.218e+04 1.163e-08
 84.36217     45.9 1.213e+04 1.096e-08
 84.38186     45.8 1.190e+04 9.829e-09
 84.39396     45.9 1.166e+04 8.302e-09
 84.40380     45.6 1.161e+04 7.227e-09
 84.42123     45.8 1.146e+04 6.686e-09
 84.44092     46.1 1.140e+04 6.313e-09
 84.46060     46.6 1.143e+04 6.247e-09
 84.48029     47.3 1.151e+04 6.378e-09
 84.49997     47.8 1.173e+04 6.888e-09
 84.51966     47.8 1.226e+04 9.047e-09
 84.53934     47.6 1.356e+04 1.755e-08
 84.55406     46.5 1.462e+04 2.962e-08
 84.56240     46.1 1.487e+04 3.518e-08
 84.56737     44.9 1.436e+04 3.123e-08
 84.57374     44.4 1.510e+04 4.946e-08
 84.58353     44.4 1.530e+04 6.624e-08
 84.59338     44.2 1.572e+04 8.088e-08
 84.59956     43.9 1.577e+04 8.057e-08
 84.60448     45.4 1.671e+04 1.077e-07
 84.61306     44.8 1.726e+04 1.016e-07
 84.62291     43.8 1.740e+04 9.245e-08
 84.63275     41.2 1.786e+04 7.454e-08
 84.64259     37.8 1.765e+04 5.908e-08
 84.65243     31.9 1.766e+04 6.266e-08
 84.66228     29.9 1.717e+04 6.345e-08
 84.67212     26.0 1.728e+04 7.832e-08
 84.68196     24.1 1.685e+04 8.294e-08
 84.69677     21.4 1.666e+04 9.374e-08
 84.71651     19.8 1.598e+04 7.461e-08
 84.73619     18.4 1.471e+04 4.025e-08
 84.75588     16.0 1.349e+04 1.863e-08
 84.77556     13.4 1.230e+04 9.770e-09
 84.79525     12.4 1.144e+04 6.821e-09
 84.80536     12.4 1.104e+04 5.589e-09
 84.80721     12.0 1.126e+04 6.227e-09
 84.81678     12.1 1.108e+04 5.416e-09
 84.83462     12.2 1.103e+04 4.838e-09
 84.85430     12.1 1.096e+04 4.613e-09
 84.87399     12.0 1.092e+04 4.621e-09
 84.89367     11.6 1.098e+04 4.781e-09
 84.91336     10.5 1.133e+04 5.540e-09
 84.93304      8.5 1.169e+04 8.119e-09
 84.95273      7.3 1.188e+04 1.264e-08
 84.97241      6.8 1.210e+04 1.490e-08
 84.99210      6.5 1.210e+04 1.388e-08
 85.00614      6.1 1.191e+04 1.069e-08
 85.01599      4.8 1.242e+04 1.101e-08
 85.03147      3.1 1.292e+04 8.123e-09
 85.04645      0.2 1.414e+04 9.416e-09
 85.05629      1.1 1.325e+04 6.205e-09
 85.07084     -3.2 1.407e+04 9.798e-09
 85.09052     -4.6 1.347e+04 2.268e-08
 85.11021     -3.4 1.344e+04 4.055e-08
 85.12990     -1.9 1.343e+04 4.218e-08
 85.14958     -0.2 1.298e+04 3.365e-08
 85.16927      1.2 1.233e+04 1.926e-08
 85.18895      0.0 1.204e+04 1.342e-08
 85.20702      1.5 1.089e+04 7.633e-09
 85.22680      1.6 1.103e+04 6.889e-09
 85.24810      3.5 1.065e+04 5.809e-09
 85.26769      3.6 1.097e+04 6.003e-09
 85.29732      6.6 1.041e+04 4.665e-09
 85.33678      9.7 1.040e+04 4.767e-09
 85.37615     12.9 1.051e+04 5.111e-09
 85.41552     15.8 1.068e+04 5.604e-09
 85.45490     18.2 1.099e+04 6.675e-09
 85.49427     20.4 1.169e+04 9.267e-09
 85.52370     21.5 1.219e+04 1.208e-08
 85.53532     21.5 1.270e+04 1.631e-08
 85.54516     21.1 1.291e+04 1.890e-08
 85.56297     20.8 1.340e+04 2.651e-08
 85.58265     20.5 1.374e+04 3.325e-08
 85.60234     19.0 1.443e+04 4.119e-08
 85.61833     14.7 1.566e+04 6.065e-08
 85.62817     15.4 1.722e+04 1.278e-07
 85.63674     11.9 1.808e+04 1.894e-07
 85.64653      9.7 1.807e+04 2.698e-07
 85.65498      8.4 1.796e+04 2.945e-07
 85.65990      7.9 1.735e+04 1.958e-07
 85.66622      7.0 1.702e+04 1.768e-07
 85.67606      6.8 1.631e+04 1.103e-07
 85.68590      5.5 1.611e+04 9.282e-08
 85.70072      3.9 1.562e+04 5.667e-08
 85.72045      0.9 1.389e+04 2.413e-08
 85.74013     -1.1 1.241e+04 1.373e-08
 85.76976      0.3 1.170e+04 7.691e-09
 85.80923      2.6 1.090e+04 3.828e-09
 85.84860      4.6 1.062e+04 2.014e-09
 85.88797      6.6 1.042e+04 1.444e-09
 85.92734      9.1 1.026e+04 1.484e-09
 85.96671     11.9 1.019e+04 1.666e-09
 86.00470     14.5 1.021e+04 1.848e-09
 86.02439     15.1 1.014e+04 1.190e-09
 86.02993     17.7 1.012e+04 1.264e-09
 86.04961     17.7 1.023e+04 1.912e-09
 86.08482     20.2 1.023e+04 1.856e-09
 86.12419     22.7 1.025e+04 1.685e-09
 86.16356     25.1 1.030e+04 1.473e-09
 86.20293     27.3 1.036e+04 1.272e-09
 86.24230     29.3 1.039e+04 1.141e-09
 86.28167     31.3 1.038e+04 1.127e-09
 86.32104     33.4 1.038e+04 1.167e-09
 86.36041     35.3 1.039e+04 1.303e-09
 86.39978     37.3 1.043e+04 1.544e-09
 86.43149     39.2 1.050e+04 1.798e-09
 86.45117     39.1 1.070e+04 2.403e-09
 86.47852     40.8 1.075e+04 2.324e-09
 86.50342     42.5 1.080e+04 2.113e-09
 86.52310     42.8 1.087e+04 2.611e-09
 86.55726     44.4 1.090e+04 2.135e-09
 86.59663     45.8 1.092e+04 1.708e-09
 86.63600     47.1 1.092e+04 1.604e-09
 86.67537     48.4 1.094e+04 1.629e-09
 86.71474     49.5 1.102e+04 1.777e-09
 86.75411     50.5 1.118e+04 2.276e-09
 86.79348     51.5 1.139e+04 3.344e-09
 86.83285     52.3 1.169e+04 4.966e-09
 86.87222     52.3 1.218e+04 7.415e-09
 86.91159     52.3 1.243e+04 9.049e-09
 86.95097     52.2 1.259e+04 1.020e-08
 86.98244     52.2 1.257e+04 9.660e-09
 87.00213     51.4 1.236e+04 6.467e-09
 87.02971     51.9 1.234e+04 5.351e-09
 87.06908     52.6 1.238e+04 5.410e-09
 87.10845     53.4 1.256e+04 6.376e-09
 87.14782     54.1 1.289e+04 8.903e-09
 87.18719     54.7 1.323e+04 1.087e-08
 87.22656     55.0 1.332e+04 1.070e-08
 87.25430     55.5 1.330e+04 9.268e-09
 87.27398     55.0 1.346e+04 1.030e-08
 87.30530     55.7 1.342e+04 8.689e-09
 87.34467     56.7 1.336e+04 6.786e-09
 87.38404     58.0 1.332e+04 5.492e-09
 87.42341     59.7 1.328e+04 5.307e-09
 87.46147     61.9 1.337e+04 5.694e-09
 87.48116     62.1 1.357e+04 6.563e-09
 87.49221     63.0 1.370e+04 7.166e-09
 87.51180     63.4 1.393e+04 8.690e-09
 87.53148     63.7 1.411e+04 1.193e-08
 87.55117     64.2 1.424e+04 1.748e-08
 87.57085     64.9 1.451e+04 2.618e-08
 87.59054     65.5 1.488e+04 3.920e-08
 87.61022     66.1 1.505e+04 4.812e-08
 87.62991     66.6 1.518e+04 4.993e-08
 87.64959     67.0 1.511e+04 4.385e-08
 87.66550     67.4 1.485e+04 3.102e-08
 87.67535     67.6 1.521e+04 4.429e-08
 87.68896     67.9 1.502e+04 3.235e-08
 87.70865     68.1 1.484e+04 2.096e-08
 87.72048     67.9 1.466e+04 1.326e-08
 87.73032     66.9 1.409e+04 5.487e-09
 87.74802     67.0 1.378e+04 5.001e-09
 87.76770     67.3 1.364e+04 5.350e-09
 87.78739     67.7 1.371e+04 5.866e-09
 87.80707     68.2 1.373e+04 6.606e-09
 87.82676     68.7 1.380e+04 7.582e-09
 87.84644     69.1 1.386e+04 8.769e-09
 87.86613     69.4 1.398e+04 1.006e-08
 87.87613     69.4 1.409e+04 1.166e-08
 87.88597     69.2 1.404e+04 1.051e-08
 87.90550     69.1 1.416e+04 1.317e-08
 87.92518     68.9 1.429e+04 1.697e-08
 87.94487     68.6 1.445e+04 2.135e-08
 87.95999     68.1 1.460e+04 2.356e-08
 87.96984     67.9 1.458e+04 2.356e-08
 87.98424     67.3 1.453e+04 2.280e-08
 88.00392     66.7 1.434e+04 1.932e-08
 88.02361     66.3 1.411e+04 1.450e-08
 88.04329     65.7 1.391e+04 1.069e-08
 88.06298     65.0 1.377e+04 8.520e-09
 88.07691     64.2 1.371e+04 7.436e-09
 88.08675     63.8 1.377e+04 8.295e-09
 88.10235     63.2 1.370e+04 7.538e-09
 88.12204     62.8 1.357e+04 6.318e-09
 88.14172     62.4 1.344e+04 4.927e-09
 88.16141     61.9 1.333e+04 3.808e-09
 88.18109     61.4 1.317e+04 3.227e-09
 88.19951     61.0 1.301e+04 3.170e-09
 88.20935     61.2 1.300e+04 3.109e-09
 88.22046     60.8 1.300e+04 3.132e-09
 88.24015     60.3 1.303e+04 3.331e-09
 88.25983     59.5 1.306e+04 4.016e-09
 88.27769     58.7 1.305e+04 5.280e-09
 88.28753     58.4 1.305e+04 5.018e-09
 88.29920     57.8 1.305e+04 5.877e-09
 88.31889     57.2 1.308e+04 5.957e-09
 88.33857     56.3 1.316e+04 5.743e-09
 88.35826     54.9 1.344e+04 5.699e-09
 88.37794     52.9 1.389e+04 6.682e-09
 88.39763     50.9 1.413e+04 9.894e-09
 88.41731     49.5 1.415e+04 1.445e-08
 88.43700     48.7 1.408e+04 1.779e-08
 88.44886     48.2 1.402e+04 1.777e-08
 88.45871     47.9 1.412e+04 1.804e-08
 88.47637     47.4 1.405e+04 1.376e-08
 88.48831     46.7 1.388e+04 1.061e-08
 88.49815     46.7 1.378e+04 1.186e-08
 88.51574     46.6 1.379e+04 1.150e-08
 88.53542     46.5 1.392e+04 1.221e-08
 88.55511     46.1 1.429e+04 1.588e-08
 88.57479     46.1 1.479e+04 2.507e-08
 88.59448     46.4 1.546e+04 4.158e-08
 88.61416     46.7 1.619e+04 6.426e-08
 88.63385     46.8 1.669e+04 8.423e-08
 88.65353     46.6 1.694e+04 8.940e-08
 88.67322     46.0 1.697e+04 8.326e-08
 88.68838     45.0 1.685e+04 7.087e-08
 88.69441     45.6 1.799e+04 1.655e-07
 88.69893     44.8 1.703e+04 9.457e-08
 88.71259     43.5 1.695e+04 9.131e-08
 88.73227     42.6 1.648e+04 7.774e-08
 88.75196     42.7 1.563e+04 5.343e-08
 88.77164     43.0 1.466e+04 3.168e-08
 88.79133     42.9 1.379e+04 1.830e-08
 88.81102     42.7 1.312e+04 1.060e-08
 88.83070     42.3 1.261e+04 7.018e-09
 88.85039     42.3 1.228e+04 5.259e-09
 88.87007     42.5 1.201e+04 4.312e-09
 88.88976     43.0 1.178e+04 3.741e-09
 88.89972     43.6 1.160e+04 3.350e-09
 88.90956     43.6 1.164e+04 3.344e-09
 88.92789     44.3 1.152e+04 3.053e-09
 88.93774     44.6 1.143e+04 2.907e-09
 88.94881     45.3 1.135e+04 2.733e-09
 88.96850     45.9 1.128e+04 2.634e-09
 88.98818     46.6 1.119e+04 2.583e-09
 89.00787     47.4 1.110e+04 2.550e-09
 89.02755     48.1 1.100e+04 2.505e-09
 89.04724     48.8 1.094e+04 2.469e-09
 89.06692     49.6 1.085e+04 2.436e-09
 89.08661     50.3 1.080e+04 2.445e-09
 89.11623     51.5 1.077e+04 2.409e-09
 89.14576     52.3 1.069e+04 2.644e-09
 89.16535     52.9 1.065e+04 2.846e-09
 89.17725     53.6 1.066e+04 3.235e-09
 89.18709     54.1 1.058e+04 2.738e-09
 89.20472     54.7 1.059e+04 2.972e-09
 89.22440     55.5 1.062e+04 3.296e-09
 89.24409     56.2 1.066e+04 3.625e-09
 89.26377     56.8 1.068e+04 3.897e-09
 89.28346     57.4 1.069e+04 4.101e-09
 89.30128     57.9 1.070e+04 4.224e-09
 89.31112     57.8 1.055e+04 3.704e-09
 89.32283     58.1 1.057e+04 3.691e-09
 89.34251     58.4 1.060e+04 3.758e-09
 89.36220     58.4 1.067e+04 4.053e-09
 89.38188     58.4 1.074e+04 4.794e-09
 89.40157     58.6 1.084e+04 5.947e-09
 89.41676     59.1 1.102e+04 7.405e-09
 89.42661     60.3 1.102e+04 7.349e-09
 89.44094     60.7 1.129e+04 8.955e-09
 89.46062     60.8 1.156e+04 1.036e-08
 89.48031     60.8 1.180e+04 1.129e-08
 89.49999     60.5 1.194e+04 1.151e-08
 89.51190     59.9 1.198e+04 1.126e-08
 89.52174     59.3 1.145e+04 8.196e-09
 89.53937     58.5 1.148e+04 8.033e-09
 89.55905     57.5 1.151e+04 8.110e-09
 89.57874     56.2 1.159e+04 8.469e-09
 89.59842     54.9 1.166e+04 9.075e-09
 89.61811     53.9 1.169e+04 1.003e-08
 89.63779     53.1 1.167e+04 1.063e-08
 89.65628     52.3 1.163e+04 1.095e-08
 89.66612     52.5 1.185e+04 1.242e-08
 89.67716     51.4 1.162e+04 1.202e-08
 89.69685     50.5 1.158e+04 1.192e-08
 89.71268     48.9 1.181e+04 1.280e-08
 89.72252     49.2 1.208e+04 1.521e-08
 89.73622     46.2 1.292e+04 2.160e-08
 89.75590     43.5 1.376e+04 3.452e-08
 89.77559     41.7 1.412e+04 4.672e-08
 89.79527     40.6 1.396e+04 4.694e-08
 89.81496     40.1 1.354e+04 3.888e-08
 89.83464     38.9 1.286e+04 2.541e-08
 89.85433     35.9 1.268e+04 1.832e-08
 89.87401     31.5 1.301e+04 1.988e-08
 89.89370     26.4 1.403e+04 3.341e-08
 89.90559     23.9 1.499e+04 5.891e-08
 89.91046     23.3 1.428e+04 4.941e-08
 89.91821     23.4 1.456e+04 5.713e-08
 89.92321     23.1 1.512e+04 7.292e-08
 89.93310     23.3 1.545e+04 8.519e-08
 89.95275     23.0 1.542e+04 8.336e-08
 89.97244     22.9 1.475e+04 6.077e-08
 89.99212     22.0 1.360e+04 3.511e-08
 90.01181     20.4 1.224e+04 2.013e-08
 90.03149     19.1 1.114e+04 1.335e-08
 90.05118     19.1 1.041e+04 1.003e-08
 90.07086     19.1 1.008e+04 8.788e-09
 90.10049     19.8 9.729e+03 7.761e-09
 90.12428     21.1 9.537e+03 7.186e-09
 90.14396     21.3 9.432e+03 6.641e-09
 90.17933     23.1 9.255e+03 6.250e-09
 90.21870     24.8 9.201e+03 6.072e-09
 90.25807     26.6 9.193e+03 5.943e-09
 90.29744     28.3 9.209e+03 5.855e-09
 90.33681     29.8 9.251e+03 5.865e-09
 90.37502     31.1 9.295e+03 5.875e-09
 90.39470     31.0 8.865e+03 4.511e-09
 90.41555     32.2 8.957e+03 4.614e-09
 90.45492     33.3 8.953e+03 4.364e-09
 90.49429     34.4 8.917e+03 3.683e-09
 90.52584     34.9 8.797e+03 2.761e-09
 90.54553     35.4 9.277e+03 4.270e-09
 90.57303     35.6 9.074e+03 3.324e-09
 90.61240     36.0 8.958e+03 2.831e-09
 90.65177     36.9 8.832e+03 2.446e-09
 90.69114     38.1 8.712e+03 1.999e-09
 90.73051     39.5 8.652e+03 1.546e-09
 90.76988     40.8 8.583e+03 1.260e-09
 90.80925     42.4 8.595e+03 1.226e-09
 90.84862     43.9 8.657e+03 1.312e-09
 90.87373     45.4 8.931e+03 1.659e-09
 90.89342     44.3 8.680e+03 1.409e-09
 90.92736     45.4 9.007e+03 1.819e-09
 90.96673     46.4 9.591e+03 3.053e-09
 90.99616     47.0 9.708e+03 3.000e-09
 91.01575     47.2 9.736e+03 2.979e-09
 91.03544     47.4 9.783e+03 2.910e-09
 91.05512     47.4 9.837e+03 2.897e-09
 91.07481     47.2 9.879e+03 2.986e-09
 91.09449     47.0 9.979e+03 3.252e-09
 91.11305     46.9 1.012e+04 3.624e-09
 91.12289     46.2 1.011e+04 3.783e-09
 91.13386     46.0 1.036e+04 4.464e-09
 91.14767     45.4 1.073e+04 5.480e-09
 91.15751     44.8 1.094e+04 5.908e-09
 91.17323     43.3 1.146e+04 8.610e-09
 91.19292     41.8 1.203e+04 1.411e-08
 91.21260     40.6 1.268e+04 2.294e-08
 91.23229     39.6 1.330e+04 3.260e-08
 91.25197     38.1 1.381e+04 3.363e-08
 91.27166     36.1 1.378e+04 3.023e-08
 91.29134     34.0 1.344e+04 2.046e-08
 91.31103     31.8 1.283e+04 1.097e-08
 91.33071     29.4 1.218e+04 5.388e-09
 91.34845     26.8 1.186e+04 2.953e-09
 91.35830     26.3 1.164e+04 3.097e-09
 91.36241     24.5 1.158e+04 2.304e-09
 91.37225     24.3 1.156e+04 1.976e-09
 91.39971     23.1 1.113e+04 1.953e-09
 91.43918     22.2 1.085e+04 1.992e-09
 91.47855     21.6 1.073e+04 1.983e-09
 91.51792     21.7 1.052e+04 1.789e-09
 91.55729     21.8 1.044e+04 1.323e-09
 91.59666     21.8 1.046e+04 9.704e-10
 91.63603     22.2 1.041e+04 9.315e-10
 91.67540     22.9 1.039e+04 9.853e-10
 91.71477     23.8 1.042e+04 1.113e-09
 91.75021     24.7 1.052e+04 1.244e-09
 91.76989     24.8 1.046e+04 1.310e-09
 91.79351     25.6 1.054e+04 1.309e-09
 91.83179     26.5 1.056e+04 1.241e-09
 91.85148     27.1 1.062e+04 1.126e-09
 91.87225     28.1 1.066e+04 9.240e-10
 91.91162     29.0 1.073e+04 7.246e-10
 91.95099     29.9 1.075e+04 6.509e-10
 91.99036     31.1 1.076e+04 6.608e-10
 92.02973     32.2 1.082e+04 7.294e-10
 92.06910     33.0 1.095e+04 1.015e-09
 92.10847     33.7 1.109e+04 1.730e-09
 92.14784     34.4 1.133e+04 3.101e-09
 92.17136     34.9 1.149e+04 3.663e-09
 92.18110     34.9 1.145e+04 4.072e-09
 92.19686     34.9 1.165e+04 4.628e-09
 92.21654     34.8 1.190e+04 4.990e-09
 92.23623     34.5 1.209e+04 5.075e-09
 92.25591     34.1 1.217e+04 5.122e-09
 92.27560     33.6 1.217e+04 5.236e-09
 92.29528     33.1 1.213e+04 5.541e-09
 92.31497     32.7 1.213e+04 6.147e-09
 92.33031     32.4 1.218e+04 7.107e-09
 92.34015     33.2 1.204e+04 5.889e-09
 92.35434     32.8 1.211e+04 7.017e-09
 92.37204     32.4 1.223e+04 8.641e-09
 92.38188     31.8 1.222e+04 9.678e-09
 92.39371     31.4 1.229e+04 1.028e-08
 92.41339     31.1 1.215e+04 8.976e-09
 92.43308     30.9 1.194e+04 8.059e-09
 92.45276     30.5 1.173e+04 6.111e-09
 92.47245     30.0 1.152e+04 4.956e-09
 92.50208     30.0 1.149e+04 3.897e-09
 92.54154     29.2 1.108e+04 2.364e-09
 92.57302     28.8 1.083e+04 1.697e-09
 92.59270     29.0 1.075e+04 1.375e-09
 92.62028     29.3 1.065e+04 1.344e-09
 92.65965     29.7 1.070e+04 1.427e-09
 92.69902     30.2 1.078e+04 1.824e-09
 92.73839     30.8 1.086e+04 2.681e-09
 92.77776     31.5 1.092e+04 3.215e-09
 92.80953     32.0 1.091e+04 3.040e-09
 92.82922     32.6 1.078e+04 1.979e-09
 92.85651     33.1 1.082e+04 1.858e-09
 92.89588     33.2 1.089e+04 1.964e-09
 92.93525     33.0 1.107e+04 2.596e-09
 92.97458     33.0 1.127e+04 3.937e-09
 93.01395     33.2 1.123e+04 3.707e-09
 93.05336     33.5 1.124e+04 3.582e-09
 93.09273     34.2 1.115e+04 2.898e-09
 93.13210     35.3 1.104e+04 1.963e-09
 93.17147     36.4 1.100e+04 1.342e-09
 93.21084     37.8 1.100e+04 1.142e-09
 93.25021     39.6 1.102e+04 1.147e-09
 93.28856     41.3 1.110e+04 1.186e-09
 93.30825     41.7 1.118e+04 9.422e-10
 93.32895     43.5 1.126e+04 1.075e-09
 93.36832     45.1 1.132e+04 1.243e-09
 93.39582     46.5 1.139e+04 1.412e-09
 93.41551     46.6 1.138e+04 1.407e-09
 93.44706     47.8 1.150e+04 1.560e-09
 93.48643     48.8 1.156e+04 1.790e-09
 93.52580     49.8 1.157e+04 2.268e-09
 93.56517     51.2 1.171e+04 3.246e-09
 93.59460     51.8 1.194e+04 3.961e-09
 93.60625     52.1 1.213e+04 4.713e-09
 93.61610     52.2 1.200e+04 4.198e-09
 93.63387     52.5 1.214e+04 4.889e-09
 93.65356     52.9 1.227e+04 5.742e-09
 93.67324     53.3 1.237e+04 6.693e-09
 93.69293     53.7 1.248e+04 7.642e-09
 93.71261     54.1 1.258e+04 8.486e-09
 93.73230     54.6 1.267e+04 9.194e-09
 93.75198     55.0 1.278e+04 9.826e-09
 93.77167     55.3 1.297e+04 1.080e-08
 93.78708     55.2 1.329e+04 1.325e-08
 93.79692     54.5 1.307e+04 9.551e-09
 93.80703     54.1 1.346e+04 1.408e-08
 93.81688     54.5 1.315e+04 1.187e-08
 93.83072     54.2 1.358e+04 1.786e-08
 93.85041     53.7 1.411e+04 2.611e-08
 93.87009     53.1 1.456e+04 3.287e-08
 93.88978     52.5 1.456e+04 3.225e-08
 93.90946     51.8 1.453e+04 2.865e-08
 93.92915     50.8 1.439e+04 2.161e-08
 93.94884     49.6 1.419e+04 1.658e-08
 93.96852     48.7 1.390e+04 1.544e-08
 93.98821     48.3 1.385e+04 1.624e-08
 94.00781     48.2 1.385e+04 1.785e-08
 94.02652     48.7 1.377e+04 1.790e-08
 94.03644     49.3 1.368e+04 1.590e-08
 94.04726     48.9 1.385e+04 1.816e-08
 94.06695     48.4 1.390e+04 1.844e-08
 94.08663     47.6 1.387e+04 1.797e-08
 94.10632     46.5 1.373e+04 1.741e-08
 94.12600     45.1 1.366e+04 1.749e-08
 94.14569     43.5 1.356e+04 1.811e-08
 94.16537     41.7 1.350e+04 1.814e-08
 94.18506     40.4 1.321e+04 1.718e-08
 94.20474     39.3 1.299e+04 1.423e-08
 94.21853     36.9 1.246e+04 7.072e-09
 94.23832     37.7 1.258e+04 9.570e-09
 94.26631     35.2 1.190e+04 4.360e-09
 94.28599     34.5 1.207e+04 5.414e-09
 94.31321     33.4 1.149e+04 2.790e-09
 94.35258     33.5 1.124e+04 1.875e-09
 94.39195     34.2 1.100e+04 1.608e-09
 94.43132     35.8 1.090e+04 1.546e-09
 94.47069     37.4 1.091e+04 1.503e-09
 94.51006     38.9 1.094e+04 1.512e-09
 94.54943     40.2 1.099e+04 1.605e-09
 94.58880     41.3 1.113e+04 1.694e-09
 94.62019     42.0 1.119e+04 1.670e-09
 94.63988     42.7 1.126e+04 1.987e-09
 94.66754     43.2 1.128e+04 1.839e-09
 94.70691     43.4 1.124e+04 1.537e-09
 94.74533     43.7 1.117e+04 1.440e-09
 94.76502     43.9 1.122e+04 1.573e-09
 94.78565     43.9 1.123e+04 1.655e-09
 94.82502     43.8 1.125e+04 2.120e-09
 94.86439     43.7 1.134e+04 3.271e-09
 94.90376     43.5 1.153e+04 4.247e-09
 94.94313     43.2 1.153e+04 4.195e-09
 94.98250     43.2 1.140e+04 3.522e-09
 95.02176     43.4 1.129e+04 2.500e-09
 95.06113     43.8 1.114e+04 1.453e-09
 95.10061     44.6 1.114e+04 1.434e-09
 95.13998     45.6 1.121e+04 1.567e-09
 95.17935     46.7 1.128e+04 2.031e-09
 95.21872     47.8 1.143e+04 2.588e-09
 95.24405     48.6 1.153e+04 2.861e-09
 95.26373     48.6 1.158e+04 2.789e-09
 95.29746     49.3 1.157e+04 2.579e-09
 95.33683     50.1 1.148e+04 2.076e-09
 95.37620     51.0 1.144e+04 1.582e-09
 95.41557     51.9 1.146e+04 1.236e-09
 95.44300     52.7 1.153e+04 1.015e-09
 95.46269     53.6 1.150e+04 9.400e-10
 95.49431     54.6 1.153e+04 8.196e-10
 95.53368     55.9 1.153e+04 8.282e-10
 95.57305     57.0 1.159e+04 9.099e-10
 95.61242     57.9 1.168e+04 1.298e-09
 95.65179     58.7 1.176e+04 2.112e-09
 95.69116     59.4 1.191e+04 3.339e-09
 95.72308     60.2 1.208e+04 4.703e-09
 95.74276     60.2 1.192e+04 3.660e-09
 95.76991     61.1 1.206e+04 4.235e-09
 95.80928     62.0 1.229e+04 4.702e-09
 95.84456     62.8 1.251e+04 5.122e-09
 95.86425     63.1 1.240e+04 4.849e-09
 95.88802     63.9 1.253e+04 4.240e-09
 95.92739     64.6 1.254e+04 3.618e-09
 95.96676     65.4 1.256e+04 3.227e-09
 96.00613     66.4 1.262e+04 2.994e-09
 96.04550     67.5 1.271e+04 2.851e-09
 96.08487     68.6 1.285e+04 2.538e-09
 96.12424     69.9 1.294e+04 2.049e-09
 96.16361     71.4 1.307e+04 1.491e-09
 96.20211     72.8 1.328e+04 9.829e-10
 96.22179     73.4 1.337e+04 9.255e-10
 96.24235     74.7 1.358e+04 6.749e-10
 96.26581     76.1 1.370e+04 5.803e-10
 96.28549     76.8 1.369e+04 5.555e-10
 96.32109     78.4 1.376e+04 5.373e-10
 96.36046     80.2 1.381e+04 5.435e-10
 96.39983     81.9 1.388e+04 5.767e-10
 96.43920     83.6 1.390e+04 6.306e-10
 96.47857     85.0 1.390e+04 6.860e-10
 96.51794     86.2 1.386e+04 7.406e-10
 96.55731     87.3 1.370e+04 8.582e-10
 96.59668     88.5 1.354e+04 1.216e-09
 96.63605     89.5 1.365e+04 1.858e-09
 96.66548     89.7 1.382e+04 2.398e-09
 96.67702     89.9 1.395e+04 3.162e-09
 96.68686     90.4 1.333e+04 3.612e-09
 96.70063     90.7 1.336e+04 4.818e-09
 96.71047     90.7 1.332e+04 4.590e-09
 96.72444     91.1 1.348e+04 5.201e-09
 96.74412     91.3 1.369e+04 5.453e-09
 96.76381     91.5 1.374e+04 5.368e-09
 96.78349     91.6 1.380e+04 5.070e-09
 96.80318     91.8 1.381e+04 4.595e-09
 96.82286     92.0 1.381e+04 3.984e-09
 96.84255     92.3 1.379e+04 3.480e-09
 96.86223     92.7 1.378e+04 3.123e-09
 96.87780     93.1 1.375e+04 3.037e-09
 96.88764     93.2 1.427e+04 2.729e-09
 96.90161     93.7 1.425e+04 2.778e-09
 96.92129     94.2 1.421e+04 2.946e-09
 96.94014     94.7 1.415e+04 3.269e-09
 96.94998     94.3 1.413e+04 2.477e-09
 96.96066     94.7 1.410e+04 2.631e-09
 96.98035     95.3 1.408e+04 2.768e-09
 97.00003     95.7 1.407e+04 2.842e-09
 97.01972     96.1 1.407e+04 2.870e-09
 97.03940     96.5 1.413e+04 2.922e-09
 97.05909     96.6 1.422e+04 3.099e-09
 97.07858     96.6 1.437e+04 3.390e-09
 97.08842     97.0 1.459e+04 3.487e-09
 97.09846     96.7 1.463e+04 4.026e-09
 97.11814     96.4 1.467e+04 4.908e-09
 97.13783     95.9 1.473e+04 6.214e-09
 97.15751     95.4 1.478e+04 7.653e-09
 97.17720     94.7 1.493e+04 8.271e-09
 97.18950     93.7 1.498e+04 8.164e-09
 97.19934     94.1 1.503e+04 8.865e-09
 97.22651     92.6 1.502e+04 9.759e-09
 97.25604     90.6 1.504e+04 9.599e-09
 97.27562     88.9 1.497e+04 1.004e-08
 97.28920     87.3 1.482e+04 1.216e-08
 97.29904     88.7 1.476e+04 1.029e-08
 97.31499     87.4 1.466e+04 1.141e-08
 97.34462     84.3 1.448e+04 1.182e-08
 97.38409     82.0 1.398e+04 8.774e-09
 97.42346     81.7 1.362e+04 4.632e-09
 97.46283     81.4 1.366e+04 2.017e-09
 97.49018     81.2 1.371e+04 1.174e-09
 97.50986     82.8 1.356e+04 1.333e-09
 97.54157     83.1 1.358e+04 1.155e-09
 97.58094     84.0 1.358e+04 1.177e-09
 97.62031     84.9 1.368e+04 1.283e-09
 97.65888     85.7 1.381e+04 1.521e-09
 97.67856     85.9 1.364e+04 1.844e-09
 97.69905     86.5 1.373e+04 2.095e-09
 97.73842     87.0 1.378e+04 2.321e-09
 97.76785     87.5 1.382e+04 2.388e-09
 97.78744     88.0 1.380e+04 2.330e-09
 97.80712     88.4 1.378e+04 2.146e-09
 97.82681     88.6 1.382e+04 2.030e-09
 97.84649     88.6 1.386e+04 2.052e-09
 97.86618     88.2 1.404e+04 2.245e-09
 97.88586     87.1 1.412e+04 3.432e-09
 97.90139     86.2 1.396e+04 7.630e-09
 97.91123     87.6 1.413e+04 5.833e-09
 97.91788     86.8 1.421e+04 1.451e-08
 97.92773     86.7 1.425e+04 1.756e-08
 97.94492     86.1 1.459e+04 2.671e-08
 97.96460     84.9 1.465e+04 2.626e-08
 97.98429     83.8 1.447e+04 2.051e-08
 98.00397     82.7 1.423e+04 1.114e-08
 98.02366     80.9 1.409e+04 5.183e-09
 98.04334     79.0 1.336e+04 3.684e-09
 98.06303     78.8 1.321e+04 3.663e-09
 98.08271     79.0 1.321e+04 3.703e-09
 98.10217     79.2 1.321e+04 3.955e-09
 98.11201     79.6 1.333e+04 3.430e-09
 98.12208     79.9 1.335e+04 3.940e-09
 98.14177     80.2 1.341e+04 5.019e-09
 98.15740     80.4 1.353e+04 6.771e-09
 98.16724     81.2 1.342e+04 5.078e-09
 98.18114     81.4 1.352e+04 7.035e-09
 98.20082     81.6 1.366e+04 9.410e-09
 98.22051     81.7 1.383e+04 1.189e-08
 98.24019     81.6 1.403e+04 1.443e-08
 98.25988     81.0 1.431e+04 1.829e-08
 98.27956     80.0 1.475e+04 2.660e-08
 98.29925     78.7 1.535e+04 4.518e-08
 98.31279     77.4 1.607e+04 7.356e-08
 98.32263     78.0 1.585e+04 5.617e-08
 98.33862     76.6 1.647e+04 9.240e-08
 98.35831     74.9 1.682e+04 1.074e-07
 98.37799     73.1 1.676e+04 1.054e-07
 98.39691     71.5 1.642e+04 9.013e-08
 98.40676     72.1 1.631e+04 8.276e-08
 98.41736     70.6 1.591e+04 6.774e-08
 98.43705     69.4 1.541e+04 5.217e-08
 98.45673     68.4 1.484e+04 3.905e-08
 98.47642     67.9 1.416e+04 2.804e-08
 98.49610     67.7 1.350e+04 1.969e-08
 98.52573     67.5 1.271e+04 1.004e-08
 98.56519     67.8 1.193e+04 4.258e-09
 98.60456     68.7 1.164e+04 1.864e-09
 98.63662     69.6 1.167e+04 9.176e-10
 98.65631     69.6 1.146e+04 1.649e-09
 98.68331     70.3 1.141e+04 9.998e-10
 98.71455     71.2 1.122e+04 7.933e-10
 98.73423     71.4 1.129e+04 8.194e-10
 98.76205     72.5 1.111e+04 7.626e-10
 98.80142     73.6 1.105e+04 7.819e-10
 98.84079     74.6 1.097e+04 8.936e-10
 98.88016     75.5 1.090e+04 1.093e-09
 98.91953     76.1 1.081e+04 1.222e-09
 98.95890     76.6 1.077e+04 1.217e-09
 98.99827     77.0 1.063e+04 1.136e-09
 99.03764     77.4 1.037e+04 1.016e-09
 99.07701     78.0 1.017e+04 1.007e-09
 99.11565     78.6 1.013e+04 1.077e-09
 99.13507     78.1 1.017e+04 1.025e-09
 99.13579     78.4 1.039e+04 1.373e-09
 99.15575     79.2 1.046e+04 1.991e-09
 99.18518     79.4 1.045e+04 2.293e-09
 99.20477     79.2 1.054e+04 2.578e-09
 99.22445     78.6 1.085e+04 3.364e-09
 99.24414     77.5 1.125e+04 4.759e-09
 99.26382     76.2 1.169e+04 7.204e-09
 99.28351     74.8 1.205e+04 1.088e-08
 99.30319     73.4 1.224e+04 1.450e-08
 99.32288     71.8 1.222e+04 1.520e-08
 99.33638     70.0 1.208e+04 1.442e-08
 99.34622     70.0 1.225e+04 1.516e-08
 99.36225     68.5 1.169e+04 1.233e-08
 99.37466     67.3 1.110e+04 9.250e-09
 99.38450     66.3 1.091e+04 7.798e-09
 99.40162     65.6 1.056e+04 6.351e-09
 99.42130     64.6 1.013e+04 4.858e-09
 99.44099     64.0 9.881e+03 4.197e-09
 99.46067     63.4 9.608e+03 4.085e-09
 99.48036     63.0 9.506e+03 4.051e-09
 99.50998     63.0 9.500e+03 4.176e-09
 99.53735     62.5 9.455e+03 4.320e-09
 99.55704     62.6 9.716e+03 4.950e-09
 99.58882     62.1 9.436e+03 4.335e-09
 99.61437     62.0 9.102e+03 3.440e-09
 99.63405     60.8 9.203e+03 3.380e-09
 99.66756     60.9 9.002e+03 2.799e-09
 99.69699     61.7 8.906e+03 2.716e-09
 99.71658     62.0 8.961e+03 2.765e-09
 99.73626     62.3 9.067e+03 2.960e-09
 99.74778     62.5 9.209e+03 3.253e-09
 99.75763     62.6 9.242e+03 3.527e-09
 99.77563     62.0 9.873e+03 4.706e-09
 99.79532     57.8 1.302e+04 1.191e-08
 99.81500     50.4 1.708e+04 5.588e-08
 99.82972     44.3 1.814e+04 2.810e-07
 99.83951     44.4 1.801e+04 5.962e-07
 99.84808     44.5 1.811e+04 6.707e-07
 99.85300     44.3 1.796e+04 8.147e-07
 99.85851     44.5 1.796e+04 6.892e-07
 99.86343     43.9 1.785e+04 4.484e-07
 99.86904     42.3 1.862e+04 1.889e-07
 99.87888     37.1 1.850e+04 7.009e-08
 99.89370     26.7 1.509e+04 2.408e-08
 99.91343     18.0 1.150e+04 1.732e-08
 99.93312     10.2 1.349e+04 2.578e-08
 99.94783      4.0 1.599e+04 5.381e-08
 99.95339      1.5 1.636e+04 6.968e-08
 99.95831      2.5 1.602e+04 5.469e-08
 99.96747     -0.1 1.530e+04 8.371e-08
 99.97731     -0.3 1.508e+04 9.431e-08
 99.98319     -0.9 1.528e+04 7.975e-08
 99.98811     -1.0 1.490e+04 7.070e-08
 99.99699     -1.7 1.461e+04 6.456e-08
