# Columns:
#   distance along LOS (in CHIMPs)
#   peculiar velocity  (in km/s)
#   temperature (K)
#   HI number density
# pos=(79.1276,71.3591,104.159), angles=(1.62567,0.00259151)
  0.00473    -15.5 1.665e+04 1.095e-05
  0.01436    -22.8 2.082e+04 1.098e-06
  0.02414    -36.2 1.891e+04 1.397e-07
  0.03392    -40.6 1.616e+04 7.262e-08
  0.04864    -42.7 1.531e+04 5.514e-08
  0.06825    -46.0 1.449e+04 4.439e-08
  0.08686    -47.0 1.434e+04 4.406e-08
  0.09664    -46.4 1.439e+04 4.467e-08
  0.10737    -47.3 1.402e+04 3.738e-08
  0.12693    -48.2 1.338e+04 2.570e-08
  0.14649    -49.4 1.264e+04 1.758e-08
  0.16605    -50.3 1.206e+04 1.382e-08
  0.18561    -50.6 1.169e+04 1.208e-08
  0.20517    -50.6 1.156e+04 1.137e-08
  0.22473    -50.3 1.151e+04 1.076e-08
  0.24429    -50.1 1.149e+04 1.033e-08
  0.26385    -49.6 1.137e+04 9.361e-09
  0.28342    -49.1 1.119e+04 8.066e-09
  0.30298    -48.6 1.093e+04 6.567e-09
  0.32254    -47.8 1.078e+04 5.205e-09
  0.34210    -47.2 1.068e+04 4.018e-09
  0.36166    -46.7 1.065e+04 3.351e-09
  0.38122    -46.1 1.059e+04 2.853e-09
  0.40078    -45.7 1.055e+04 2.662e-09
  0.42034    -45.2 1.047e+04 2.467e-09
  0.43990    -44.8 1.038e+04 2.645e-09
  0.45085    -44.0 1.030e+04 2.963e-09
  0.47051    -43.4 1.046e+04 3.013e-09
  0.50856    -41.6 1.048e+04 3.544e-09
  0.54768    -40.1 1.067e+04 4.075e-09
  0.57692    -38.7 1.079e+04 4.355e-09
  0.59639    -38.3 1.077e+04 4.349e-09
  0.62583    -37.2 1.098e+04 4.530e-09
  0.66505    -35.9 1.129e+04 4.951e-09
  0.70417    -35.1 1.163e+04 7.135e-09
  0.73341    -34.4 1.210e+04 1.042e-08
  0.75287    -35.1 1.239e+04 1.419e-08
  0.77243    -35.6 1.333e+04 2.730e-08
  0.79200    -36.4 1.434e+04 4.549e-08
  0.80487    -37.1 1.529e+04 6.621e-08
  0.81465    -36.6 1.446e+04 4.198e-08
  0.83112    -38.0 1.493e+04 5.137e-08
  0.85068    -38.8 1.505e+04 5.721e-08
  0.87024    -39.1 1.483e+04 5.447e-08
  0.88980    -39.4 1.429e+04 3.948e-08
  0.90936    -39.6 1.361e+04 2.723e-08
  0.92892    -39.8 1.309e+04 1.933e-08
  0.94848    -40.0 1.273e+04 1.505e-08
  0.95904    -40.2 1.248e+04 1.339e-08
  0.96882    -40.1 1.290e+04 1.644e-08
  0.98760    -40.1 1.283e+04 1.627e-08
  1.00716    -40.0 1.279e+04 1.729e-08
  1.02672    -39.8 1.286e+04 1.857e-08
  1.04628    -39.6 1.287e+04 1.894e-08
  1.06585    -39.5 1.276e+04 1.830e-08
  1.08541    -39.3 1.259e+04 1.698e-08
  1.10497    -39.2 1.237e+04 1.491e-08
  1.13441    -39.1 1.197e+04 1.166e-08
  1.15918    -38.6 1.163e+04 8.071e-09
  1.17874    -37.2 1.226e+04 1.382e-08
  1.21275    -36.7 1.194e+04 9.732e-09
  1.25187    -36.2 1.154e+04 5.416e-09
  1.29099    -35.6 1.119e+04 2.790e-09
  1.33011    -35.0 1.101e+04 1.843e-09
  1.36923    -34.4 1.098e+04 1.654e-09
  1.40835    -33.8 1.093e+04 1.811e-09
  1.44748    -33.4 1.091e+04 2.221e-09
  1.48660    -33.2 1.100e+04 2.511e-09
  1.52572    -33.1 1.102e+04 2.802e-09
  1.56484    -32.7 1.087e+04 3.119e-09
  1.60396    -31.9 1.072e+04 3.600e-09
  1.64308    -30.8 1.073e+04 4.541e-09
  1.68220    -29.1 1.086e+04 5.733e-09
  1.72133    -27.4 1.095e+04 6.217e-09
  1.76045    -25.9 1.088e+04 5.835e-09
  1.79957    -24.3 1.081e+04 4.903e-09
  1.83869    -22.7 1.081e+04 4.144e-09
  1.86741    -21.3 1.081e+04 3.634e-09
  1.88697    -21.2 1.098e+04 5.877e-09
  1.91693    -19.8 1.107e+04 5.820e-09
  1.95606    -18.5 1.106e+04 5.182e-09
  1.99518    -17.1 1.091e+04 4.284e-09
  2.03430    -15.6 1.085e+04 3.212e-09
  2.07342    -14.1 1.092e+04 2.424e-09
  2.11254    -12.7 1.105e+04 2.208e-09
  2.15166    -11.3 1.104e+04 2.844e-09
  2.19078     -9.4 1.116e+04 4.303e-09
  2.22991     -7.2 1.132e+04 6.148e-09
  2.26903     -5.2 1.139e+04 6.986e-09
  2.30815     -3.0 1.139e+04 5.647e-09
  2.33739     -1.1 1.170e+04 2.544e-09
  2.35686     -1.2 1.156e+04 2.075e-09
  2.37642     -0.7 1.169e+04 1.377e-09
  2.39598     -0.8 1.162e+04 1.308e-09
  2.42542      0.6 1.143e+04 1.262e-09
  2.46463      2.2 1.145e+04 1.083e-09
  2.50376      3.4 1.154e+04 1.229e-09
  2.53300      4.0 1.174e+04 1.762e-09
  2.55246      4.1 1.192e+04 2.103e-09
  2.57555      5.1 1.197e+04 5.181e-09
  2.59521      6.2 1.187e+04 4.077e-09
  2.62112      7.9 1.224e+04 7.553e-09
  2.66024      9.3 1.269e+04 8.265e-09
  2.68949     10.1 1.293e+04 7.810e-09
  2.70895     10.6 1.306e+04 8.128e-09
  2.72851     11.5 1.320e+04 7.377e-09
  2.74807     12.1 1.345e+04 7.287e-09
  2.76763     12.7 1.384e+04 7.918e-09
  2.78719     12.6 1.440e+04 1.068e-08
  2.80675     11.7 1.508e+04 2.002e-08
  2.82631     10.7 1.607e+04 5.411e-08
  2.84587     10.2 1.698e+04 1.270e-07
  2.86543      9.4 1.739e+04 1.665e-07
  2.88500      8.1 1.726e+04 1.418e-07
  2.90456      6.6 1.693e+04 1.008e-07
  2.92412      5.0 1.638e+04 6.538e-08
  2.93935      3.9 1.563e+04 3.997e-08
  2.94913      3.9 1.533e+04 4.089e-08
  2.96324      3.8 1.487e+04 2.678e-08
  2.98280      3.6 1.461e+04 1.817e-08
  3.00236      2.5 1.458e+04 1.335e-08
  3.02192      1.9 1.420e+04 1.268e-08
  3.04148      1.8 1.391e+04 1.288e-08
  3.06104      2.2 1.367e+04 1.207e-08
  3.08060      2.3 1.352e+04 1.073e-08
  3.10016      2.4 1.331e+04 1.026e-08
  3.11972      2.8 1.313e+04 9.690e-09
  3.13929      3.5 1.294e+04 9.584e-09
  3.15885      4.5 1.276e+04 9.361e-09
  3.17841      5.2 1.267e+04 9.256e-09
  3.19797      6.9 1.245e+04 8.215e-09
  3.21753      7.1 1.250e+04 7.976e-09
  3.23709      9.1 1.217e+04 6.655e-09
  3.25665      9.4 1.222e+04 6.638e-09
  3.28378     11.9 1.220e+04 7.209e-09
  3.30344     11.7 1.215e+04 8.540e-09
  3.31543     12.6 1.216e+04 1.026e-08
  3.33489     13.2 1.224e+04 1.315e-08
  3.35445     13.9 1.237e+04 1.800e-08
  3.37401     14.7 1.253e+04 2.328e-08
  3.39358     15.8 1.266e+04 2.766e-08
  3.41314     17.1 1.247e+04 2.634e-08
  3.43270     18.6 1.208e+04 2.164e-08
  3.45226     19.6 1.174e+04 1.585e-08
  3.47182     20.2 1.144e+04 1.144e-08
  3.49138     20.7 1.109e+04 8.612e-09
  3.51094     21.3 1.075e+04 7.062e-09
  3.53050     22.1 1.049e+04 6.530e-09
  3.55006     22.9 1.030e+04 6.351e-09
  3.56962     23.8 1.016e+04 6.384e-09
  3.58918     24.8 1.015e+04 6.508e-09
  3.60874     25.6 1.014e+04 6.865e-09
  3.62830     26.5 1.017e+04 7.294e-09
  3.64758     27.3 1.025e+04 7.810e-09
  3.65736     27.4 9.779e+03 5.451e-09
  3.66743     28.1 9.819e+03 5.800e-09
  3.68699     28.8 9.867e+03 6.217e-09
  3.70655     29.5 9.926e+03 6.710e-09
  3.72611     30.3 9.972e+03 7.163e-09
  3.74567     31.0 1.004e+04 7.782e-09
  3.76523     31.8 1.007e+04 8.387e-09
  3.78479     32.9 1.007e+04 8.855e-09
  3.80435     33.8 1.014e+04 9.295e-09
  3.82391     34.5 1.022e+04 9.803e-09
  3.84347     35.3 1.016e+04 9.999e-09
  3.86303     36.4 1.005e+04 9.925e-09
  3.88259     37.4 9.974e+03 9.791e-09
  3.90215     38.3 9.926e+03 9.626e-09
  3.92172     39.1 9.864e+03 9.383e-09
  3.94128     39.9 9.755e+03 9.025e-09
  3.96084     40.7 9.588e+03 8.502e-09
  3.98040     41.5 9.382e+03 7.809e-09
  3.99996     42.3 9.319e+03 7.351e-09
  4.01148     43.0 9.396e+03 7.464e-09
  4.02126     44.0 8.880e+03 5.820e-09
  4.03908     44.5 9.082e+03 6.133e-09
  4.05864     44.8 9.429e+03 7.294e-09
  4.07820     45.3 9.921e+03 9.800e-09
  4.09776     45.8 1.053e+04 1.380e-08
  4.11732     45.8 1.152e+04 2.163e-08
  4.13688     45.7 1.318e+04 4.084e-08
  4.15644     45.5 1.517e+04 8.168e-08
  4.17107     44.4 1.639e+04 1.284e-07
  4.18080     41.4 1.784e+04 2.301e-07
  4.18844     35.0 1.838e+04 1.255e-06
  4.19333     35.1 1.806e+04 2.040e-06
  4.20036     29.0 1.675e+04 8.989e-06
  4.21014     24.9 1.685e+04 7.274e-06
  4.21992     22.8 1.786e+04 2.307e-06
  4.22970     14.6 2.249e+04 5.370e-07
  4.23948      1.3 2.587e+04 2.251e-07
  4.24926     -8.8 2.291e+04 1.833e-07
  4.25904    -15.3 2.003e+04 1.636e-07
  4.26882    -16.4 1.887e+04 1.813e-07
  4.27860    -19.1 1.783e+04 1.838e-07
  4.29332    -18.0 1.779e+04 1.878e-07
  4.31293    -18.3 1.706e+04 1.432e-07
  4.33249    -19.0 1.600e+04 6.525e-08
  4.35205    -20.8 1.372e+04 2.347e-08
  4.36559    -22.8 1.078e+04 9.396e-09
  4.37537    -26.9 9.239e+03 5.633e-09
  4.39117    -25.6 8.679e+03 4.477e-09
  4.41073    -23.7 8.450e+03 3.808e-09
  4.43030    -21.7 8.284e+03 3.295e-09
  4.44986    -20.1 8.111e+03 2.931e-09
  4.46942    -18.5 8.013e+03 2.775e-09
  4.48898    -17.0 7.967e+03 2.673e-09
  4.50854    -15.6 7.925e+03 2.544e-09
  4.52810    -14.2 8.020e+03 2.533e-09
  4.54766    -13.3 8.151e+03 2.630e-09
  4.56722    -12.2 8.347e+03 3.123e-09
  4.58678    -11.3 8.691e+03 3.438e-09
  4.60634    -10.1 8.866e+03 4.410e-09
  4.62590     -9.2 9.052e+03 4.739e-09
  4.64546     -8.3 9.255e+03 5.129e-09
  4.66502     -7.5 9.454e+03 5.489e-09
  4.68459     -6.9 9.623e+03 6.407e-09
  4.70415     -6.3 9.931e+03 7.330e-09
  4.71971     -5.6 9.983e+03 8.710e-09
  4.72949     -6.6 9.964e+03 9.072e-09
  4.74327     -5.4 9.987e+03 9.560e-09
  4.76283     -4.2 1.007e+04 9.281e-09
  4.78239     -3.2 9.972e+03 8.225e-09
  4.80195     -2.6 1.013e+04 6.531e-09
  4.82151     -2.6 9.940e+03 5.890e-09
  4.84107     -2.8 9.933e+03 5.153e-09
  4.86063     -3.4 1.006e+04 5.159e-09
  4.88019     -4.2 1.008e+04 5.768e-09
  4.89975     -5.2 1.055e+04 7.372e-09
  4.91931     -6.3 1.151e+04 1.208e-08
  4.93887     -7.4 1.267e+04 1.890e-08
  4.95844     -7.8 1.312e+04 2.671e-08
  4.97800     -8.4 1.308e+04 2.939e-08
  4.99756     -9.0 1.286e+04 2.724e-08
  5.01712    -10.3 1.278e+04 2.354e-08
  5.03668    -12.3 1.243e+04 2.131e-08
  5.05624    -13.3 1.192e+04 2.075e-08
  5.07383    -13.4 1.170e+04 2.033e-08
  5.08361    -14.1 1.165e+04 2.042e-08
  5.09536    -13.2 1.107e+04 1.744e-08
  5.11492    -12.7 1.058e+04 1.242e-08
  5.13448    -12.8 9.998e+03 8.194e-09
  5.15404    -13.2 9.376e+03 5.521e-09
  5.17360    -13.4 8.906e+03 4.305e-09
  5.19316    -13.0 8.643e+03 3.624e-09
  5.21273    -12.4 8.524e+03 3.107e-09
  5.23229    -11.9 8.490e+03 2.713e-09
  5.25185    -11.7 8.487e+03 2.526e-09
  5.28129    -11.1 8.559e+03 2.316e-09
  5.32050    -10.0 8.726e+03 2.148e-09
  5.35963     -8.7 8.780e+03 2.380e-09
  5.38887     -7.5 8.922e+03 2.556e-09
  5.40833     -6.6 8.873e+03 3.135e-09
  5.42789     -5.7 9.250e+03 3.150e-09
  5.44745     -4.2 9.355e+03 4.131e-09
  5.46702     -3.2 9.526e+03 4.113e-09
  5.48658     -2.4 9.638e+03 4.043e-09
  5.50614     -1.5 9.689e+03 4.172e-09
  5.52570     -0.6 9.846e+03 4.357e-09
  5.54526     -0.4 1.016e+04 4.886e-09
  5.56482     -0.7 1.066e+04 6.311e-09
  5.58438     -0.9 1.104e+04 8.922e-09
  5.60394     -0.2 1.137e+04 1.100e-08
  5.62350      0.5 1.170e+04 1.185e-08
  5.64306      1.1 1.174e+04 1.139e-08
  5.66262      1.1 1.177e+04 9.975e-09
  5.68218      0.6 1.189e+04 9.178e-09
  5.70174     -0.1 1.220e+04 9.581e-09
  5.72130     -1.3 1.270e+04 1.243e-08
  5.74087     -2.2 1.301e+04 1.901e-08
  5.76043     -2.9 1.352e+04 2.818e-08
  5.77999     -4.0 1.423e+04 3.627e-08
  5.79184     -5.1 1.466e+04 4.322e-08
  5.80162     -3.3 1.444e+04 4.144e-08
  5.81911     -4.1 1.485e+04 4.629e-08
  5.83373     -5.2 1.507e+04 4.815e-08
  5.84346     -5.8 1.499e+04 4.759e-08
  5.85324     -6.8 1.521e+04 4.245e-08
  5.86302     -7.6 1.511e+04 4.114e-08
  5.87774     -8.7 1.522e+04 3.699e-08
  5.89735    -11.7 1.513e+04 3.492e-08
  5.91691    -15.1 1.523e+04 3.570e-08
  5.93153    -19.5 1.485e+04 3.625e-08
  5.94127    -20.4 1.521e+04 3.777e-08
  5.95105    -23.3 1.471e+04 3.578e-08
  5.96083    -24.1 1.506e+04 3.698e-08
  5.96880    -27.2 1.471e+04 3.504e-08
  5.97369    -25.6 1.564e+04 4.068e-08
  5.98039    -27.6 1.590e+04 4.261e-08
  5.99017    -30.9 1.531e+04 4.145e-08
  5.99995    -32.2 1.546e+04 4.943e-08
  6.00973    -33.6 1.544e+04 5.539e-08
  6.01951    -34.2 1.554e+04 6.006e-08
  6.03423    -34.9 1.548e+04 6.133e-08
  6.05384    -35.3 1.550e+04 6.413e-08
  6.07340    -35.3 1.520e+04 5.894e-08
  6.09296    -34.8 1.467e+04 5.151e-08
  6.11252    -33.7 1.408e+04 4.124e-08
  6.13208    -32.7 1.355e+04 3.198e-08
  6.14596    -31.9 1.339e+04 2.540e-08
  6.15574    -31.6 1.483e+04 4.050e-08
  6.17120    -32.1 1.544e+04 4.102e-08
  6.19076    -33.0 1.630e+04 6.460e-08
  6.21032    -32.9 1.697e+04 1.005e-07
  6.22495    -32.4 1.732e+04 1.133e-07
  6.23468    -32.6 1.735e+04 1.133e-07
  6.24446    -33.4 1.710e+04 9.510e-08
  6.25424    -33.9 1.685e+04 8.398e-08
  6.26896    -35.1 1.575e+04 6.149e-08
  6.28857    -34.7 1.489e+04 4.926e-08
  6.30813    -33.1 1.432e+04 4.334e-08
  6.32769    -31.6 1.372e+04 3.568e-08
  6.34725    -30.1 1.333e+04 2.865e-08
  6.36681    -28.5 1.285e+04 2.134e-08
  6.38637    -27.0 1.244e+04 1.567e-08
  6.40593    -25.7 1.219e+04 1.205e-08
  6.42549    -24.5 1.190e+04 9.549e-09
  6.44505    -23.1 1.157e+04 7.894e-09
  6.46461    -21.6 1.141e+04 7.052e-09
  6.48417    -20.1 1.143e+04 6.730e-09
  6.50007    -19.1 1.131e+04 6.232e-09
  6.50985    -19.6 1.125e+04 5.592e-09
  6.52330    -18.2 1.153e+04 6.211e-09
  6.54286    -17.4 1.184e+04 7.838e-09
  6.56242    -17.0 1.249e+04 1.123e-08
  6.58198    -17.0 1.288e+04 1.770e-08
  6.60154    -15.7 1.335e+04 3.039e-08
  6.62110    -14.1 1.403e+04 4.153e-08
  6.64066    -12.8 1.434e+04 4.540e-08
  6.66022    -11.9 1.422e+04 4.229e-08
  6.67978    -11.1 1.386e+04 3.415e-08
  6.69934    -10.4 1.342e+04 2.488e-08
  6.71890    -10.3 1.305e+04 1.928e-08
  6.73846    -10.2 1.271e+04 1.751e-08
  6.75802     -9.3 1.239e+04 1.675e-08
  6.77759     -8.2 1.246e+04 1.593e-08
  6.79715     -7.2 1.235e+04 1.606e-08
  6.81671     -6.1 1.230e+04 1.490e-08
  6.83627     -4.9 1.213e+04 1.485e-08
  6.85419     -3.5 1.190e+04 1.343e-08
  6.86397     -3.6 1.189e+04 1.339e-08
  6.87539     -2.4 1.217e+04 1.149e-08
  6.89495     -1.5 1.203e+04 1.159e-08
  6.91451     -0.4 1.198e+04 9.782e-09
  6.93407      0.8 1.187e+04 9.670e-09
  6.95363      2.0 1.197e+04 1.025e-08
  6.97319      2.9 1.224e+04 1.121e-08
  6.99275      3.6 1.265e+04 1.394e-08
  7.01231      4.4 1.307e+04 1.995e-08
  7.03188      5.6 1.364e+04 2.840e-08
  7.05144      5.8 1.473e+04 4.049e-08
  7.07100      5.1 1.587e+04 6.601e-08
  7.09056      6.2 1.634e+04 1.116e-07
  7.11012      6.9 1.680e+04 1.305e-07
  7.12474      5.5 1.584e+04 9.898e-08
  7.13447      1.3 1.757e+04 8.612e-08
  7.14425     -2.4 2.323e+04 6.481e-08
  7.15403    -13.6 2.806e+04 8.737e-08
  7.16381    -22.0 2.307e+04 2.634e-07
  7.17359    -26.2 1.818e+04 8.804e-07
  7.18337    -27.0 1.801e+04 1.859e-06
  7.19315    -27.7 1.833e+04 2.495e-06
  7.20293    -32.0 2.057e+04 1.157e-06
  7.21271    -40.3 2.302e+04 2.180e-07
  7.21799    -48.7 1.903e+04 8.133e-08
  7.22288    -51.7 1.799e+04 6.422e-08
  7.23228    -55.1 1.627e+04 4.996e-08
  7.24206    -56.7 1.597e+04 4.856e-08
  7.25184    -58.0 1.583e+04 5.783e-08
  7.26162    -58.8 1.596e+04 7.192e-08
  7.27140    -59.1 1.600e+04 7.992e-08
  7.28118    -59.4 1.595e+04 8.088e-08
  7.29096    -59.6 1.545e+04 7.079e-08
  7.30074    -59.9 1.481e+04 5.388e-08
  7.31052    -60.2 1.432e+04 4.228e-08
  7.32524    -60.6 1.358e+04 2.750e-08
  7.34485    -61.3 1.241e+04 1.275e-08
  7.36441    -62.1 1.169e+04 7.695e-09
  7.38397    -62.2 1.132e+04 6.172e-09
  7.40353    -61.4 1.114e+04 5.359e-09
  7.42309    -60.4 1.110e+04 4.863e-09
  7.44265    -59.6 1.107e+04 4.571e-09
  7.46221    -58.6 1.107e+04 4.506e-09
  7.48177    -57.8 1.121e+04 4.567e-09
  7.50133    -57.1 1.132e+04 5.117e-09
  7.52089    -56.4 1.148e+04 6.201e-09
  7.54045    -55.8 1.174e+04 8.107e-09
  7.56002    -55.1 1.206e+04 1.080e-08
  7.57220    -54.3 1.241e+04 1.391e-08
  7.58198    -54.1 1.251e+04 1.432e-08
  7.59914    -53.5 1.279e+04 1.707e-08
  7.61870    -53.0 1.304e+04 1.931e-08
  7.63826    -52.6 1.325e+04 2.100e-08
  7.65782    -52.2 1.349e+04 2.278e-08
  7.67738    -51.9 1.375e+04 2.510e-08
  7.69694    -51.7 1.400e+04 2.798e-08
  7.71650    -51.4 1.423e+04 3.121e-08
  7.73606    -51.0 1.442e+04 3.412e-08
  7.75562    -50.6 1.457e+04 3.628e-08
  7.77518    -50.3 1.467e+04 3.816e-08
  7.79474    -50.0 1.476e+04 4.047e-08
  7.81431    -49.7 1.490e+04 4.414e-08
  7.83387    -49.3 1.510e+04 4.923e-08
  7.85343    -48.8 1.521e+04 5.354e-08
  7.87299    -48.4 1.514e+04 5.396e-08
  7.89255    -47.6 1.475e+04 4.757e-08
  7.91211    -46.9 1.428e+04 3.586e-08
  7.92632    -46.1 1.383e+04 2.587e-08
  7.93610    -46.1 1.337e+04 1.986e-08
  7.95123    -45.4 1.316e+04 1.520e-08
  7.97079    -44.7 1.304e+04 1.271e-08
  7.99035    -43.9 1.298e+04 1.181e-08
  8.00991    -42.9 1.303e+04 1.170e-08
  8.02947    -42.1 1.312e+04 1.254e-08
  8.04903    -41.3 1.306e+04 1.392e-08
  8.06860    -40.4 1.296e+04 1.535e-08
  8.08816    -39.5 1.286e+04 1.613e-08
  8.10772    -38.4 1.269e+04 1.586e-08
  8.12728    -37.4 1.248e+04 1.403e-08
  8.14684    -36.4 1.226e+04 1.135e-08
  8.16640    -35.6 1.205e+04 8.900e-09
  8.18596    -35.0 1.175e+04 7.154e-09
  8.20552    -34.0 1.141e+04 5.965e-09
  8.22508    -32.5 1.121e+04 5.090e-09
  8.24464    -31.2 1.112e+04 4.347e-09
  8.26420    -29.8 1.096e+04 3.747e-09
  8.28043    -28.2 1.097e+04 3.355e-09
  8.29021    -28.1 1.100e+04 3.348e-09
  8.30332    -27.1 1.083e+04 3.080e-09
  8.33276    -24.5 1.088e+04 2.679e-09
  8.37198    -21.3 1.072e+04 2.500e-09
  8.41110    -18.3 1.063e+04 2.501e-09
  8.45023    -15.3 1.062e+04 2.486e-09
  8.48891    -12.7 1.056e+04 2.457e-09
  8.50847    -12.7 1.060e+04 2.569e-09
  8.52847    -10.0 1.046e+04 2.805e-09
  8.56759     -7.3 1.037e+04 2.951e-09
  8.60671     -4.0 1.015e+04 2.603e-09
  8.64583     -0.7 9.967e+03 1.834e-09
  8.68495      2.1 9.904e+03 1.442e-09
  8.72408      4.9 9.857e+03 1.323e-09
  8.76320      8.0 9.846e+03 1.326e-09
  8.80232     11.1 9.895e+03 1.375e-09
  8.84144     14.0 9.969e+03 1.497e-09
  8.88056     16.8 1.004e+04 1.671e-09
  8.91968     19.6 1.014e+04 1.835e-09
  8.95880     22.4 1.018e+04 1.927e-09
  8.98886     25.1 1.024e+04 2.024e-09
  9.00842     25.7 1.021e+04 1.626e-09
  9.03705     28.2 1.034e+04 1.748e-09
  9.07617     30.7 1.056e+04 1.922e-09
  9.11529     32.7 1.074e+04 2.198e-09
  9.15441     34.1 1.074e+04 2.751e-09
  9.18366     34.8 1.084e+04 3.995e-09
  9.20312     35.3 1.090e+04 4.557e-09
  9.22268     35.7 1.092e+04 5.662e-09
  9.24224     36.1 1.097e+04 6.380e-09
  9.26180     36.4 1.094e+04 6.882e-09
  9.28136     36.5 1.092e+04 7.289e-09
  9.30092     36.6 1.091e+04 7.463e-09
  9.32048     36.6 1.092e+04 7.539e-09
  9.34004     37.0 1.084e+04 7.337e-09
  9.35256     37.1 1.083e+04 7.300e-09
  9.36234     37.1 1.090e+04 7.390e-09
  9.37917     37.7 1.079e+04 6.815e-09
  9.39873     37.9 1.078e+04 6.684e-09
  9.41829     38.5 1.073e+04 6.164e-09
  9.43785     38.8 1.070e+04 5.749e-09
  9.45741     39.4 1.067e+04 5.232e-09
  9.47697     39.8 1.069e+04 4.855e-09
  9.49653     40.4 1.065e+04 4.558e-09
  9.51609     41.2 1.066e+04 4.504e-09
  9.53565     41.8 1.067e+04 4.527e-09
  9.55521     42.5 1.070e+04 4.589e-09
  9.57477     43.3 1.076e+04 4.771e-09
  9.59433     43.9 1.086e+04 5.139e-09
  9.61389     44.4 1.101e+04 5.559e-09
  9.63346     44.9 1.117e+04 6.001e-09
  9.65302     45.2 1.134e+04 6.428e-09
  9.67258     45.4 1.153e+04 6.626e-09
  9.69214     45.5 1.158e+04 6.573e-09
  9.70668     45.5 1.162e+04 6.305e-09
  9.71646     45.7 1.161e+04 5.953e-09
  9.73126     45.7 1.166e+04 5.428e-09
  9.75082     45.7 1.169e+04 4.914e-09
  9.77038     45.7 1.173e+04 4.416e-09
  9.78994     45.8 1.176e+04 3.934e-09
  9.80950     46.1 1.193e+04 3.183e-09
  9.82906     46.2 1.208e+04 2.814e-09
  9.84862     46.7 1.225e+04 2.421e-09
  9.86818     46.8 1.234e+04 2.294e-09
  9.88775     47.8 1.227e+04 2.272e-09
  9.90731     48.2 1.227e+04 2.288e-09
  9.92687     48.9 1.223e+04 2.376e-09
  9.94643     49.7 1.213e+04 2.656e-09
  9.96599     50.5 1.204e+04 3.150e-09
  9.98555     51.4 1.202e+04 3.712e-09
 10.00511     52.4 1.215e+04 4.362e-09
 10.02467     52.8 1.226e+04 4.610e-09
 10.05411     54.2 1.223e+04 4.971e-09
 10.08345     55.7 1.209e+04 5.204e-09
 10.10291     56.7 1.205e+04 5.408e-09
 10.12247     57.7 1.204e+04 5.618e-09
 10.14204     58.8 1.212e+04 5.853e-09
 10.16160     59.2 1.230e+04 6.454e-09
 10.18116     58.6 1.285e+04 9.119e-09
 10.20072     56.5 1.430e+04 2.232e-08
 10.22028     54.5 1.609e+04 5.925e-08
 10.23984     52.9 1.695e+04 1.007e-07
 10.25940     51.2 1.705e+04 1.028e-07
 10.27896     50.1 1.651e+04 7.964e-08
 10.29852     49.3 1.550e+04 4.150e-08
 10.31808     48.3 1.422e+04 1.772e-08
 10.33764     47.2 1.282e+04 8.365e-09
 10.35720     46.7 1.199e+04 6.829e-09
 10.37676     46.9 1.198e+04 7.006e-09
 10.39632     46.8 1.223e+04 7.980e-09
 10.41491     45.9 1.280e+04 1.102e-08
 10.42469     46.1 1.273e+04 9.998e-09
 10.43545     44.0 1.342e+04 1.684e-08
 10.45501     41.8 1.429e+04 3.360e-08
 10.47457     40.2 1.473e+04 5.010e-08
 10.49413     39.1 1.455e+04 4.815e-08
 10.51369     38.8 1.387e+04 3.538e-08
 10.53325     38.4 1.294e+04 2.063e-08
 10.55281     37.7 1.219e+04 1.112e-08
 10.57237     37.0 1.161e+04 6.697e-09
 10.59193     37.0 1.122e+04 4.904e-09
 10.61149     37.5 1.095e+04 4.111e-09
 10.63105     38.3 1.081e+04 3.622e-09
 10.65061     39.0 1.077e+04 3.256e-09
 10.67018     39.7 1.078e+04 3.009e-09
 10.68974     40.4 1.076e+04 2.875e-09
 10.70930     41.2 1.076e+04 2.889e-09
 10.72886     42.1 1.081e+04 2.931e-09
 10.74842     43.0 1.081e+04 2.929e-09
 10.76798     43.9 1.084e+04 2.911e-09
 10.77881     45.2 1.081e+04 2.881e-09
 10.78859     45.0 1.088e+04 2.962e-09
 10.80710     45.7 1.086e+04 2.897e-09
 10.83654     47.2 1.076e+04 2.778e-09
 10.87576     49.6 1.076e+04 2.800e-09
 10.91488     51.8 1.075e+04 2.807e-09
 10.94412     53.5 1.081e+04 2.926e-09
 10.96359     54.7 1.089e+04 3.198e-09
 10.98315     55.7 1.095e+04 3.671e-09
 11.00271     56.7 1.106e+04 4.414e-09
 11.02227     57.8 1.126e+04 5.524e-09
 11.04183     58.7 1.148e+04 7.052e-09
 11.06139     59.7 1.171e+04 8.976e-09
 11.08095     60.6 1.199e+04 1.122e-08
 11.10051     61.3 1.226e+04 1.362e-08
 11.12007     62.0 1.257e+04 1.616e-08
 11.13293     62.1 1.295e+04 1.955e-08
 11.14271     62.7 1.282e+04 1.819e-08
 11.15919     62.8 1.317e+04 2.078e-08
 11.17876     62.4 1.374e+04 2.674e-08
 11.19832     61.7 1.452e+04 3.948e-08
 11.21788     60.8 1.539e+04 6.260e-08
 11.23744     59.7 1.610e+04 8.765e-08
 11.25700     58.1 1.654e+04 1.082e-07
 11.27656     56.0 1.685e+04 1.167e-07
 11.29612     53.5 1.669e+04 1.004e-07
 11.31568     51.2 1.610e+04 6.527e-08
 11.33524     49.2 1.514e+04 3.634e-08
 11.35480     47.2 1.431e+04 2.127e-08
 11.37436     46.2 1.358e+04 1.457e-08
 11.39392     46.1 1.314e+04 1.155e-08
 11.42336     46.1 1.272e+04 8.654e-09
 11.46258     47.2 1.250e+04 7.266e-09
 11.50170     48.7 1.236e+04 7.076e-09
 11.54082     50.6 1.234e+04 7.764e-09
 11.57007     51.6 1.225e+04 7.985e-09
 11.58953     52.3 1.226e+04 8.723e-09
 11.60909     52.9 1.238e+04 9.946e-09
 11.62865     53.5 1.255e+04 1.137e-08
 11.64821     53.9 1.270e+04 1.274e-08
 11.66777     54.3 1.284e+04 1.387e-08
 11.68733     54.6 1.290e+04 1.430e-08
 11.70690     54.8 1.287e+04 1.394e-08
 11.72646     55.1 1.275e+04 1.297e-08
 11.74602     55.4 1.262e+04 1.185e-08
 11.76558     55.5 1.253e+04 1.079e-08
 11.78514     55.7 1.244e+04 9.938e-09
 11.80470     55.9 1.234e+04 9.444e-09
 11.82426     56.2 1.221e+04 9.322e-09
 11.84116     56.7 1.216e+04 9.432e-09
 11.85094     55.8 1.249e+04 1.294e-08
 11.86338     56.3 1.240e+04 1.290e-08
 11.88294     56.7 1.231e+04 1.281e-08
 11.90250     57.3 1.222e+04 1.272e-08
 11.92206     57.8 1.213e+04 1.268e-08
 11.94162     58.4 1.206e+04 1.271e-08
 11.96119     59.0 1.204e+04 1.293e-08
 11.98075     59.6 1.210e+04 1.352e-08
 12.00031     60.1 1.217e+04 1.445e-08
 12.01987     60.5 1.229e+04 1.573e-08
 12.03943     60.7 1.248e+04 1.789e-08
 12.05899     60.8 1.279e+04 2.127e-08
 12.07855     60.9 1.319e+04 2.630e-08
 12.09811     60.8 1.370e+04 3.345e-08
 12.11767     60.2 1.442e+04 4.425e-08
 12.13723     58.7 1.543e+04 6.466e-08
 12.15679     56.8 1.641e+04 1.003e-07
 12.17635     54.6 1.733e+04 1.515e-07
 12.19527     51.4 1.773e+04 1.601e-07
 12.20505     52.1 1.819e+04 1.834e-07
 12.21548     48.5 1.794e+04 1.445e-07
 12.23504     44.7 1.704e+04 8.261e-08
 12.25460     40.2 1.586e+04 4.150e-08
 12.27416     36.2 1.454e+04 2.255e-08
 12.29372     33.8 1.368e+04 1.424e-08
 12.31328     32.5 1.318e+04 1.038e-08
 12.33284     31.5 1.271e+04 8.513e-09
 12.35240     30.4 1.213e+04 8.425e-09
 12.37196     29.7 1.196e+04 8.642e-09
 12.39152     29.4 1.187e+04 9.129e-09
 12.41108     29.0 1.198e+04 9.896e-09
 12.43064     28.5 1.219e+04 1.091e-08
 12.45020     27.9 1.244e+04 1.214e-08
 12.46976     26.8 1.286e+04 1.410e-08
 12.48933     23.7 1.371e+04 1.907e-08
 12.50889     19.3 1.500e+04 4.103e-08
 12.52845     16.0 1.582e+04 7.792e-08
 12.54801     12.6 1.643e+04 8.416e-08
 12.55917      6.3 1.687e+04 7.769e-08
 12.56895      2.4 1.644e+04 8.358e-08
 12.58713     -2.2 1.582e+04 6.902e-08
 12.60669     -7.1 1.506e+04 4.633e-08
 12.62625    -12.7 1.407e+04 2.863e-08
 12.64581    -17.3 1.289e+04 2.183e-08
 12.66537    -19.9 1.238e+04 1.913e-08
 12.68493    -22.2 1.229e+04 1.606e-08
 12.70449    -25.6 1.218e+04 1.365e-08
 12.72405    -28.6 1.222e+04 1.418e-08
 12.74362    -30.7 1.243e+04 1.886e-08
 12.76318    -31.7 1.273e+04 2.305e-08
 12.78274    -32.3 1.286e+04 2.378e-08
 12.80230    -32.9 1.248e+04 1.725e-08
 12.82186    -33.6 1.166e+04 9.649e-09
 12.84142    -34.0 1.099e+04 5.684e-09
 12.86098    -33.9 1.064e+04 3.608e-09
 12.88054    -33.6 1.047e+04 2.492e-09
 12.90998    -33.5 1.025e+04 1.918e-09
 12.94920    -31.4 1.002e+04 1.522e-09
 12.98832    -29.0 9.988e+03 1.415e-09
 13.02744    -26.8 9.978e+03 1.382e-09
 13.06656    -24.4 9.997e+03 1.326e-09
 13.10568    -21.8 1.000e+04 1.153e-09
 13.14481    -19.4 1.004e+04 9.406e-10
 13.18393    -17.1 1.010e+04 7.962e-10
 13.22305    -14.7 1.014e+04 7.288e-10
 13.25782    -12.3 1.021e+04 6.852e-10
 13.27738    -12.6 1.016e+04 6.496e-10
 13.30129    -10.3 1.028e+04 6.158e-10
 13.34041     -8.1 1.039e+04 6.069e-10
 13.37954     -5.7 1.037e+04 6.615e-10
 13.41866     -3.2 1.041e+04 6.384e-10
 13.45778     -0.6 1.068e+04 5.390e-10
 13.49690      1.4 1.084e+04 5.504e-10
 13.53602      2.6 1.104e+04 7.100e-10
 13.57514      4.0 1.098e+04 1.355e-09
 13.61426      5.8 1.089e+04 2.632e-09
 13.65339      7.0 1.107e+04 3.589e-09
 13.69251      7.0 1.112e+04 3.891e-09
 13.73163      6.1 1.123e+04 4.845e-09
 13.77075      5.4 1.112e+04 6.337e-09
 13.80987      4.6 1.104e+04 6.382e-09
 13.84899      3.5 1.109e+04 6.879e-09
 13.88811      2.4 1.096e+04 7.740e-09
 13.92724      2.4 1.060e+04 6.300e-09
 13.96605      2.4 1.017e+04 3.470e-09
 13.98561      3.9 1.064e+04 5.564e-09
 14.00548      3.2 1.064e+04 3.867e-09
 14.04460      2.0 1.065e+04 2.965e-09
 14.08372      0.2 1.071e+04 2.723e-09
 14.12284     -2.1 1.133e+04 4.226e-09
 14.16197     -3.8 1.164e+04 8.118e-09
 14.20109     -4.7 1.159e+04 1.057e-08
 14.24021     -6.2 1.176e+04 1.011e-08
 14.27933     -8.4 1.194e+04 9.973e-09
 14.30857     -9.3 1.179e+04 1.148e-08
 14.32804     -9.6 1.195e+04 1.345e-08
 14.33953     -9.8 1.203e+04 1.259e-08
 14.34931    -10.7 1.207e+04 1.261e-08
 14.36716    -11.0 1.197e+04 1.015e-08
 14.38672    -11.8 1.211e+04 8.020e-09
 14.40628    -12.8 1.219e+04 7.654e-09
 14.42584    -14.0 1.239e+04 9.550e-09
 14.44540    -14.4 1.265e+04 1.337e-08
 14.46496    -14.0 1.296e+04 1.747e-08
 14.48452    -13.4 1.318e+04 1.903e-08
 14.50408    -13.3 1.324e+04 1.696e-08
 14.52364    -13.4 1.304e+04 1.330e-08
 14.54320    -13.7 1.262e+04 1.014e-08
 14.56277    -13.6 1.236e+04 7.991e-09
 14.58233    -13.5 1.234e+04 6.376e-09
 14.60189    -13.7 1.222e+04 5.570e-09
 14.62145    -13.3 1.210e+04 5.512e-09
 14.64101    -12.7 1.210e+04 5.609e-09
 14.67045    -11.5 1.228e+04 5.373e-09
 14.69384    -10.6 1.209e+04 4.555e-09
 14.71341    -10.0 1.209e+04 4.797e-09
 14.74879     -8.4 1.191e+04 4.798e-09
 14.78791     -6.5 1.202e+04 4.616e-09
 14.82703     -4.7 1.212e+04 3.842e-09
 14.86615     -3.1 1.208e+04 3.708e-09
 14.90527     -0.9 1.186e+04 3.520e-09
 14.94440      1.7 1.162e+04 2.805e-09
 14.98352      4.1 1.155e+04 1.882e-09
 15.02264      6.3 1.130e+04 1.703e-09
 15.06176      8.8 1.133e+04 1.766e-09
 15.10088     11.4 1.133e+04 1.954e-09
 15.14000     13.8 1.137e+04 1.871e-09
 15.17912     15.9 1.121e+04 1.637e-09
 15.21825     17.5 1.111e+04 1.489e-09
 15.25737     19.1 1.113e+04 1.519e-09
 15.29649     20.7 1.125e+04 1.771e-09
 15.33561     22.5 1.123e+04 2.285e-09
 15.37473     24.7 1.120e+04 2.683e-09
 15.40208     26.8 1.116e+04 2.783e-09
 15.42164     26.6 1.122e+04 2.656e-09
 15.45297     28.7 1.122e+04 2.686e-09
 15.49210     30.8 1.129e+04 2.795e-09
 15.53122     32.5 1.138e+04 2.901e-09
 15.57034     33.8 1.124e+04 2.989e-09
 15.60946     34.9 1.206e+04 3.402e-09
 15.64858     36.4 1.225e+04 5.747e-09
 15.68770     38.4 1.237e+04 9.064e-09
 15.72683     40.5 1.246e+04 1.125e-08
 15.76595     42.6 1.242e+04 1.115e-08
 15.80507     44.8 1.231e+04 1.064e-08
 15.84419     47.4 1.209e+04 1.005e-08
 15.88331     50.0 1.196e+04 1.014e-08
 15.92243     52.9 1.188e+04 1.082e-08
 15.96155     55.5 1.200e+04 1.205e-08
 15.99080     56.4 1.214e+04 1.343e-08
 16.01026     57.4 1.208e+04 1.415e-08
 16.02982     58.5 1.200e+04 1.407e-08
 16.04772     59.6 1.185e+04 1.372e-08
 16.05750     60.4 1.182e+04 1.353e-08
 16.06894     61.4 1.165e+04 1.267e-08
 16.08850     62.0 1.168e+04 1.252e-08
 16.10806     61.4 1.203e+04 1.345e-08
 16.11989     59.5 1.339e+04 1.965e-08
 16.12968     56.8 1.430e+04 2.771e-08
 16.14719     55.2 1.502e+04 4.664e-08
 16.16675     54.4 1.499e+04 5.367e-08
 16.18631     54.1 1.462e+04 4.679e-08
 16.20587     53.7 1.385e+04 2.893e-08
 16.22543     51.9 1.293e+04 1.470e-08
 16.24499     48.7 1.216e+04 9.663e-09
 16.26455     45.1 1.221e+04 1.016e-08
 16.28411     40.6 1.283e+04 1.401e-08
 16.30367     35.7 1.408e+04 3.050e-08
 16.32323     31.2 1.493e+04 4.923e-08
 16.34279     27.5 1.542e+04 4.887e-08
 16.36235     23.2 1.554e+04 3.733e-08
 16.38192     14.7 1.504e+04 1.946e-08
 16.40148      4.1 1.261e+04 1.197e-08
 16.42104     -4.5 1.248e+04 1.235e-08
 16.43566    -17.0 1.896e+04 2.214e-08
 16.44539    -24.3 2.193e+04 5.627e-08
 16.45517    -30.4 1.980e+04 2.662e-07
 16.46495    -32.3 1.821e+04 7.102e-07
 16.47391    -30.9 1.817e+04 1.375e-06
 16.47880    -30.8 1.816e+04 1.182e-06
 16.48451    -30.4 1.824e+04 1.481e-06
 16.49429    -30.3 1.848e+04 9.850e-07
 16.50407    -32.2 1.935e+04 3.084e-07
 16.51385    -37.7 1.828e+04 8.313e-08
 16.52363    -40.8 1.729e+04 5.182e-08
 16.53835    -44.4 1.532e+04 3.882e-08
 16.55796    -49.5 1.203e+04 1.728e-08
 16.57752    -51.2 1.070e+04 1.318e-08
 16.59708    -51.5 1.058e+04 1.266e-08
 16.61664    -51.3 1.066e+04 1.289e-08
 16.63621    -50.9 1.079e+04 1.336e-08
 16.65577    -50.3 1.089e+04 1.371e-08
 16.67533    -49.5 1.092e+04 1.362e-08
 16.69489    -48.7 1.090e+04 1.305e-08
 16.71445    -47.8 1.083e+04 1.214e-08
 16.73401    -47.0 1.075e+04 1.107e-08
 16.75357    -46.2 1.065e+04 9.970e-09
 16.77313    -45.3 1.052e+04 9.017e-09
 16.79269    -44.4 1.042e+04 8.259e-09
 16.81225    -43.5 1.029e+04 7.522e-09
 16.82813    -42.5 1.007e+04 6.780e-09
 16.83791    -41.7 1.035e+04 7.461e-09
 16.85137    -40.9 1.023e+04 7.033e-09
 16.87093    -40.4 1.023e+04 6.926e-09
 16.89050    -40.2 1.039e+04 7.376e-09
 16.91006    -40.2 1.075e+04 8.795e-09
 16.92962    -40.4 1.114e+04 1.149e-08
 16.94918    -40.0 1.161e+04 1.559e-08
 16.96874    -39.1 1.199e+04 1.880e-08
 16.98830    -38.4 1.211e+04 1.939e-08
 17.00786    -38.0 1.206e+04 1.832e-08
 17.02742    -37.6 1.186e+04 1.674e-08
 17.04698    -37.2 1.158e+04 1.492e-08
 17.06654    -36.6 1.137e+04 1.364e-08
 17.08610    -35.8 1.128e+04 1.278e-08
 17.10566    -35.0 1.124e+04 1.238e-08
 17.12522    -34.4 1.122e+04 1.232e-08
 17.14478    -34.0 1.118e+04 1.310e-08
 17.16435    -33.6 1.117e+04 1.508e-08
 17.18224    -32.9 1.123e+04 1.707e-08
 17.19202    -33.1 1.127e+04 1.747e-08
 17.20347    -32.2 1.137e+04 1.863e-08
 17.22303    -31.5 1.142e+04 1.905e-08
 17.24259    -31.2 1.139e+04 1.897e-08
 17.26215    -31.2 1.139e+04 1.873e-08
 17.28171    -32.0 1.154e+04 1.941e-08
 17.30127    -33.2 1.182e+04 2.181e-08
 17.32083    -34.3 1.209e+04 2.509e-08
 17.34039    -35.3 1.240e+04 2.806e-08
 17.35995    -36.6 1.270e+04 2.924e-08
 17.37951    -38.2 1.291e+04 2.914e-08
 17.39907    -40.0 1.276e+04 2.662e-08
 17.41864    -41.8 1.239e+04 2.333e-08
 17.43326    -42.7 1.205e+04 2.050e-08
 17.44299    -42.9 1.207e+04 2.048e-08
 17.45277    -44.1 1.214e+04 1.971e-08
 17.46255    -45.3 1.289e+04 2.141e-08
 17.47233    -48.6 1.486e+04 2.836e-08
 17.48211    -51.7 1.685e+04 5.074e-08
 17.49189    -54.6 1.778e+04 9.505e-08
 17.50167    -56.1 1.814e+04 1.540e-07
 17.51145    -56.8 1.819e+04 1.977e-07
 17.52123    -57.7 1.832e+04 2.004e-07
 17.53595    -59.6 1.788e+04 1.628e-07
 17.54614    -60.4 1.749e+04 1.165e-07
 17.55592    -58.8 1.734e+04 1.137e-07
 17.57512    -60.1 1.636e+04 7.354e-08
 17.59468    -60.8 1.455e+04 4.094e-08
 17.61424    -61.3 1.236e+04 2.166e-08
 17.63380    -61.6 1.038e+04 1.230e-08
 17.65336    -61.6 9.751e+03 8.855e-09
 17.67293    -61.1 9.416e+03 7.375e-09
 17.69249    -60.1 9.202e+03 6.280e-09
 17.71205    -59.0 9.102e+03 5.499e-09
 17.73161    -58.1 9.066e+03 4.980e-09
 17.75117    -57.5 9.060e+03 4.646e-09
 17.77073    -57.0 9.070e+03 4.356e-09
 17.79029    -56.6 9.070e+03 4.045e-09
 17.80985    -56.4 9.065e+03 3.706e-09
 17.83929    -56.1 9.180e+03 3.431e-09
 17.87851    -56.4 9.257e+03 3.363e-09
 17.91763    -56.6 9.405e+03 3.472e-09
 17.95675    -56.0 9.496e+03 3.386e-09
 17.99587    -55.3 9.508e+03 2.840e-09
 18.03499    -54.5 9.476e+03 2.468e-09
 18.07412    -53.2 9.582e+03 2.419e-09
 18.11324    -52.1 1.005e+04 2.683e-09
 18.15236    -51.2 1.044e+04 3.559e-09
 18.19148    -50.6 1.093e+04 4.696e-09
 18.23060    -50.2 1.141e+04 5.840e-09
 18.25457    -50.0 1.171e+04 6.529e-09
 18.27413    -48.9 1.162e+04 6.547e-09
 18.30884    -49.3 1.201e+04 5.936e-09
 18.34797    -50.0 1.213e+04 3.538e-09
 18.38709    -50.5 1.229e+04 1.707e-09
 18.42621    -50.7 1.247e+04 1.350e-09
 18.46533    -50.4 1.289e+04 1.348e-09
 18.50445    -50.1 1.366e+04 1.922e-09
 18.54357    -49.4 1.379e+04 2.834e-09
 18.58270    -48.5 1.393e+04 4.066e-09
 18.62182    -47.7 1.404e+04 5.594e-09
 18.66094    -46.9 1.418e+04 7.224e-09
 18.70006    -46.3 1.434e+04 8.758e-09
 18.73918    -45.9 1.463e+04 9.948e-09
 18.77830    -45.7 1.477e+04 1.034e-08
 18.81742    -45.6 1.477e+04 8.663e-09
 18.85655    -45.1 1.460e+04 6.345e-09
 18.89567    -43.9 1.448e+04 4.527e-09
 18.93479    -42.5 1.446e+04 3.277e-09
 18.96280    -40.8 1.443e+04 2.539e-09
 18.98236    -39.9 1.436e+04 1.884e-09
 19.01303    -37.9 1.443e+04 1.463e-09
 19.05215    -35.8 1.429e+04 1.305e-09
 19.09128    -33.5 1.416e+04 1.270e-09
 19.13040    -31.2 1.403e+04 1.227e-09
 19.16952    -28.9 1.395e+04 1.116e-09
 19.20864    -26.5 1.389e+04 1.008e-09
 19.24776    -24.2 1.382e+04 9.096e-10
 19.28688    -21.9 1.376e+04 8.585e-10
 19.32600    -19.7 1.375e+04 8.630e-10
 19.36513    -17.9 1.367e+04 1.055e-09
 19.40425    -16.2 1.346e+04 1.566e-09
 19.44337    -14.5 1.332e+04 2.286e-09
 19.48249    -13.1 1.320e+04 2.725e-09
 19.52161    -11.7 1.319e+04 2.057e-09
 19.56073    -10.6 1.325e+04 1.252e-09
 19.59985     -9.5 1.320e+04 8.053e-10
 19.63898     -8.3 1.312e+04 6.969e-10
 19.67103     -6.6 1.309e+04 7.216e-10
 19.69059     -6.2 1.322e+04 8.444e-10
 19.71722     -5.0 1.309e+04 1.051e-09
 19.75634     -3.2 1.283e+04 1.406e-09
 19.79546     -1.1 1.276e+04 1.505e-09
 19.83458      0.8 1.288e+04 1.380e-09
 19.87371      2.3 1.293e+04 1.456e-09
 19.91283      3.5 1.288e+04 1.749e-09
 19.95195      4.7 1.290e+04 2.422e-09
 19.99107      5.9 1.290e+04 3.106e-09
 20.03019      7.0 1.288e+04 2.986e-09
 20.06931      7.8 1.299e+04 2.636e-09
 20.10843      8.5 1.298e+04 2.349e-09
 20.14756      9.2 1.306e+04 2.173e-09
 20.18668     10.0 1.312e+04 2.205e-09
 20.22580     10.5 1.325e+04 2.659e-09
 20.26492      9.5 1.371e+04 6.289e-09
 20.30404      8.6 1.403e+04 1.539e-08
 20.34316      8.1 1.417e+04 1.611e-08
 20.37927      7.3 1.457e+04 8.332e-09
 20.39873      7.2 1.425e+04 8.798e-09
 20.41143      6.3 1.429e+04 5.485e-09
 20.43099      4.7 1.412e+04 2.959e-09
 20.46043      3.9 1.388e+04 2.911e-09
 20.49965      3.3 1.319e+04 1.715e-09
 20.53877      3.8 1.279e+04 1.119e-09
 20.57789      5.0 1.303e+04 1.105e-09
 20.61701      5.0 1.310e+04 1.946e-09
 20.65614      4.7 1.291e+04 4.789e-09
 20.68538      3.8 1.312e+04 8.176e-09
 20.70484      3.6 1.314e+04 1.029e-08
 20.72440      3.3 1.321e+04 1.276e-08
 20.74297      3.2 1.334e+04 1.380e-08
 20.75275      3.1 1.282e+04 7.675e-09
 20.76352      2.3 1.295e+04 7.240e-09
 20.78308      2.0 1.297e+04 7.400e-09
 20.80265      1.8 1.310e+04 9.994e-09
 20.82221      2.0 1.338e+04 1.118e-08
 20.84177      2.5 1.353e+04 1.425e-08
 20.86133      3.2 1.382e+04 1.702e-08
 20.88089      3.7 1.411e+04 2.035e-08
 20.90045      4.4 1.429e+04 2.327e-08
 20.92001      4.9 1.443e+04 2.531e-08
 20.93957      5.3 1.456e+04 2.803e-08
 20.95913      5.3 1.474e+04 3.123e-08
 20.97869      5.1 1.482e+04 3.413e-08
 20.99825      4.7 1.462e+04 3.615e-08
 21.01781      4.7 1.415e+04 3.275e-08
 21.03737      4.9 1.358e+04 2.307e-08
 21.05694      4.8 1.277e+04 1.395e-08
 21.07650      4.3 1.203e+04 7.722e-09
 21.09606      3.8 1.138e+04 6.078e-09
 21.10686      4.3 1.101e+04 4.724e-09
 21.11664      4.2 1.127e+04 5.144e-09
 21.13518      4.4 1.107e+04 4.826e-09
 21.15474      5.3 1.080e+04 4.610e-09
 21.17430      5.8 1.079e+04 4.602e-09
 21.19386      7.0 1.059e+04 4.511e-09
 21.21342      7.4 1.057e+04 4.537e-09
 21.23298      8.7 1.032e+04 4.182e-09
 21.25254      9.1 1.035e+04 4.171e-09
 21.27210     10.3 1.017e+04 3.750e-09
 21.29166     10.6 1.014e+04 3.619e-09
 21.32110     12.0 9.899e+03 3.136e-09
 21.36032     14.1 9.482e+03 2.423e-09
 21.39944     16.1 9.165e+03 1.836e-09
 21.43857     18.2 8.961e+03 1.496e-09
 21.47769     20.5 8.794e+03 1.351e-09
 21.51681     22.9 8.637e+03 1.315e-09
 21.55593     25.3 8.562e+03 1.321e-09
 21.59505     27.8 8.492e+03 1.359e-09
 21.63417     30.3 8.395e+03 1.393e-09
 21.67329     32.7 8.355e+03 1.425e-09
 21.71242     35.1 8.302e+03 1.509e-09
 21.75154     37.4 8.283e+03 1.689e-09
 21.79066     39.7 8.316e+03 1.985e-09
 21.81529     41.9 8.387e+03 2.374e-09
 21.83485     41.9 8.369e+03 2.538e-09
 21.86890     44.0 8.449e+03 2.902e-09
 21.90802     45.9 8.415e+03 3.150e-09
 21.94715     47.7 8.362e+03 3.062e-09
 21.98627     49.5 8.226e+03 2.749e-09
 22.02539     51.1 8.029e+03 2.361e-09
 22.06451     52.8 7.882e+03 2.196e-09
 22.10363     54.5 7.926e+03 2.325e-09
 22.14275     56.2 8.161e+03 2.818e-09
 22.18187     57.3 8.339e+03 3.311e-09
 22.21112     57.9 8.450e+03 3.732e-09
 22.23058     58.4 8.553e+03 3.993e-09
 22.25014     59.0 8.623e+03 4.194e-09
 22.26970     59.4 8.637e+03 4.222e-09
 22.28926     59.7 8.628e+03 4.186e-09
 22.30882     59.9 8.601e+03 4.082e-09
 22.32838     60.1 8.599e+03 4.016e-09
 22.34795     60.3 8.622e+03 4.033e-09
 22.36751     60.4 8.672e+03 4.111e-09
 22.38707     60.3 8.760e+03 4.298e-09
 22.40663     60.2 8.927e+03 4.737e-09
 22.42619     59.9 9.132e+03 5.428e-09
 22.44575     59.6 9.394e+03 6.447e-09
 22.46531     59.1 9.768e+03 7.978e-09
 22.48487     58.4 1.032e+04 1.040e-08
 22.50443     57.3 1.106e+04 1.412e-08
 22.52333     56.1 1.186e+04 1.929e-08
 22.53311     55.7 1.206e+04 2.102e-08
 22.54355     53.8 1.292e+04 2.746e-08
 22.56311     51.6 1.352e+04 3.233e-08
 22.58267     49.0 1.384e+04 3.496e-08
 22.60223     46.5 1.400e+04 3.807e-08
 22.62180     44.7 1.404e+04 3.960e-08
 22.63642     44.1 1.421e+04 4.359e-08
 22.64615     43.7 1.435e+04 4.619e-08
 22.65593     43.2 1.455e+04 4.936e-08
 22.66571     42.0 1.534e+04 5.748e-08
 22.67549     38.0 1.859e+04 8.070e-08
 22.68527     31.0 2.184e+04 1.753e-07
 22.69505     24.5 2.058e+04 5.198e-07
 22.70483     20.1 1.894e+04 1.330e-06
 22.71007     17.2 1.816e+04 2.253e-06
 22.71496     13.8 1.917e+04 9.520e-07
 22.72439      8.7 2.123e+04 3.915e-07
 22.73417     -1.8 2.441e+04 6.804e-08
 22.74395    -15.3 1.678e+04 2.616e-08
 22.75373    -23.1 1.207e+04 1.793e-08
 22.76351    -23.6 1.215e+04 1.823e-08
 22.77329    -25.6 1.152e+04 1.567e-08
 22.78307    -25.7 1.155e+04 1.540e-08
 22.79779    -27.2 1.112e+04 1.171e-08
 22.81740    -29.5 1.038e+04 7.811e-09
 22.83696    -30.9 9.761e+03 5.872e-09
 22.85652    -31.4 9.442e+03 4.892e-09
 22.87609    -31.3 9.207e+03 4.087e-09
 22.88723    -31.1 9.016e+03 3.339e-09
 22.89701    -31.7 8.990e+03 3.211e-09
 22.91521    -31.6 9.054e+03 2.729e-09
 22.93477    -31.6 9.041e+03 2.605e-09
 22.96421    -31.1 9.224e+03 2.574e-09
 23.00343    -30.9 9.520e+03 2.542e-09
 23.03267    -31.5 9.370e+03 3.035e-09
 23.05213    -33.7 1.071e+04 5.799e-09
 23.07169    -35.6 1.209e+04 1.180e-08
 23.09125    -36.6 1.294e+04 2.205e-08
 23.11081    -36.8 1.337e+04 3.184e-08
 23.13038    -36.6 1.337e+04 3.395e-08
 23.14994    -36.5 1.293e+04 2.763e-08
 23.16950    -36.9 1.228e+04 1.818e-08
 23.18906    -37.6 1.126e+04 9.692e-09
 23.20862    -38.4 1.027e+04 5.377e-09
 23.22818    -38.5 9.641e+03 3.518e-09
 23.24134    -38.2 9.289e+03 2.674e-09
 23.25112    -39.4 9.088e+03 2.249e-09
 23.27718    -38.7 8.982e+03 2.090e-09
 23.31640    -37.1 8.697e+03 1.889e-09
 23.35552    -35.8 8.606e+03 1.959e-09
 23.39464    -34.8 8.782e+03 2.530e-09
 23.43376    -33.6 9.072e+03 3.448e-09
 23.47288    -32.7 9.229e+03 3.749e-09
 23.51201    -32.8 8.955e+03 2.987e-09
 23.55113    -32.9 8.791e+03 2.715e-09
 23.58736    -32.1 8.723e+03 2.586e-09
 23.60693    -32.1 8.757e+03 2.919e-09
 23.62937    -31.1 8.684e+03 2.778e-09
 23.66849    -29.9 8.523e+03 2.340e-09
 23.70761    -28.8 8.359e+03 1.951e-09
 23.74673    -27.7 8.291e+03 1.785e-09
 23.78586    -26.6 8.414e+03 1.893e-09
 23.82498    -25.3 8.598e+03 2.307e-09
 23.86410    -23.7 8.653e+03 2.508e-09
 23.90322    -22.2 8.555e+03 2.443e-09
 23.93999    -20.8 8.459e+03 2.268e-09
 23.95955    -21.3 8.467e+03 2.201e-09
 23.98146    -19.9 8.507e+03 2.236e-09
 24.02058    -18.8 8.623e+03 2.494e-09
 24.05971    -17.6 8.802e+03 3.177e-09
 24.09883    -16.1 9.059e+03 3.877e-09
 24.12807    -15.2 9.053e+03 4.083e-09
 24.14753    -15.1 9.049e+03 4.056e-09
 24.16710    -14.7 8.990e+03 3.894e-09
 24.18666    -14.7 9.017e+03 3.732e-09
 24.20622    -15.0 9.005e+03 3.705e-09
 24.22578    -15.2 8.830e+03 4.080e-09
 24.24534    -14.4 8.874e+03 4.752e-09
 24.26490    -14.2 9.132e+03 4.585e-09
 24.28446    -14.7 9.243e+03 5.120e-09
 24.30369    -15.3 9.411e+03 5.587e-09
 24.31347    -15.3 9.389e+03 5.064e-09
 24.32358    -15.8 9.409e+03 6.041e-09
 24.34314    -15.8 9.521e+03 6.821e-09
 24.36270    -15.7 9.464e+03 7.030e-09
 24.38226    -15.4 9.330e+03 6.613e-09
 24.40182    -15.3 9.373e+03 5.393e-09
 24.42139    -15.8 9.304e+03 4.608e-09
 24.44095    -16.6 9.280e+03 3.860e-09
 24.46051    -17.0 9.187e+03 3.679e-09
 24.48995    -17.0 9.146e+03 3.782e-09
 24.52916    -16.4 9.031e+03 3.189e-09
 24.56829    -16.0 8.848e+03 2.484e-09
 24.60741    -15.8 8.729e+03 2.207e-09
 24.64653    -15.1 8.764e+03 2.447e-09
 24.66778    -14.6 8.935e+03 2.686e-09
 24.68734    -14.3 9.176e+03 2.976e-09
 24.71489    -14.3 9.500e+03 3.626e-09
 24.73436    -14.7 9.681e+03 4.039e-09
 24.75392    -14.8 9.732e+03 4.596e-09
 24.77348    -16.1 1.062e+04 5.258e-09
 24.79304    -23.3 1.368e+04 1.370e-08
 24.81260    -28.4 1.427e+04 4.579e-08
 24.82722    -27.2 1.558e+04 1.052e-07
 24.83695    -28.1 1.546e+04 1.147e-07
 24.85167    -26.0 1.591e+04 1.197e-07
 24.87128    -28.6 1.489e+04 4.438e-08
 24.89084    -35.4 1.200e+04 9.436e-09
 24.91040    -40.1 1.011e+04 5.385e-09
 24.92996    -41.0 9.682e+03 4.976e-09
 24.94953    -40.9 9.707e+03 5.183e-09
 24.96909    -40.7 9.775e+03 5.160e-09
 24.99852    -40.6 9.561e+03 4.074e-09
 25.03774    -40.1 9.192e+03 3.202e-09
 25.07687    -38.9 8.882e+03 2.496e-09
 25.11599    -37.2 8.670e+03 1.995e-09
 25.15511    -35.3 8.701e+03 1.521e-09
 25.19423    -33.3 8.704e+03 1.209e-09
 25.23335    -31.4 8.586e+03 1.049e-09
 25.27247    -29.4 8.478e+03 1.035e-09
 25.31159    -27.3 8.640e+03 1.121e-09
 25.35072    -25.1 8.788e+03 1.349e-09
 25.37602    -22.8 9.009e+03 1.692e-09
 25.39558    -22.2 9.019e+03 1.693e-09
 25.42896    -20.2 9.331e+03 2.129e-09
 25.46808    -18.6 9.727e+03 2.709e-09
 25.50720    -17.2 1.025e+04 3.297e-09
 25.53645    -16.2 1.043e+04 3.945e-09
 25.55591    -15.9 1.048e+04 4.329e-09
 25.57547    -15.2 1.061e+04 4.657e-09
 25.59503    -14.8 1.082e+04 4.727e-09
 25.61459    -14.5 1.090e+04 4.879e-09
 25.63415    -14.2 1.093e+04 4.835e-09
 25.65371    -13.5 1.090e+04 4.974e-09
 25.67327    -12.6 1.111e+04 4.599e-09
 25.69283    -12.0 1.122e+04 4.011e-09
 25.71239    -11.3 1.125e+04 3.565e-09
 25.74183    -10.2 1.126e+04 2.597e-09
 25.78105     -8.1 1.118e+04 1.985e-09
 25.82017     -5.6 1.122e+04 1.423e-09
 25.85930     -3.4 1.139e+04 1.233e-09
 25.89842     -1.0 1.142e+04 1.273e-09
 25.93754      1.4 1.153e+04 1.399e-09
 25.97666      3.7 1.173e+04 1.641e-09
 26.01578      6.0 1.206e+04 2.089e-09
 26.05490      7.9 1.218e+04 3.199e-09
 26.08425     10.3 1.261e+04 5.856e-09
 26.10371     12.1 1.275e+04 6.800e-09
 26.12317     13.3 1.298e+04 7.748e-09
 26.14273     13.2 1.362e+04 1.080e-08
 26.16229     11.9 1.475e+04 2.028e-08
 26.18185      8.8 1.661e+04 5.799e-08
 26.20141      6.4 1.767e+04 1.672e-07
 26.22097      4.5 1.749e+04 1.712e-07
 26.24054      4.2 1.655e+04 6.617e-08
 26.26010     -1.1 1.577e+04 1.544e-08
 26.27966     -6.9 1.313e+04 9.343e-09
 26.29922     -7.8 1.259e+04 8.864e-09
 26.31878     -7.5 1.243e+04 1.119e-08
 26.33834     -7.3 1.243e+04 1.139e-08
 26.35790     -7.3 1.244e+04 1.092e-08
 26.37746     -7.7 1.245e+04 9.478e-09
 26.40690     -8.8 1.274e+04 7.631e-09
 26.44612    -10.9 1.259e+04 7.386e-09
 26.48524    -12.1 1.226e+04 1.134e-08
 26.51448    -12.4 1.244e+04 1.579e-08
 26.53395    -12.2 1.249e+04 1.641e-08
 26.55351    -12.1 1.226e+04 1.540e-08
 26.57307    -11.6 1.192e+04 1.222e-08
 26.59263    -11.3 1.157e+04 8.365e-09
 26.61219    -10.9 1.108e+04 5.900e-09
 26.63175    -10.6 1.090e+04 4.131e-09
 26.65131    -10.4 1.057e+04 3.248e-09
 26.68075    -10.0 1.038e+04 2.545e-09
 26.71997     -8.4 1.007e+04 2.448e-09
 26.75909     -6.8 1.003e+04 2.708e-09
 26.79248     -5.5 1.002e+04 2.565e-09
 26.81204     -5.8 1.001e+04 2.623e-09
 26.83733     -4.7 9.911e+03 2.567e-09
 26.87645     -3.7 9.880e+03 2.907e-09
 26.91558     -2.6 1.001e+04 3.245e-09
 26.95470     -1.7 1.002e+04 3.048e-09
 26.99382     -1.3 1.003e+04 2.595e-09
 27.03294     -1.5 1.011e+04 2.419e-09
 27.07206     -2.4 1.030e+04 2.929e-09
 27.11118     -3.3 1.027e+04 3.612e-09
 27.15031     -4.1 1.015e+04 3.552e-09
 27.18943     -5.0 9.883e+03 3.226e-09
 27.22855     -6.0 9.838e+03 1.923e-09
 27.26767     -9.0 9.610e+03 1.608e-09
 27.30679    -11.6 9.853e+03 3.361e-09
 27.34591    -11.7 1.011e+04 6.507e-09
 27.38503    -12.4 1.018e+04 6.810e-09
 27.42416    -14.4 1.010e+04 5.219e-09
 27.46328    -15.9 9.921e+03 5.967e-09
 27.50071    -16.5 1.003e+04 7.174e-09
 27.52027    -17.3 9.937e+03 7.592e-09
 27.54152    -18.3 1.009e+04 7.354e-09
 27.58064    -20.3 1.061e+04 9.327e-09
 27.60989    -22.2 1.154e+04 1.696e-08
 27.62935    -22.8 1.212e+04 2.215e-08
 27.64891    -23.3 1.281e+04 2.859e-08
 27.66847    -24.6 1.315e+04 3.204e-08
 27.68803    -26.3 1.327e+04 3.294e-08
 27.70759    -28.0 1.324e+04 3.169e-08
 27.72715    -29.8 1.280e+04 2.684e-08
 27.74671    -31.6 1.219e+04 2.168e-08
 27.76627    -33.1 1.157e+04 1.764e-08
 27.78583    -34.2 1.106e+04 1.399e-08
 27.80540    -35.2 1.057e+04 1.061e-08
 27.82496    -36.0 1.019e+04 7.927e-09
 27.84452    -36.8 9.995e+03 6.117e-09
 27.86408    -37.8 9.877e+03 5.086e-09
 27.87420    -38.5 9.766e+03 4.605e-09
 27.88398    -38.7 1.011e+04 6.808e-09
 27.90320    -39.0 1.021e+04 6.905e-09
 27.92276    -40.8 1.044e+04 7.446e-09
 27.94232    -44.7 1.256e+04 9.934e-09
 27.96188    -50.5 1.534e+04 2.263e-08
 27.98144    -55.0 1.655e+04 6.587e-08
 28.00100    -57.0 1.702e+04 1.254e-07
 28.02056    -58.6 1.702e+04 1.383e-07
 28.04012    -60.6 1.624e+04 8.661e-08
 28.05969    -63.2 1.475e+04 4.047e-08
 28.07925    -65.2 1.351e+04 2.305e-08
 28.09881    -66.1 1.276e+04 1.561e-08
 28.11837    -66.7 1.226e+04 1.125e-08
 28.13793    -67.0 1.192e+04 8.610e-09
 28.15749    -67.1 1.170e+04 6.880e-09
 28.17705    -66.9 1.152e+04 5.560e-09
 28.19661    -66.5 1.138e+04 4.517e-09
 28.21617    -65.9 1.133e+04 3.735e-09
 28.22831    -65.2 1.136e+04 3.190e-09
 28.24797    -65.2 1.116e+04 2.665e-09
 28.28483    -63.6 1.120e+04 2.527e-09
 28.32395    -61.8 1.093e+04 2.289e-09
 28.36307    -59.7 1.053e+04 1.985e-09
 28.40219    -57.5 1.018e+04 1.701e-09
 28.44132    -55.2 1.006e+04 1.508e-09
 28.48044    -52.8 9.989e+03 1.420e-09
 28.51956    -50.4 9.972e+03 1.404e-09
 28.55868    -48.0 9.916e+03 1.494e-09
 28.59780    -45.7 9.967e+03 1.678e-09
 28.63692    -43.4 1.005e+04 1.824e-09
 28.67604    -41.1 1.008e+04 1.864e-09
 28.71517    -38.9 1.015e+04 1.831e-09
 28.75429    -36.7 1.022e+04 1.701e-09
 28.79341    -34.4 1.027e+04 1.480e-09
 28.83253    -32.1 1.031e+04 1.218e-09
 28.87165    -29.8 1.037e+04 9.753e-10
 28.91077    -27.4 1.030e+04 8.557e-10
 28.93674    -25.1 1.032e+04 7.988e-10
 28.95630    -25.1 1.031e+04 8.080e-10
 28.98902    -22.8 1.038e+04 8.102e-10
 29.02814    -20.7 1.045e+04 9.132e-10
 29.06726    -18.2 1.059e+04 1.003e-09
 29.10638    -16.1 1.075e+04 9.835e-10
 29.14550    -14.3 1.084e+04 9.409e-10
 29.18462    -12.3 1.085e+04 1.072e-09
 29.22375    -10.0 1.101e+04 1.082e-09
 29.26287     -7.8 1.121e+04 9.681e-10
 29.30199     -5.5 1.147e+04 8.922e-10
 29.34111     -3.6 1.163e+04 9.526e-10
 29.38023     -1.3 1.185e+04 1.012e-09
 29.41935      1.0 1.224e+04 9.551e-10
 29.45847      3.3 1.256e+04 8.101e-10
 29.49760      5.6 1.275e+04 6.602e-10
 29.53672      7.6 1.274e+04 5.696e-10
 29.57584      9.6 1.266e+04 5.461e-10
 29.61496     11.7 1.263e+04 5.295e-10
 29.64497     13.8 1.263e+04 4.779e-10
 29.66453     14.3 1.276e+04 5.494e-10
 29.69320     16.3 1.277e+04 4.454e-10
 29.73232     18.0 1.262e+04 4.000e-10
 29.77145     19.8 1.258e+04 3.966e-10
 29.81057     21.6 1.258e+04 4.174e-10
 29.84969     23.2 1.260e+04 4.820e-10
 29.88881     24.5 1.265e+04 6.309e-10
 29.92793     25.9 1.256e+04 1.072e-09
 29.96705     27.1 1.273e+04 1.842e-09
 29.99630     26.9 1.292e+04 2.480e-09
 30.00867     26.6 1.308e+04 3.221e-09
 30.01845     26.7 1.308e+04 3.310e-09
 30.03532     26.3 1.320e+04 4.366e-09
 30.05488     25.9 1.340e+04 5.751e-09
 30.07444     25.2 1.360e+04 7.710e-09
 30.09400     24.4 1.372e+04 1.074e-08
 30.11356     23.8 1.371e+04 1.282e-08
 30.13312     22.9 1.367e+04 1.256e-08
 30.15269     22.2 1.326e+04 9.352e-09
 30.17225     21.8 1.313e+04 8.565e-09
 30.20169     21.2 1.282e+04 5.272e-09
 30.24090     20.7 1.242e+04 3.955e-09
 30.28003     20.9 1.234e+04 4.133e-09
 30.31915     21.0 1.231e+04 5.069e-09
 30.35321     21.1 1.225e+04 5.308e-09
 30.37277     23.5 1.264e+04 6.699e-09
 30.39739     23.6 1.258e+04 6.379e-09
 30.42663     23.0 1.234e+04 4.495e-09
 30.44610     22.7 1.220e+04 3.889e-09
 30.46566     22.6 1.214e+04 3.042e-09
 30.48522     22.4 1.210e+04 2.690e-09
 30.51466     22.6 1.222e+04 2.688e-09
 30.55388     22.3 1.228e+04 2.364e-09
 30.59300     21.3 1.242e+04 2.782e-09
 30.63212     20.4 1.248e+04 4.531e-09
 30.67124     19.5 1.245e+04 5.171e-09
 30.71036     19.3 1.228e+04 4.302e-09
 30.74948     18.8 1.213e+04 3.058e-09
 30.78861     18.7 1.199e+04 2.915e-09
 30.82773     18.7 1.200e+04 3.485e-09
 30.86685     19.1 1.205e+04 4.554e-09
 30.90597     19.3 1.215e+04 6.025e-09
 30.94509     19.3 1.233e+04 7.413e-09
 30.98421     18.8 1.241e+04 7.557e-09
 31.02333     19.2 1.222e+04 6.369e-09
 31.06144     19.9 1.196e+04 3.889e-09
 31.08100     21.4 1.203e+04 4.342e-09
 31.10158     21.6 1.196e+04 2.314e-09
 31.14070     21.8 1.179e+04 1.846e-09
 31.17982     22.5 1.178e+04 1.949e-09
 31.21894     23.4 1.187e+04 2.136e-09
 31.25806     24.3 1.190e+04 2.028e-09
 31.29719     25.3 1.198e+04 1.630e-09
 31.33631     26.1 1.206e+04 1.251e-09
 31.37543     27.0 1.200e+04 1.088e-09
 31.41455     28.2 1.195e+04 1.023e-09
 31.45367     29.7 1.196e+04 9.190e-10
 31.49279     31.3 1.203e+04 7.461e-10
 31.53191     32.8 1.211e+04 5.931e-10
 31.57104     34.4 1.214e+04 5.438e-10
 31.61016     36.2 1.217e+04 5.640e-10
 31.64928     38.0 1.226e+04 6.460e-10
 31.68840     40.0 1.233e+04 8.540e-10
 31.72752     42.2 1.261e+04 1.343e-09
 31.75677     42.4 1.283e+04 1.784e-09
 31.77623     42.3 1.296e+04 2.500e-09
 31.78904     42.2 1.308e+04 3.882e-09
 31.79882     42.3 1.315e+04 4.290e-09
 31.81535     41.9 1.342e+04 7.699e-09
 31.83491     41.4 1.378e+04 1.370e-08
 31.85447     40.8 1.429e+04 1.829e-08
 31.87403     39.7 1.437e+04 1.672e-08
 31.89359     38.5 1.424e+04 1.436e-08
 31.92303     38.6 1.383e+04 7.224e-09
 31.96225     38.5 1.373e+04 2.681e-09
 32.00137     38.4 1.344e+04 1.426e-09
 32.04049     39.3 1.323e+04 1.423e-09
 32.07962     40.6 1.329e+04 1.627e-09
 32.11874     41.0 1.352e+04 2.159e-09
 32.14325     40.7 1.360e+04 2.660e-09
 32.15293     41.0 1.354e+04 2.640e-09
 32.16744     40.8 1.360e+04 3.309e-09
 32.18700     40.6 1.368e+04 4.189e-09
 32.20656     40.2 1.380e+04 5.099e-09
 32.22613     39.3 1.398e+04 5.944e-09
 32.24569     38.0 1.407e+04 6.240e-09
 32.26525     36.3 1.406e+04 6.196e-09
 32.28481     34.4 1.381e+04 5.793e-09
 32.30437     31.6 1.368e+04 5.910e-09
 32.32393     29.4 1.336e+04 6.054e-09
 32.34349     26.5 1.337e+04 6.900e-09
 32.36305     24.3 1.300e+04 7.457e-09
 32.38261     21.6 1.288e+04 7.611e-09
 32.40217     20.7 1.270e+04 7.360e-09
 32.43161     19.4 1.215e+04 5.631e-09
 32.47083     18.8 1.168e+04 3.363e-09
 32.49746     18.2 1.153e+04 2.178e-09
 32.51702     17.6 1.156e+04 2.300e-09
 32.54907     17.8 1.142e+04 2.383e-09
 32.58819     18.2 1.135e+04 2.551e-09
 32.62732     18.7 1.133e+04 2.514e-09
 32.66644     19.0 1.135e+04 2.348e-09
 32.70556     19.0 1.137e+04 2.388e-09
 32.74468     19.0 1.147e+04 2.462e-09
 32.78380     19.3 1.155e+04 2.337e-09
 32.82292     19.3 1.172e+04 2.171e-09
 32.86205     19.2 1.207e+04 1.848e-09
 32.90117     18.9 1.235e+04 1.743e-09
 32.93041     17.5 1.259e+04 1.948e-09
 32.94987     16.0 1.268e+04 2.903e-09
 32.96943     14.6 1.284e+04 5.798e-09
 32.98899     13.8 1.325e+04 1.152e-08
 33.00856     12.5 1.385e+04 1.371e-08
 33.02812     11.6 1.377e+04 1.094e-08
 33.04768      9.6 1.371e+04 6.735e-09
 33.06724      7.5 1.307e+04 5.262e-09
 33.08680      6.1 1.269e+04 4.302e-09
 33.10636      5.4 1.247e+04 3.996e-09
 33.13580      4.9 1.233e+04 3.130e-09
 33.17502      3.5 1.223e+04 2.841e-09
 33.20570      1.4 1.224e+04 3.303e-09
 33.22526      2.1 1.231e+04 3.398e-09
 33.25326      0.3 1.165e+04 5.788e-09
 33.29238     -0.5 1.125e+04 5.390e-09
 33.33150     -0.2 1.126e+04 2.262e-09
 33.37062     -1.2 1.095e+04 1.017e-09
 33.40975     -0.9 1.058e+04 5.727e-10
 33.44887      0.1 1.039e+04 4.024e-10
 33.48799      1.0 1.039e+04 3.195e-10
 33.52711      2.1 1.026e+04 3.133e-10
 33.56623      3.5 1.029e+04 3.100e-10
 33.60535      4.4 1.032e+04 3.364e-10
 33.64448      5.1 1.028e+04 4.456e-10
 33.68360      6.3 1.016e+04 6.248e-10
 33.72272      7.4 1.007e+04 7.063e-10
 33.76184      8.6 9.996e+03 6.401e-10
 33.80096      9.8 9.956e+03 4.790e-10
 33.84008     10.5 1.004e+04 3.314e-10
 33.87920     11.0 9.931e+03 2.811e-10
 33.91393     12.0 9.867e+03 2.904e-10
 33.93349     12.5 9.895e+03 2.825e-10
 33.95745     13.3 9.970e+03 3.176e-10
 33.99657     14.1 1.004e+04 4.077e-10
 34.03569     15.0 1.010e+04 5.757e-10
 34.07481     15.4 1.027e+04 7.831e-10
 34.11393     14.8 1.058e+04 1.262e-09
 34.15306     13.7 1.080e+04 3.204e-09
 34.19218     12.9 1.115e+04 4.567e-09
 34.23130     12.5 1.116e+04 3.503e-09
 34.27042     11.5 1.124e+04 1.919e-09
 34.30954     10.4 1.116e+04 1.470e-09
 34.34866     10.7 1.109e+04 1.259e-09
 34.38778     12.1 1.121e+04 8.268e-10
 34.42691     13.4 1.156e+04 4.545e-10
 34.46603     13.9 1.177e+04 3.141e-10
 34.50515     14.8 1.168e+04 3.350e-10
 34.54427     15.4 1.152e+04 5.334e-10
 34.58339     16.5 1.134e+04 1.061e-09
 34.62216     17.7 1.150e+04 1.473e-09
 34.64172     18.6 1.147e+04 1.433e-09
 34.66163     19.0 1.171e+04 1.420e-09
 34.70076     19.3 1.178e+04 1.233e-09
 34.73988     19.3 1.178e+04 1.009e-09
 34.77900     19.2 1.164e+04 8.604e-10
 34.81812     19.1 1.155e+04 8.843e-10
 34.85724     18.1 1.151e+04 1.249e-09
 34.89636     17.3 1.132e+04 2.925e-09
 34.93549     16.7 1.129e+04 4.140e-09
 34.97461     16.6 1.106e+04 3.293e-09
 35.01373     16.2 1.086e+04 1.929e-09
 35.05285     15.5 1.070e+04 1.319e-09
 35.09197     15.6 1.036e+04 1.213e-09
 35.13109     16.3 1.030e+04 1.225e-09
 35.17021     16.8 1.032e+04 1.334e-09
 35.20934     17.4 1.029e+04 1.547e-09
 35.24846     18.0 1.026e+04 1.566e-09
 35.28758     18.6 1.021e+04 1.434e-09
 35.32670     18.5 1.024e+04 1.450e-09
 35.34996     17.2 1.042e+04 2.323e-09
 35.36952     18.9 1.035e+04 1.926e-09
 35.40494     18.3 1.029e+04 3.623e-09
 35.44406     18.1 1.020e+04 4.438e-09
 35.48319     18.6 9.909e+03 3.646e-09
 35.52231     18.7 9.682e+03 2.394e-09
 35.56143     18.7 9.473e+03 1.740e-09
 35.60055     19.2 9.372e+03 1.678e-09
 35.63967     19.7 9.379e+03 1.984e-09
 35.67879     20.4 9.464e+03 2.812e-09
 35.71792     21.2 9.589e+03 3.750e-09
 35.75704     21.9 9.574e+03 4.000e-09
 35.79616     22.2 9.594e+03 4.112e-09
 35.83528     21.6 9.851e+03 4.898e-09
 35.87440     21.2 1.006e+04 6.624e-09
 35.91352     21.1 9.951e+03 6.693e-09
 35.95264     20.8 9.684e+03 5.367e-09
 35.99177     19.5 9.727e+03 4.956e-09
 36.03089     16.0 1.030e+04 7.976e-09
 36.05819     13.2 1.064e+04 1.177e-08
 36.07775     15.7 1.060e+04 1.124e-08
 36.10913     12.2 1.060e+04 1.033e-08
 36.13837      7.6 1.053e+04 8.774e-09
 36.15784      5.9 1.013e+04 8.075e-09
 36.17740      2.3 9.841e+03 6.065e-09
 36.19696      0.6 9.531e+03 5.621e-09
 36.21652     -2.7 9.507e+03 4.515e-09
 36.23608     -5.1 9.228e+03 3.952e-09
 36.25564     -7.6 9.163e+03 3.081e-09
 36.27520     -9.3 9.117e+03 2.735e-09
 36.30464    -12.0 9.075e+03 2.547e-09
 36.34386    -14.8 8.868e+03 2.584e-09
 36.38298    -16.0 8.920e+03 3.027e-09
 36.42210    -16.6 8.909e+03 3.064e-09
 36.46122    -16.7 8.807e+03 2.593e-09
 36.50035    -16.8 8.795e+03 2.217e-09
 36.53947    -16.8 8.968e+03 2.238e-09
 36.57859    -19.5 1.006e+04 5.154e-09
 36.60783    -20.6 1.140e+04 1.545e-08
 36.62730    -21.7 1.215e+04 2.476e-08
 36.64686    -20.9 1.299e+04 3.766e-08
 36.66642    -20.9 1.305e+04 3.667e-08
 36.68598    -21.2 1.243e+04 2.026e-08
 36.70554    -23.3 1.162e+04 1.050e-08
 36.73498    -24.6 1.080e+04 6.505e-09
 36.76642    -24.8 1.026e+04 4.321e-09
 36.78598    -24.5 9.931e+03 3.388e-09
 36.81332    -23.4 9.721e+03 1.773e-09
 36.85244    -22.8 9.861e+03 1.001e-09
 36.89156    -22.1 9.864e+03 7.506e-10
 36.93068    -21.3 9.826e+03 7.008e-10
 36.96980    -20.1 9.844e+03 7.153e-10
 37.00893    -18.8 9.859e+03 7.792e-10
 37.04805    -17.4 9.869e+03 7.891e-10
 37.08717    -16.0 9.968e+03 7.328e-10
 37.12629    -15.2 1.021e+04 7.304e-10
 37.16541    -15.6 1.042e+04 1.076e-09
 37.20453    -15.2 1.037e+04 2.543e-09
 37.24365    -14.2 1.084e+04 4.142e-09
 37.28278    -14.3 1.099e+04 4.270e-09
 37.32190    -15.0 1.125e+04 2.592e-09
 37.36102    -16.8 1.135e+04 1.878e-09
 37.40014    -18.4 1.157e+04 2.362e-09
 37.43926    -19.2 1.177e+04 4.934e-09
 37.47465    -20.0 1.208e+04 6.114e-09
 37.49421    -20.3 1.215e+04 5.343e-09
 37.51750    -22.3 1.230e+04 3.958e-09
 37.55663    -24.1 1.220e+04 2.660e-09
 37.59575    -25.1 1.217e+04 2.412e-09
 37.63487    -26.1 1.256e+04 2.701e-09
 37.67399    -27.9 1.292e+04 5.792e-09
 37.71311    -29.1 1.357e+04 1.340e-08
 37.74236    -29.7 1.396e+04 1.769e-08
 37.76182    -31.0 1.411e+04 1.893e-08
 37.79126    -33.8 1.399e+04 1.649e-08
 37.83048    -36.0 1.352e+04 7.617e-09
 37.86960    -37.9 1.305e+04 3.558e-09
 37.90872    -39.1 1.294e+04 2.744e-09
 37.94784    -39.8 1.297e+04 2.673e-09
 37.98696    -40.2 1.285e+04 2.978e-09
 38.02608    -40.5 1.261e+04 2.980e-09
 38.06521    -40.2 1.235e+04 2.295e-09
 38.10433    -39.8 1.229e+04 1.480e-09
 38.14345    -39.3 1.231e+04 1.015e-09
 38.18257    -38.6 1.226e+04 8.497e-10
 38.20245    -37.9 1.218e+04 8.098e-10
 38.22201    -38.5 1.219e+04 6.667e-10
 38.26081    -37.8 1.213e+04 6.796e-10
 38.29993    -37.2 1.195e+04 7.729e-10
 38.33906    -36.5 1.180e+04 8.793e-10
 38.37818    -35.9 1.169e+04 9.261e-10
 38.41730    -35.2 1.161e+04 9.307e-10
 38.45642    -34.4 1.154e+04 8.478e-10
 38.49554    -33.8 1.153e+04 7.515e-10
 38.53466    -33.2 1.146e+04 6.994e-10
 38.57379    -32.5 1.140e+04 6.845e-10
 38.61291    -31.5 1.126e+04 7.113e-10
 38.65203    -30.5 1.119e+04 7.817e-10
 38.68582    -29.6 1.115e+04 8.732e-10
 38.70538    -29.5 1.108e+04 9.700e-10
 38.73027    -28.9 1.103e+04 1.069e-09
 38.76939    -28.5 1.097e+04 1.245e-09
 38.80851    -28.1 1.091e+04 1.470e-09
 38.84764    -27.8 1.089e+04 1.619e-09
 38.88676    -27.8 1.088e+04 1.656e-09
 38.91068    -27.9 1.077e+04 1.702e-09
 38.93024    -28.3 1.076e+04 2.440e-09
 38.96500    -28.4 1.060e+04 2.432e-09
 39.00412    -28.2 1.039e+04 2.309e-09
 39.04324    -27.9 1.030e+04 1.943e-09
 39.08236    -27.9 1.021e+04 1.544e-09
 39.12149    -28.6 1.026e+04 1.336e-09
 39.16061    -29.9 1.043e+04 1.417e-09
 39.19973    -31.2 1.034e+04 2.326e-09
 39.23885    -31.9 1.031e+04 3.297e-09
 39.27797    -33.0 1.026e+04 3.404e-09
 39.31709    -34.2 9.991e+03 2.318e-09
 39.35622    -35.5 9.747e+03 1.366e-09
 39.39534    -36.0 9.486e+03 9.391e-10
 39.43446    -36.0 9.339e+03 6.534e-10
 39.47358    -35.6 9.265e+03 4.579e-10
 39.51270    -35.4 9.284e+03 4.060e-10
 39.55182    -35.4 9.435e+03 4.414e-10
 39.59094    -35.7 9.351e+03 8.308e-10
 39.61891    -35.2 9.389e+03 1.575e-09
 39.63847    -35.7 9.434e+03 1.604e-09
 39.66919    -35.5 9.554e+03 2.005e-09
 39.70831    -35.6 9.586e+03 2.105e-09
 39.74743    -35.6 9.393e+03 1.993e-09
 39.78655    -35.3 9.244e+03 1.429e-09
 39.82567    -34.9 9.159e+03 8.816e-10
 39.86480    -34.6 9.074e+03 5.707e-10
 39.90392    -34.1 9.027e+03 4.853e-10
 39.94304    -33.2 9.017e+03 4.774e-10
 39.98216    -32.1 9.051e+03 5.202e-10
 40.02128    -30.8 9.114e+03 5.472e-10
 40.06040    -29.6 9.190e+03 5.518e-10
 40.09952    -29.0 9.416e+03 5.630e-10
 40.13865    -28.9 9.627e+03 7.009e-10
 40.17777    -28.5 9.625e+03 1.101e-09
 40.21689    -27.5 9.739e+03 1.408e-09
 40.25601    -26.5 9.776e+03 1.418e-09
 40.29513    -25.5 9.836e+03 9.886e-10
 40.32714    -24.5 9.910e+03 6.518e-10
 40.34671    -25.4 9.857e+03 5.355e-10
 40.37337    -24.2 9.839e+03 5.139e-10
 40.41250    -22.9 1.004e+04 5.600e-10
 40.45162    -21.7 1.009e+04 7.775e-10
 40.49074    -20.3 1.024e+04 1.193e-09
 40.52986    -19.3 1.056e+04 2.036e-09
 40.56898    -19.0 1.107e+04 4.028e-09
 40.60810    -19.2 1.186e+04 8.133e-09
 40.63735    -19.3 1.263e+04 1.346e-08
 40.65681    -21.0 1.323e+04 1.841e-08
 40.67637    -22.5 1.395e+04 2.749e-08
 40.69085    -24.5 1.445e+04 3.580e-08
 40.70063    -24.7 1.378e+04 2.380e-08
 40.71549    -26.3 1.399e+04 2.533e-08
 40.73505    -27.9 1.395e+04 2.162e-08
 40.75461    -29.7 1.381e+04 1.507e-08
 40.77417    -31.9 1.379e+04 1.177e-08
 40.79374    -34.5 1.407e+04 1.166e-08
 40.81330    -38.4 1.511e+04 2.133e-08
 40.83286    -40.8 1.572e+04 5.093e-08
 40.85242    -42.0 1.635e+04 7.841e-08
 40.87198    -44.3 1.639e+04 7.939e-08
 40.89154    -46.4 1.555e+04 4.333e-08
 40.91110    -48.6 1.478e+04 2.185e-08
 40.93066    -50.1 1.460e+04 1.756e-08
 40.95022    -51.1 1.465e+04 1.718e-08
 40.96978    -52.6 1.509e+04 2.233e-08
 40.98934    -53.9 1.533e+04 3.294e-08
 41.00890    -55.0 1.544e+04 3.952e-08
 41.02846    -56.4 1.533e+04 3.703e-08
 41.04496    -57.9 1.491e+04 2.163e-08
 41.05474    -58.5 1.474e+04 1.994e-08
 41.06759    -60.2 1.429e+04 1.021e-08
 41.08715    -61.8 1.391e+04 7.658e-09
 41.10671    -62.5 1.381e+04 7.268e-09
 41.12627    -63.2 1.392e+04 8.506e-09
 41.14583    -64.0 1.430e+04 1.200e-08
 41.16539    -65.0 1.480e+04 1.724e-08
 41.18495    -66.1 1.516e+04 2.340e-08
 41.20451    -67.6 1.523e+04 2.817e-08
 41.22407    -68.9 1.504e+04 3.086e-08
 41.24363    -69.4 1.464e+04 3.110e-08
 41.26319    -69.5 1.420e+04 2.747e-08
 41.28275    -69.3 1.381e+04 2.185e-08
 41.30232    -69.0 1.341e+04 1.642e-08
 41.32188    -68.7 1.306e+04 1.223e-08
 41.35131    -68.4 1.271e+04 8.547e-09
 41.39053    -66.3 1.222e+04 5.180e-09
 41.42966    -64.0 1.203e+04 3.096e-09
 41.46878    -61.8 1.201e+04 2.050e-09
 41.50790    -59.8 1.195e+04 1.650e-09
 41.54702    -57.7 1.183e+04 1.541e-09
 41.58614    -55.5 1.174e+04 1.525e-09
 41.62526    -53.3 1.164e+04 1.539e-09
 41.66438    -51.0 1.158e+04 1.501e-09
 41.70351    -48.9 1.153e+04 1.353e-09
 41.74263    -47.0 1.157e+04 1.177e-09
 41.76317    -45.2 1.161e+04 1.124e-09
 41.78273    -45.7 1.168e+04 1.099e-09
 41.82087    -44.2 1.173e+04 1.277e-09
 41.85999    -42.6 1.180e+04 1.507e-09
 41.89911    -41.1 1.185e+04 1.589e-09
 41.93823    -39.5 1.184e+04 1.515e-09
 41.97736    -37.5 1.182e+04 1.223e-09
 42.01648    -35.7 1.170e+04 9.685e-10
 42.05560    -33.9 1.153e+04 8.365e-10
 42.09472    -32.2 1.146e+04 8.053e-10
 42.13384    -30.5 1.137e+04 8.630e-10
 42.17296    -29.0 1.127e+04 1.114e-09
 42.21209    -27.6 1.119e+04 1.578e-09
 42.25121    -26.2 1.120e+04 2.103e-09
 42.29033    -24.8 1.126e+04 2.432e-09
 42.32945    -23.6 1.125e+04 2.440e-09
 42.36857    -22.5 1.109e+04 2.387e-09
 42.40769    -21.2 1.081e+04 2.373e-09
 42.44681    -19.6 1.051e+04 1.997e-09
 42.47140    -18.0 1.044e+04 1.361e-09
 42.49096    -18.5 1.049e+04 1.231e-09
 42.52506    -17.3 1.041e+04 9.471e-10
 42.56418    -15.8 1.036e+04 9.254e-10
 42.60330    -14.3 1.019e+04 1.188e-09
 42.64242    -12.2 1.011e+04 1.529e-09
 42.68154    -10.1 1.008e+04 1.688e-09
 42.72067     -8.2 1.005e+04 1.685e-09
 42.75979     -6.7 1.009e+04 1.584e-09
 42.79891     -6.0 1.036e+04 1.847e-09
 42.83803     -5.6 1.046e+04 3.101e-09
 42.87715     -4.9 1.064e+04 4.629e-09
 42.91627     -4.5 1.062e+04 5.000e-09
 42.95539     -4.0 1.047e+04 3.791e-09
 42.99452     -3.6 1.040e+04 2.417e-09
 43.03364     -3.5 1.050e+04 1.940e-09
 43.07276     -3.9 1.070e+04 2.906e-09
 43.11188     -3.7 1.098e+04 4.750e-09
 43.15100     -3.4 1.123e+04 6.244e-09
 43.17964     -3.7 1.152e+04 5.812e-09
 43.19920     -4.5 1.136e+04 3.780e-09
 43.22924     -4.8 1.113e+04 3.080e-09
 43.26837     -5.3 1.081e+04 2.741e-09
 43.30749     -5.5 1.057e+04 2.824e-09
 43.34661     -5.8 1.048e+04 2.629e-09
 43.38573     -5.9 1.030e+04 2.032e-09
 43.42485     -6.0 9.930e+03 1.355e-09
 43.46397     -5.9 9.841e+03 8.418e-10
 43.50310     -6.4 9.916e+03 5.901e-10
 43.54222     -6.7 9.794e+03 7.116e-10
 43.58134     -6.9 9.875e+03 1.062e-09
 43.62046     -7.1 1.005e+04 1.660e-09
 43.65958     -7.5 1.016e+04 2.282e-09
 43.69870     -9.7 1.044e+04 2.424e-09
 43.73782    -12.1 1.023e+04 3.170e-09
 43.77695    -13.9 1.013e+04 3.116e-09
 43.81607    -14.8 9.878e+03 2.322e-09
 43.85519    -15.1 9.664e+03 1.906e-09
 43.88787    -14.4 9.519e+03 1.459e-09
 43.90743    -13.8 9.606e+03 1.711e-09
 43.93343    -13.0 9.594e+03 1.258e-09
 43.97255    -12.5 9.529e+03 1.067e-09
 44.01167    -11.6 9.512e+03 1.056e-09
 44.05080    -10.7 9.574e+03 1.133e-09
 44.08992    -10.1 9.739e+03 1.274e-09
 44.12904     -9.3 9.742e+03 1.540e-09
 44.16816     -8.4 9.813e+03 1.558e-09
 44.20728     -7.9 9.998e+03 1.336e-09
 44.24640     -7.7 9.995e+03 1.337e-09
 44.28553     -8.0 1.032e+04 1.566e-09
 44.32465     -8.7 1.062e+04 2.533e-09
 44.36377     -9.1 1.088e+04 4.722e-09
 44.40289     -9.1 1.112e+04 6.253e-09
 44.44201     -9.6 1.142e+04 3.864e-09
 44.48113    -10.9 1.143e+04 2.060e-09
 44.52025    -11.9 1.106e+04 1.558e-09
 44.55938    -12.1 1.102e+04 1.337e-09
 44.59610    -12.3 1.110e+04 1.102e-09
 44.61566    -11.9 1.106e+04 1.387e-09
 44.63762    -12.1 1.101e+04 1.326e-09
 44.67674    -12.0 1.100e+04 1.361e-09
 44.71586    -11.6 1.105e+04 1.369e-09
 44.75498    -11.0 1.110e+04 1.292e-09
 44.79410    -10.2 1.112e+04 1.190e-09
 44.83323     -9.3 1.115e+04 1.126e-09
 44.87235     -8.1 1.118e+04 1.154e-09
 44.91147     -7.0 1.141e+04 1.250e-09
 44.95059     -6.9 1.188e+04 1.795e-09
 44.98971     -6.4 1.183e+04 4.557e-09
 45.02883     -4.7 1.212e+04 8.239e-09
 45.06796     -4.0 1.236e+04 8.040e-09
 45.10708     -3.7 1.267e+04 5.204e-09
 45.14620     -3.7 1.267e+04 4.503e-09
 45.18532     -3.4 1.272e+04 4.471e-09
 45.22444     -3.6 1.280e+04 4.635e-09
 45.26356     -4.8 1.323e+04 5.394e-09
 45.30268     -5.9 1.365e+04 7.676e-09
 45.32380     -6.3 1.366e+04 9.115e-09
 45.33348     -5.9 1.353e+04 1.059e-08
 45.35139     -5.7 1.359e+04 1.123e-08
 45.38083     -5.9 1.388e+04 9.685e-09
 45.42005     -8.4 1.363e+04 8.544e-09
 45.45917     -9.5 1.344e+04 1.030e-08
 45.49829    -10.0 1.334e+04 1.071e-08
 45.53741     -9.9 1.334e+04 6.515e-09
 45.57653    -10.2 1.330e+04 3.342e-09
 45.61566    -10.3 1.315e+04 2.498e-09
 45.65478     -9.0 1.314e+04 2.425e-09
 45.69390     -7.7 1.301e+04 2.786e-09
 45.73302     -6.0 1.305e+04 2.929e-09
 45.77214     -4.7 1.331e+04 2.757e-09
 45.81126     -3.9 1.339e+04 2.790e-09
 45.85039     -3.0 1.326e+04 3.148e-09
 45.88951     -1.8 1.312e+04 3.229e-09
 45.92863     -0.6 1.343e+04 2.723e-09
 45.95787     -0.6 1.364e+04 3.495e-09
 45.97734     -0.7 1.381e+04 4.507e-09
 45.99690     -0.4 1.351e+04 7.344e-09
 46.01646      0.8 1.348e+04 1.115e-08
 46.03193      1.3 1.419e+04 1.523e-08
 46.04171     -0.8 1.544e+04 2.176e-08
 46.05558     -5.0 1.764e+04 5.281e-08
 46.07020     -8.3 1.837e+04 1.339e-07
 46.07993     -9.5 1.837e+04 2.851e-07
 46.08971    -10.4 1.798e+04 7.654e-07
 46.09949     -8.9 1.804e+04 1.210e-06
 46.10927     -8.9 1.815e+04 9.051e-07
 46.11905     -8.5 1.871e+04 3.494e-07
 46.13377    -12.2 1.751e+04 9.630e-08
 46.15338    -13.9 1.551e+04 3.087e-08
 46.17294    -13.8 1.461e+04 1.840e-08
 46.19250    -12.0 1.412e+04 1.327e-08
 46.21206    -10.5 1.399e+04 8.667e-09
 46.24150     -9.8 1.375e+04 4.233e-09
 46.27084     -9.9 1.286e+04 2.891e-09
 46.29031    -11.3 1.357e+04 3.163e-09
 46.30987    -10.6 1.343e+04 3.855e-09
 46.32943    -16.6 1.675e+04 6.905e-09
 46.34899    -24.6 1.940e+04 4.387e-08
 46.36361    -25.5 1.774e+04 4.308e-07
 46.37334    -24.8 1.755e+04 5.283e-07
 46.38312    -24.1 1.760e+04 3.810e-07
 46.39084    -24.1 1.739e+04 2.523e-07
 46.39573    -24.1 1.739e+04 2.306e-07
 46.40762    -26.7 1.630e+04 5.959e-08
 46.42723    -29.7 1.525e+04 7.863e-09
 46.44679    -32.0 1.396e+04 3.036e-09
 46.46635    -30.9 1.362e+04 2.368e-09
 46.48591    -29.6 1.350e+04 1.947e-09
 46.51535    -28.9 1.336e+04 1.674e-09
 46.55457    -27.3 1.321e+04 1.581e-09
 46.59369    -25.4 1.289e+04 1.426e-09
 46.63282    -23.7 1.276e+04 1.331e-09
 46.67194    -22.3 1.266e+04 1.309e-09
 46.71106    -21.2 1.259e+04 1.412e-09
 46.74036    -20.1 1.260e+04 1.706e-09
 46.75992    -19.5 1.257e+04 1.593e-09
 46.78930    -18.3 1.259e+04 1.784e-09
 46.82842    -17.2 1.262e+04 1.750e-09
 46.86754    -16.0 1.261e+04 1.407e-09
 46.90667    -15.2 1.280e+04 9.629e-10
 46.94579    -15.2 1.296e+04 7.681e-10
 46.98491    -16.9 1.274e+04 1.220e-09
 47.02403    -18.4 1.255e+04 4.276e-09
 47.06315    -19.5 1.317e+04 8.023e-09
 47.10227    -23.7 1.326e+04 7.582e-09
 47.14140    -27.5 1.299e+04 5.084e-09
 47.18052    -29.9 1.281e+04 4.302e-09
 47.20976    -31.1 1.272e+04 3.930e-09
 47.22922    -31.4 1.269e+04 3.293e-09
 47.25866    -32.2 1.245e+04 2.585e-09
 47.29788    -32.7 1.231e+04 1.732e-09
 47.33700    -33.1 1.240e+04 1.251e-09
 47.37612    -33.4 1.243e+04 1.132e-09
 47.41525    -33.6 1.246e+04 1.140e-09
 47.44859    -34.0 1.244e+04 1.337e-09
 47.46815    -34.0 1.244e+04 1.099e-09
 47.49349    -34.1 1.233e+04 1.256e-09
 47.53261    -34.2 1.229e+04 1.276e-09
 47.57173    -34.1 1.234e+04 1.098e-09
 47.61085    -34.3 1.245e+04 8.829e-10
 47.64997    -34.7 1.264e+04 8.402e-10
 47.68910    -34.9 1.279e+04 1.057e-09
 47.72822    -34.7 1.267e+04 1.370e-09
 47.76734    -34.3 1.262e+04 1.422e-09
 47.80646    -33.6 1.251e+04 1.170e-09
 47.84558    -32.7 1.246e+04 8.671e-10
 47.88470    -31.6 1.236e+04 6.937e-10
 47.92383    -30.2 1.223e+04 5.916e-10
 47.96295    -28.4 1.220e+04 4.822e-10
 48.00207    -26.5 1.218e+04 3.886e-10
 48.04119    -24.6 1.220e+04 3.342e-10
 48.08031    -22.9 1.231e+04 3.216e-10
 48.11943    -22.4 1.253e+04 4.608e-10
 48.15682    -22.0 1.209e+04 1.192e-09
 48.17639    -21.8 1.213e+04 2.090e-09
 48.19768    -20.8 1.238e+04 3.530e-09
 48.23680    -20.4 1.258e+04 4.089e-09
 48.27592    -20.3 1.270e+04 3.273e-09
 48.31504    -19.5 1.289e+04 1.508e-09
 48.35416    -18.8 1.303e+04 6.965e-10
 48.39328    -17.8 1.306e+04 5.092e-10
 48.43240    -15.9 1.308e+04 4.930e-10
 48.47153    -14.2 1.301e+04 5.790e-10
 48.51065    -12.2 1.293e+04 7.142e-10
 48.54977    -10.1 1.305e+04 8.053e-10
 48.58889     -8.4 1.316e+04 8.849e-10
 48.62801     -7.2 1.323e+04 1.100e-09
 48.66713     -6.0 1.302e+04 1.732e-09
 48.70626     -4.4 1.303e+04 2.366e-09
 48.74538     -2.6 1.312e+04 2.523e-09
 48.78450     -1.1 1.327e+04 2.237e-09
 48.82362      0.3 1.350e+04 1.855e-09
 48.86274      1.5 1.343e+04 1.650e-09
 48.88462      3.1 1.382e+04 1.347e-09
 48.90418      2.7 1.361e+04 2.045e-09
 48.94098      4.1 1.391e+04 1.941e-09
 48.98011      5.5 1.386e+04 1.980e-09
 49.01923      7.4 1.380e+04 1.963e-09
 49.05835      9.3 1.385e+04 1.938e-09
 49.09747     11.0 1.388e+04 2.076e-09
 49.13659     12.7 1.379e+04 2.346e-09
 49.17571     14.4 1.378e+04 2.476e-09
 49.21484     16.1 1.366e+04 2.628e-09
 49.25396     17.8 1.352e+04 3.061e-09
 49.29308     19.7 1.338e+04 3.699e-09
 49.33220     21.6 1.337e+04 4.016e-09
 49.37132     23.5 1.333e+04 3.985e-09
 49.41044     25.4 1.325e+04 3.769e-09
 49.44956     27.4 1.319e+04 3.358e-09
 49.48869     29.4 1.313e+04 2.867e-09
 49.52781     31.5 1.308e+04 2.279e-09
 49.56693     33.7 1.307e+04 1.694e-09
 49.59285     35.7 1.307e+04 1.322e-09
 49.61241     35.3 1.291e+04 1.189e-09
 49.64517     37.5 1.283e+04 1.196e-09
 49.68429     39.8 1.269e+04 1.306e-09
 49.72341     42.1 1.258e+04 1.528e-09
 49.76254     44.4 1.254e+04 1.703e-09
 49.80166     46.4 1.253e+04 1.708e-09
 49.84078     48.3 1.248e+04 1.639e-09
 49.87990     50.2 1.237e+04 1.529e-09
 49.91902     52.0 1.225e+04 1.432e-09
 49.95814     53.9 1.218e+04 1.360e-09
 49.99727     55.7 1.207e+04 1.312e-09
 50.03639     57.6 1.193e+04 1.317e-09
 50.07551     59.6 1.188e+04 1.356e-09
 50.11463     61.8 1.177e+04 1.549e-09
 50.15375     63.9 1.197e+04 2.014e-09
 50.18299     64.8 1.207e+04 2.333e-09
 50.20246     65.5 1.212e+04 2.836e-09
 50.22202     66.3 1.220e+04 3.834e-09
 50.24158     67.1 1.237e+04 5.321e-09
 50.26114     67.7 1.260e+04 7.286e-09
 50.28070     68.1 1.288e+04 9.553e-09
 50.30026     68.2 1.313e+04 1.193e-08
 50.31067     68.2 1.345e+04 1.461e-08
 50.32045     68.8 1.350e+04 1.470e-08
 50.33938     68.3 1.383e+04 1.912e-08
 50.35894     67.5 1.415e+04 2.341e-08
 50.37850     66.1 1.442e+04 2.461e-08
 50.39807     64.1 1.447e+04 2.381e-08
 50.41763     61.9 1.439e+04 2.100e-08
 50.43719     59.4 1.408e+04 1.752e-08
 50.45675     57.3 1.366e+04 1.439e-08
 50.47631     55.5 1.333e+04 1.170e-08
 50.49587     54.2 1.302e+04 9.411e-09
 50.51543     53.7 1.273e+04 7.523e-09
 50.53499     53.9 1.248e+04 5.812e-09
 50.55455     54.1 1.227e+04 4.315e-09
 50.58399     54.5 1.201e+04 3.225e-09
 50.62321     56.1 1.174e+04 2.260e-09
 50.66233     58.1 1.155e+04 1.973e-09
 50.70145     60.4 1.147e+04 1.922e-09
 50.74057     62.6 1.143e+04 1.901e-09
 50.77970     64.8 1.147e+04 1.877e-09
 50.81882     66.9 1.158e+04 1.846e-09
 50.85794     68.9 1.173e+04 1.911e-09
 50.89706     70.5 1.199e+04 2.126e-09
 50.93618     71.4 1.227e+04 2.897e-09
 50.96542     71.9 1.235e+04 3.975e-09
 50.98489     72.2 1.245e+04 5.146e-09
 51.00445     72.6 1.258e+04 6.056e-09
 51.01890     72.8 1.271e+04 6.601e-09
 51.02868     72.6 1.295e+04 8.366e-09
 51.04357     72.7 1.304e+04 8.379e-09
 51.06313     72.8 1.312e+04 8.228e-09
 51.08269     72.9 1.319e+04 7.956e-09
 51.10225     72.9 1.320e+04 7.727e-09
 51.12181     73.1 1.323e+04 7.575e-09
 51.14137     73.2 1.325e+04 7.427e-09
 51.16093     73.3 1.326e+04 7.370e-09
 51.18050     73.4 1.327e+04 7.442e-09
 51.20006     73.4 1.330e+04 7.662e-09
 51.21962     73.2 1.338e+04 8.195e-09
 51.23918     72.7 1.361e+04 9.839e-09
 51.25874     71.5 1.402e+04 1.420e-08
 51.27830     70.1 1.441e+04 2.192e-08
 51.29786     68.5 1.449e+04 2.650e-08
 51.31742     66.7 1.435e+04 2.559e-08
 51.33698     65.2 1.386e+04 2.099e-08
 51.35654     63.8 1.322e+04 1.378e-08
 51.37302     62.5 1.262e+04 7.850e-09
 51.38280     63.3 1.273e+04 8.804e-09
 51.39566     62.2 1.225e+04 4.257e-09
 51.41522     61.1 1.206e+04 2.529e-09
 51.44466     59.9 1.156e+04 1.429e-09
 51.48388     59.5 1.118e+04 1.296e-09
 51.52300     59.7 1.114e+04 1.379e-09
 51.56213     59.9 1.126e+04 1.710e-09
 51.59137     59.6 1.137e+04 2.158e-09
 51.61083     59.1 1.147e+04 2.734e-09
 51.63039     58.0 1.177e+04 3.574e-09
 51.64995     54.8 1.256e+04 6.455e-09
 51.66951     50.7 1.361e+04 1.733e-08
 51.68908     47.6 1.411e+04 3.511e-08
 51.70864     45.2 1.403e+04 3.900e-08
 51.72713     43.2 1.373e+04 3.165e-08
 51.73691     42.3 1.349e+04 2.541e-08
 51.74776     38.4 1.303e+04 1.757e-08
 51.76732     35.1 1.265e+04 1.707e-08
 51.78688     33.0 1.262e+04 1.872e-08
 51.80644     31.4 1.304e+04 2.372e-08
 51.82600     28.3 1.427e+04 3.580e-08
 51.84556     23.8 1.652e+04 8.858e-08
 51.86512     19.0 1.804e+04 1.833e-07
 51.87974     16.5 1.832e+04 2.089e-07
 51.88948     14.4 1.832e+04 2.141e-07
 51.89926     12.3 1.818e+04 2.062e-07
 51.90898     10.2 1.791e+04 1.788e-07
 51.91387      8.9 1.765e+04 1.640e-07
 51.92376      6.0 1.709e+04 1.269e-07
 51.94336      2.3 1.562e+04 7.327e-08
 51.96293     -0.5 1.407e+04 3.830e-08
 51.98249     -2.1 1.244e+04 2.189e-08
 52.00205     -3.0 1.169e+04 1.080e-08
 52.02161     -4.6 1.114e+04 5.999e-09
 52.04117     -6.1 1.046e+04 4.142e-09
 52.06073     -7.0 1.028e+04 3.208e-09
 52.08029     -7.7 1.021e+04 3.032e-09
 52.09103     -8.4 1.031e+04 3.072e-09
 52.10081     -8.5 1.020e+04 2.935e-09
 52.11941     -9.6 1.016e+04 3.623e-09
 52.13897    -10.9 1.045e+04 5.200e-09
 52.15853    -13.0 1.085e+04 7.962e-09
 52.17809    -14.8 1.084e+04 1.230e-08
 52.19765    -15.1 1.095e+04 1.564e-08
 52.21722    -15.3 1.078e+04 1.473e-08
 52.23678    -15.8 1.031e+04 9.469e-09
 52.25634    -17.8 9.608e+03 5.233e-09
 52.27590    -19.7 9.142e+03 3.376e-09
 52.29546    -20.9 8.894e+03 2.624e-09
 52.31502    -21.1 8.828e+03 2.596e-09
 52.34446    -20.9 8.889e+03 2.587e-09
 52.38368    -20.0 9.017e+03 2.493e-09
 52.42280    -19.0 9.232e+03 2.527e-09
 52.44534    -18.6 9.733e+03 2.466e-09
 52.46490    -17.8 9.628e+03 2.334e-09
 52.50104    -18.0 1.010e+04 2.693e-09
 52.53029    -18.7 1.014e+04 3.602e-09
 52.54975    -18.6 1.037e+04 4.600e-09
 52.56931    -18.1 1.062e+04 5.503e-09
 52.58887    -17.6 1.092e+04 5.969e-09
 52.60843    -17.2 1.120e+04 6.208e-09
 52.62799    -17.3 1.128e+04 6.030e-09
 52.65743    -15.9 1.130e+04 5.832e-09
 52.69665    -15.2 1.166e+04 8.150e-09
 52.72589    -15.8 1.236e+04 1.471e-08
 52.74536    -17.0 1.314e+04 2.274e-08
 52.76492    -18.1 1.396e+04 3.745e-08
 52.78448    -18.9 1.480e+04 5.986e-08
 52.79926    -18.9 1.528e+04 7.911e-08
 52.80904    -18.5 1.551e+04 8.552e-08
 52.82360    -19.2 1.568e+04 7.648e-08
 52.84316    -21.2 1.510e+04 3.663e-08
 52.86272    -25.7 1.286e+04 1.182e-08
 52.88228    -28.4 1.153e+04 8.849e-09
 52.90184    -29.9 1.135e+04 7.667e-09
 52.92140    -30.4 1.140e+04 7.258e-09
 52.94096    -31.3 1.151e+04 7.225e-09
 52.96052    -32.0 1.191e+04 7.332e-09
 52.98008    -34.0 1.246e+04 1.181e-08
 52.99965    -35.8 1.317e+04 2.208e-08
 53.01921    -36.9 1.414e+04 3.684e-08
 53.03877    -39.3 1.493e+04 4.077e-08
 53.05833    -44.3 1.519e+04 3.255e-08
 53.07789    -49.4 1.465e+04 2.458e-08
 53.09745    -52.3 1.426e+04 2.194e-08
 53.11701    -53.5 1.388e+04 1.773e-08
 53.13657    -54.1 1.351e+04 1.321e-08
 53.15338    -54.5 1.323e+04 1.041e-08
 53.16316    -54.7 1.333e+04 1.172e-08
 53.17569    -54.8 1.312e+04 1.046e-08
 53.19525    -54.5 1.292e+04 9.795e-09
 53.21481    -54.0 1.276e+04 9.259e-09
 53.23437    -53.6 1.264e+04 8.650e-09
 53.25394    -53.2 1.250e+04 7.932e-09
 53.27350    -52.8 1.234e+04 7.159e-09
 53.29306    -52.4 1.216e+04 6.359e-09
 53.32250    -51.7 1.190e+04 5.310e-09
 53.36171    -50.0 1.157e+04 3.804e-09
 53.40084    -48.6 1.133e+04 3.201e-09
 53.43996    -47.2 1.123e+04 2.977e-09
 53.47908    -46.0 1.109e+04 3.096e-09
 53.51820    -44.8 1.103e+04 3.218e-09
 53.55732    -43.6 1.091e+04 3.205e-09
 53.59644    -42.2 1.073e+04 2.947e-09
 53.63557    -40.8 1.065e+04 2.606e-09
 53.67469    -39.5 1.056e+04 2.420e-09
 53.71381    -38.2 1.045e+04 2.238e-09
 53.75293    -36.8 1.033e+04 1.938e-09
 53.78428    -35.4 1.023e+04 1.588e-09
 53.80384    -35.5 1.034e+04 1.971e-09
 53.83117    -33.9 1.020e+04 1.625e-09
 53.86181    -32.2 1.007e+04 1.432e-09
 53.88137    -32.7 1.005e+04 1.246e-09
 53.90942    -31.0 9.999e+03 1.157e-09
 53.94854    -29.2 9.966e+03 1.142e-09
 53.98766    -27.5 9.966e+03 1.174e-09
 54.02678    -25.8 9.990e+03 1.271e-09
 54.06590    -24.2 1.003e+04 1.429e-09
 54.10502    -22.7 1.007e+04 1.618e-09
 54.14414    -21.3 1.014e+04 1.789e-09
 54.18327    -20.1 1.027e+04 1.975e-09
 54.22239    -19.7 1.048e+04 2.465e-09
 54.25163    -19.3 1.077e+04 3.815e-09
 54.27109    -19.6 1.082e+04 4.124e-09
 54.29066    -19.2 1.132e+04 7.032e-09
 54.31022    -19.4 1.150e+04 8.558e-09
 54.32978    -18.9 1.174e+04 9.932e-09
 54.34934    -18.9 1.168e+04 9.064e-09
 54.36890    -18.8 1.156e+04 6.816e-09
 54.38846    -18.9 1.151e+04 5.066e-09
 54.40802    -19.5 1.132e+04 3.754e-09
 54.42758    -19.6 1.123e+04 3.226e-09
 54.45702    -19.8 1.106e+04 2.683e-09
 54.49624    -19.3 1.092e+04 2.522e-09
 54.53536    -18.0 1.075e+04 2.127e-09
 54.57004    -16.4 1.082e+04 1.284e-09
 54.58960    -16.6 1.090e+04 1.452e-09
 54.61360    -15.6 1.103e+04 8.121e-10
 54.65272    -14.9 1.095e+04 6.603e-10
 54.69185    -13.8 1.127e+04 7.000e-10
 54.73097    -14.1 1.113e+04 1.428e-09
 54.77009    -13.4 1.130e+04 3.661e-09
 54.80921    -13.1 1.180e+04 7.035e-09
 54.83845    -12.8 1.204e+04 8.257e-09
 54.85792    -12.6 1.225e+04 6.457e-09
 54.87748    -13.4 1.251e+04 4.431e-09
 54.89704    -14.5 1.235e+04 3.847e-09
 54.92648    -15.0 1.236e+04 3.792e-09
 54.96570    -15.0 1.243e+04 4.834e-09
 55.00482    -14.4 1.260e+04 6.122e-09
 55.04394    -13.8 1.271e+04 6.140e-09
 55.07318    -13.4 1.301e+04 5.356e-09
 55.09265    -12.9 1.290e+04 4.839e-09
 55.12208    -12.4 1.325e+04 3.345e-09
 55.16130    -11.9 1.317e+04 3.089e-09
 55.20043    -11.1 1.292e+04 3.363e-09
 55.23955     -9.6 1.274e+04 2.740e-09
 55.27827     -8.3 1.274e+04 1.837e-09
 55.29783     -8.5 1.275e+04 2.433e-09
 55.31779     -7.5 1.265e+04 1.878e-09
 55.35691     -5.7 1.252e+04 1.891e-09
 55.39603     -3.8 1.255e+04 1.877e-09
 55.43515     -1.5 1.258e+04 1.668e-09
 55.47428      0.7 1.273e+04 1.407e-09
 55.51340      2.9 1.283e+04 1.312e-09
 55.55252      5.2 1.290e+04 1.368e-09
 55.59164      7.2 1.295e+04 1.665e-09
 55.63076      9.2 1.290e+04 2.763e-09
 55.66988     11.1 1.301e+04 4.493e-09
 55.69913     11.2 1.344e+04 4.869e-09
 55.71859     11.1 1.347e+04 4.803e-09
 55.73815     10.3 1.363e+04 5.405e-09
 55.75771      9.2 1.372e+04 6.592e-09
 55.77727      8.2 1.354e+04 9.205e-09
 55.79683     -0.3 1.874e+04 2.470e-08
 55.81145     -9.0 1.879e+04 1.112e-07
 55.82119    -10.5 1.831e+04 2.526e-07
 55.82872     -9.6 1.741e+04 5.960e-07
 55.83361    -10.3 1.732e+04 6.239e-07
 55.84075     -9.0 1.790e+04 4.027e-07
 55.85547    -12.7 1.926e+04 1.026e-07
 55.87508    -21.3 1.585e+04 1.817e-08
 55.89464    -23.4 1.417e+04 1.026e-08
 55.91420    -23.4 1.385e+04 7.823e-09
 55.93376    -22.7 1.352e+04 6.434e-09
 55.95332    -21.7 1.344e+04 5.591e-09
 55.97288    -20.8 1.349e+04 4.879e-09
 55.99244    -20.3 1.344e+04 4.303e-09
 56.00587    -19.7 1.337e+04 4.151e-09
 56.01565    -20.2 1.347e+04 4.314e-09
 56.03156    -19.4 1.343e+04 4.488e-09
 56.05112    -18.6 1.332e+04 4.502e-09
 56.07068    -17.7 1.329e+04 4.276e-09
 56.09024    -16.9 1.329e+04 3.908e-09
 56.10981    -16.4 1.323e+04 3.516e-09
 56.13924    -15.3 1.318e+04 3.042e-09
 56.17846    -13.7 1.292e+04 2.628e-09
 56.21758    -12.0 1.301e+04 2.571e-09
 56.25671    -10.7 1.284e+04 3.310e-09
 56.29583     -8.9 1.296e+04 3.877e-09
 56.33495     -7.7 1.292e+04 3.646e-09
 56.37407     -6.7 1.281e+04 3.295e-09
 56.41319     -5.3 1.248e+04 3.417e-09
 56.45231     -3.5 1.225e+04 3.330e-09
 56.49144     -1.3 1.218e+04 2.424e-09
 56.53056      0.4 1.237e+04 1.454e-09
 56.56968      1.8 1.228e+04 1.242e-09
 56.60880      3.5 1.221e+04 1.378e-09
 56.64792      5.5 1.223e+04 1.654e-09
 56.68704      7.4 1.236e+04 1.930e-09
 56.71430      8.9 1.249e+04 2.228e-09
 56.73386      8.5 1.261e+04 2.368e-09
 56.76529      9.7 1.281e+04 2.750e-09
 56.80441     11.1 1.295e+04 3.166e-09
 56.84353     12.6 1.316e+04 3.065e-09
 56.88265     14.0 1.344e+04 2.746e-09
 56.92177     15.1 1.381e+04 2.512e-09
 56.96089     16.2 1.416e+04 2.438e-09
 57.00001     17.3 1.446e+04 2.397e-09
 57.03914     17.9 1.483e+04 2.504e-09
 57.06832     17.9 1.498e+04 2.755e-09
 57.08778     18.1 1.492e+04 3.362e-09
 57.10740     18.5 1.482e+04 4.349e-09
 57.12696     19.1 1.485e+04 5.144e-09
 57.14653     19.1 1.497e+04 5.855e-09
 57.16609     18.5 1.521e+04 7.728e-09
 57.18565     17.3 1.543e+04 1.226e-08
 57.20521     16.2 1.553e+04 1.874e-08
 57.22477     15.1 1.549e+04 1.983e-08
 57.24433     13.9 1.541e+04 1.939e-08
 57.27377     13.4 1.493e+04 1.338e-08
 57.31299     13.7 1.461e+04 8.094e-09
 57.35211     14.6 1.448e+04 4.446e-09
 57.39123     16.0 1.411e+04 3.231e-09
 57.42253     18.7 1.385e+04 3.162e-09
 57.44209     19.2 1.401e+04 3.385e-09
 57.45959     20.4 1.384e+04 3.401e-09
 57.47906     20.9 1.382e+04 3.719e-09
 57.49862     21.6 1.365e+04 4.366e-09
 57.51818     22.4 1.353e+04 5.276e-09
 57.53774     23.2 1.341e+04 6.258e-09
 57.55730     24.0 1.343e+04 7.036e-09
 57.57686     24.6 1.339e+04 8.008e-09
 57.59642     25.1 1.329e+04 9.094e-09
 57.61598     25.7 1.320e+04 9.970e-09
 57.63554     26.4 1.316e+04 1.034e-08
 57.65510     27.1 1.323e+04 1.020e-08
 57.67467     27.6 1.319e+04 1.009e-08
 57.69423     28.2 1.317e+04 9.919e-09
 57.71379     28.8 1.318e+04 9.999e-09
 57.73335     29.2 1.321e+04 1.037e-08
 57.75291     29.6 1.319e+04 1.114e-08
 57.77247     30.0 1.315e+04 1.244e-08
 57.78623     30.2 1.317e+04 1.415e-08
 57.79601     30.7 1.314e+04 1.308e-08
 57.81159     30.9 1.331e+04 1.557e-08
 57.83115     31.0 1.341e+04 1.903e-08
 57.85071     31.0 1.354e+04 2.279e-08
 57.87027     31.0 1.372e+04 2.517e-08
 57.88983     30.8 1.376e+04 2.489e-08
 57.90939     30.8 1.368e+04 2.322e-08
 57.92896     30.9 1.350e+04 2.050e-08
 57.94852     31.1 1.330e+04 1.790e-08
 57.96808     31.3 1.315e+04 1.587e-08
 57.98764     31.7 1.297e+04 1.454e-08
 58.00720     32.1 1.285e+04 1.402e-08
 58.02676     32.6 1.283e+04 1.396e-08
 58.04632     33.1 1.283e+04 1.420e-08
 58.06588     33.5 1.278e+04 1.413e-08
 58.08544     34.0 1.269e+04 1.359e-08
 58.10500     34.4 1.253e+04 1.261e-08
 58.12456     34.8 1.229e+04 1.122e-08
 58.14035     35.3 1.200e+04 9.549e-09
 58.15013     35.8 1.188e+04 8.342e-09
 58.16368     36.3 1.165e+04 6.998e-09
 58.18325     36.8 1.145e+04 6.088e-09
 58.20281     37.4 1.125e+04 5.673e-09
 58.22237     38.1 1.112e+04 5.494e-09
 58.24193     38.8 1.104e+04 5.415e-09
 58.26149     39.4 1.099e+04 5.438e-09
 58.28105     40.1 1.094e+04 5.495e-09
 58.30061     40.7 1.089e+04 5.548e-09
 58.32017     41.4 1.085e+04 5.541e-09
 58.33973     41.8 1.083e+04 5.577e-09
 58.35929     42.6 1.077e+04 5.696e-09
 58.37885     43.0 1.078e+04 5.837e-09
 58.39841     44.1 1.072e+04 6.243e-09
 58.41797     44.9 1.076e+04 6.765e-09
 58.43753     45.6 1.073e+04 7.245e-09
 58.45710     46.3 1.076e+04 7.867e-09
 58.47666     47.0 1.090e+04 8.646e-09
 58.49447     47.6 1.111e+04 9.475e-09
 58.50425     49.0 1.152e+04 1.188e-08
 58.51578     49.6 1.183e+04 1.349e-08
 58.53534     50.1 1.201e+04 1.454e-08
 58.55490     50.6 1.196e+04 1.395e-08
 58.57446     51.4 1.203e+04 1.434e-08
 58.59402     51.9 1.222e+04 1.543e-08
 58.61358     52.5 1.258e+04 1.801e-08
 58.63314     53.1 1.309e+04 2.262e-08
 58.65270     53.8 1.358e+04 2.806e-08
 58.67226     54.6 1.385e+04 3.144e-08
 58.69182     55.2 1.377e+04 3.055e-08
 58.71139     55.9 1.334e+04 2.424e-08
 58.73095     56.2 1.208e+04 1.293e-08
 58.75051     53.8 1.128e+04 5.705e-09
 58.77007     44.1 1.488e+04 5.423e-09
 58.78469     35.9 2.009e+04 8.122e-09
 58.79442     17.1 2.546e+04 9.843e-08
 58.80420      9.7 1.948e+04 3.143e-06
 58.81151      0.7 1.388e+04 2.189e-04
 58.81638     -8.8 1.078e+04 4.563e-03
 58.82127    -22.2 1.479e+04 1.137e-04
 58.82616    -32.8 1.910e+04 4.582e-06
 58.83352    -38.7 2.032e+04 1.870e-06
 58.84332    -44.9 2.114e+04 4.384e-07
 58.85310    -46.4 2.024e+04 2.502e-07
 58.85826    -47.1 1.913e+04 1.544e-07
 58.86315    -46.4 1.912e+04 1.530e-07
 58.87266    -46.8 1.817e+04 1.066e-07
 58.88738    -46.8 1.723e+04 7.729e-08
 58.90699    -47.1 1.569e+04 4.758e-08
 58.92655    -47.3 1.425e+04 2.985e-08
 58.94611    -46.6 1.356e+04 2.265e-08
 58.96568    -45.6 1.308e+04 1.669e-08
 58.98524    -44.6 1.255e+04 1.211e-08
 59.00480    -43.6 1.204e+04 8.552e-09
 59.02436    -42.7 1.153e+04 6.092e-09
 59.04392    -41.7 1.107e+04 4.620e-09
 59.06348    -40.5 1.079e+04 3.788e-09
 59.08304    -39.4 1.060e+04 3.219e-09
 59.10260    -38.2 1.042e+04 2.843e-09
 59.12216    -36.8 1.035e+04 2.673e-09
 59.14172    -35.4 1.038e+04 2.650e-09
 59.16128    -34.4 1.064e+04 2.759e-09
 59.18084    -33.9 1.080e+04 3.132e-09
 59.20040    -33.2 1.098e+04 4.006e-09
 59.21248    -32.4 1.128e+04 5.361e-09
 59.22226    -33.4 1.150e+04 7.161e-09
 59.23953    -32.1 1.181e+04 8.627e-09
 59.26896    -30.7 1.197e+04 9.202e-09
 59.30818    -28.7 1.173e+04 9.399e-09
 59.34731    -26.7 1.135e+04 7.792e-09
 59.38643    -24.4 1.116e+04 6.622e-09
 59.42555    -21.7 1.106e+04 5.872e-09
 59.46467    -18.8 1.093e+04 4.856e-09
 59.50379    -15.7 1.079e+04 3.725e-09
 59.54291    -12.9 1.067e+04 2.868e-09
 59.56679    -10.2 1.063e+04 2.595e-09
 59.58635    -11.3 1.073e+04 3.175e-09
 59.62116     -8.8 1.089e+04 3.672e-09
 59.66028     -6.2 1.100e+04 5.142e-09
 59.69940     -3.5 1.119e+04 6.144e-09
 59.73852     -1.4 1.143e+04 6.234e-09
 59.77764     -0.1 1.161e+04 6.524e-09
 59.81676      0.7 1.177e+04 7.527e-09
 59.85588      1.6 1.182e+04 8.503e-09
 59.89501      2.4 1.189e+04 8.069e-09
 59.93413      3.2 1.195e+04 6.328e-09
 59.96337      3.6 1.183e+04 5.105e-09
 59.98283      3.6 1.180e+04 5.034e-09
 60.01227      4.7 1.177e+04 4.121e-09
 60.05149      6.3 1.179e+04 3.056e-09
 60.09061      7.8 1.184e+04 2.258e-09
 60.12974      9.2 1.190e+04 1.997e-09
 60.16886     10.4 1.200e+04 2.252e-09
 60.20798     11.6 1.220e+04 2.747e-09
 60.24710     12.7 1.234e+04 3.175e-09
 60.27502     13.1 1.239e+04 3.918e-09
 60.29458     12.6 1.255e+04 6.713e-09
 60.32534     12.4 1.253e+04 7.742e-09
 60.35459     12.4 1.241e+04 7.706e-09
 60.37405     12.4 1.234e+04 7.728e-09
 60.39361     13.1 1.210e+04 6.778e-09
 60.41317     13.0 1.207e+04 6.258e-09
 60.43273     13.7 1.179e+04 5.091e-09
 60.45229     13.8 1.180e+04 4.672e-09
 60.47185     14.8 1.154e+04 3.524e-09
 60.49141     14.7 1.155e+04 3.328e-09
 60.52085     16.6 1.127e+04 2.514e-09
 60.56007     18.5 1.117e+04 1.602e-09
 60.59919     20.2 1.118e+04 1.286e-09
 60.63831     22.2 1.119e+04 1.306e-09
 60.67744     23.9 1.128e+04 1.489e-09
 60.71656     25.8 1.147e+04 2.079e-09
 60.75568     26.9 1.165e+04 2.736e-09
 60.78492     27.1 1.176e+04 3.337e-09
 60.80439     27.5 1.185e+04 3.796e-09
 60.82395     27.1 1.219e+04 4.646e-09
 60.84351     27.1 1.228e+04 5.126e-09
 60.87295     26.8 1.263e+04 5.459e-09
 60.91217     26.2 1.289e+04 6.214e-09
 60.95129     25.6 1.324e+04 7.730e-09
 60.98326     25.0 1.367e+04 9.369e-09
 61.00282     22.7 1.378e+04 1.051e-08
 61.02953     22.2 1.401e+04 1.085e-08
 61.06865     21.7 1.410e+04 1.242e-08
 61.09790     21.3 1.417e+04 1.530e-08
 61.11736     21.1 1.405e+04 1.646e-08
 61.13692     20.6 1.405e+04 1.764e-08
 61.15648     20.2 1.394e+04 1.839e-08
 61.17604     20.1 1.365e+04 1.752e-08
 61.19560     20.3 1.330e+04 1.536e-08
 61.21516     20.5 1.296e+04 1.270e-08
 61.23472     20.8 1.268e+04 1.018e-08
 61.25428     21.1 1.242e+04 8.066e-09
 61.27384     21.4 1.224e+04 6.559e-09
 61.29340     21.5 1.210e+04 5.667e-09
 61.31297     21.7 1.194e+04 5.364e-09
 61.33253     22.0 1.193e+04 5.402e-09
 61.34310     22.2 1.197e+04 5.714e-09
 61.34775     23.1 1.210e+04 6.320e-09
 61.35674     22.2 1.188e+04 4.673e-09
 61.37165     22.1 1.190e+04 5.294e-09
 61.39121     21.9 1.189e+04 6.309e-09
 61.41077     21.9 1.189e+04 7.582e-09
 61.43033     21.9 1.187e+04 8.412e-09
 61.44989     21.8 1.183e+04 8.270e-09
 61.46945     21.9 1.164e+04 7.468e-09
 61.48901     22.0 1.144e+04 6.136e-09
 61.50857     22.0 1.130e+04 4.852e-09
 61.52813     21.9 1.116e+04 3.998e-09
 61.54769     21.9 1.099e+04 3.891e-09
 61.56726     22.0 1.099e+04 4.060e-09
 61.58682     22.1 1.100e+04 4.793e-09
 61.60638     22.3 1.102e+04 6.001e-09
 61.62594     22.9 1.108e+04 7.346e-09
 61.64550     23.4 1.117e+04 8.445e-09
 61.66506     23.7 1.117e+04 8.557e-09
 61.68462     24.1 1.107e+04 8.230e-09
 61.70107     24.7 1.091e+04 7.193e-09
 61.71085     24.5 1.062e+04 6.010e-09
 61.72374     24.7 1.054e+04 4.884e-09
 61.74330     24.5 1.046e+04 4.264e-09
 61.76286     24.1 1.047e+04 4.290e-09
 61.78242     23.4 1.058e+04 4.737e-09
 61.80198     22.9 1.059e+04 5.745e-09
 61.82155     22.5 1.073e+04 7.184e-09
 61.84111     22.1 1.114e+04 8.762e-09
 61.86067     20.7 1.160e+04 1.024e-08
 61.88023     16.7 1.239e+04 1.359e-08
 61.89485     12.4 1.332e+04 2.172e-08
 61.90458     12.3 1.329e+04 2.205e-08
 61.91436     10.2 1.390e+04 3.280e-08
 61.92414     10.2 1.395e+04 3.490e-08
 61.93392      9.1 1.482e+04 5.159e-08
 61.94370      9.3 1.500e+04 5.518e-08
 61.95842      8.4 1.612e+04 7.519e-08
 61.97803      8.5 1.618e+04 7.151e-08
 61.99759      7.9 1.618e+04 5.961e-08
 62.01221      7.6 1.490e+04 3.738e-08
 62.02195      6.8 1.485e+04 3.638e-08
 62.03173      5.0 1.508e+04 4.195e-08
 62.04151      3.9 1.524e+04 4.800e-08
 62.05129      3.2 1.517e+04 6.107e-08
 62.05998      4.0 1.492e+04 6.896e-08
 62.06487      4.4 1.435e+04 4.952e-08
 62.07085      5.2 1.435e+04 5.616e-08
 62.08063      6.0 1.440e+04 5.729e-08
 62.09041      7.0 1.451e+04 5.479e-08
 62.10019      7.0 1.463e+04 5.203e-08
 62.11491      7.7 1.427e+04 4.348e-08
 62.13452      7.2 1.374e+04 2.860e-08
 62.15408      6.6 1.267e+04 1.685e-08
 62.17364      5.6 1.156e+04 1.050e-08
 62.19320      5.3 1.106e+04 8.270e-09
 62.21276      5.6 1.070e+04 7.447e-09
 62.24220      7.7 1.087e+04 8.203e-09
 62.27154      7.9 1.088e+04 8.331e-09
 62.29100      8.0 1.118e+04 9.882e-09
 62.31056      8.2 1.173e+04 1.337e-08
 62.33012      8.4 1.240e+04 1.787e-08
 62.34969      8.5 1.327e+04 2.453e-08
 62.36925      8.0 1.417e+04 3.364e-08
 62.38881      8.0 1.481e+04 4.483e-08
 62.40837      8.3 1.515e+04 5.105e-08
 62.41909      8.5 1.526e+04 5.033e-08
 62.42887      6.8 1.528e+04 5.099e-08
 62.44749      6.2 1.535e+04 4.689e-08
 62.46705      3.8 1.623e+04 4.885e-08
 62.48661     -1.1 1.770e+04 6.965e-08
 62.50617     -3.0 1.727e+04 1.173e-07
 62.52573     -3.0 1.677e+04 1.309e-07
 62.54529     -2.3 1.614e+04 8.278e-08
 62.55991     -3.8 1.629e+04 4.939e-08
 62.56965     -6.7 1.562e+04 4.048e-08
 62.57943    -14.6 1.567e+04 3.205e-08
 62.58921    -27.0 2.226e+04 2.935e-08
 62.59605    -41.1 3.017e+04 6.917e-08
 62.60094    -45.6 2.542e+04 2.009e-07
 62.60877    -49.9 2.056e+04 1.010e-06
 62.61855    -53.4 1.930e+04 1.750e-06
 62.62833    -56.1 1.927e+04 1.718e-06
 62.63811    -59.0 1.971e+04 1.190e-06
 62.64789    -61.4 2.005e+04 7.582e-07
 62.65767    -63.1 2.008e+04 4.483e-07
 62.66745    -64.4 1.980e+04 2.526e-07
 62.67723    -65.6 1.917e+04 1.488e-07
 62.68701    -66.9 1.812e+04 9.219e-08
 62.69679    -68.5 1.679e+04 6.086e-08
 62.70657    -69.9 1.549e+04 4.386e-08
 62.71635    -70.7 1.474e+04 3.526e-08
 62.72613    -70.7 1.459e+04 3.344e-08
 62.74085    -70.2 1.424e+04 2.907e-08
 62.76046    -71.1 1.359e+04 2.246e-08
 62.77320    -72.0 1.320e+04 1.928e-08
 62.78298    -71.7 1.465e+04 3.076e-08
 62.79958    -72.8 1.439e+04 2.807e-08
 62.81914    -73.9 1.398e+04 2.526e-08
 62.83870    -75.0 1.361e+04 2.290e-08
 62.85827    -76.2 1.339e+04 2.138e-08
 62.87783    -77.5 1.336e+04 2.087e-08
 62.89739    -79.2 1.356e+04 2.162e-08
 62.91695    -81.3 1.415e+04 2.524e-08
 62.93651    -83.0 1.484e+04 3.380e-08
 62.95607    -83.8 1.566e+04 4.328e-08
 62.97069    -84.3 1.570e+04 4.507e-08
 62.98042    -84.8 1.595e+04 5.024e-08
 62.99020    -85.1 1.635e+04 5.832e-08
 62.99998    -85.3 1.686e+04 6.747e-08
 63.00976    -85.6 1.745e+04 8.078e-08
 63.01954    -86.1 1.805e+04 1.007e-07
 63.02932    -86.8 1.853e+04 1.292e-07
 63.03910    -87.5 1.881e+04 1.639e-07
 63.04888    -88.2 1.904e+04 2.025e-07
 63.05867    -89.3 1.940e+04 2.473e-07
 63.06845    -91.1 1.987e+04 3.128e-07
 63.07823    -93.8 2.026e+04 4.322e-07
 63.08801    -96.8 2.024e+04 6.763e-07
 63.09779    -99.9 1.993e+04 1.056e-06
 63.10757   -103.3 1.969e+04 1.361e-06
 63.11735   -106.6 1.956e+04 1.514e-06
 63.12713   -109.6 1.946e+04 1.476e-06
 63.13211   -111.8 1.945e+04 1.311e-06
 63.13700   -110.7 1.982e+04 7.500e-07
 63.14669   -111.7 1.982e+04 6.583e-07
 63.15647   -111.9 1.979e+04 5.764e-07
 63.16625   -111.7 1.976e+04 5.039e-07
 63.17603   -111.0 1.976e+04 4.357e-07
 63.18581   -110.3 1.978e+04 3.697e-07
 63.19559   -109.5 1.978e+04 3.103e-07
 63.20537   -108.7 1.980e+04 2.613e-07
 63.21515   -108.3 1.994e+04 2.028e-07
 63.22987   -108.3 1.982e+04 1.307e-07
 63.24948   -106.9 1.977e+04 1.023e-07
 63.26904   -105.3 1.974e+04 8.355e-08
 63.28860   -104.1 1.941e+04 6.941e-08
 63.30816   -102.8 1.877e+04 5.511e-08
 63.32772   -101.6 1.780e+04 3.883e-08
 63.34728   -100.3 1.664e+04 2.220e-08
 63.36684    -99.5 1.487e+04 1.022e-08
 63.38641    -99.5 1.255e+04 6.745e-09
 63.40597    -99.6 1.192e+04 6.834e-09
 63.42553    -99.2 1.200e+04 7.425e-09
 63.44509    -99.0 1.230e+04 8.651e-09
 63.46465    -99.0 1.263e+04 1.122e-08
 63.48143    -99.0 1.306e+04 1.579e-08
 63.49122    -98.7 1.335e+04 1.900e-08
 63.50377    -98.9 1.383e+04 2.581e-08
 63.52333    -98.7 1.440e+04 3.451e-08
 63.54289    -98.3 1.497e+04 4.371e-08
 63.56245    -97.6 1.542e+04 5.247e-08
 63.58201    -96.8 1.580e+04 5.689e-08
 63.60157    -95.8 1.600e+04 5.722e-08
 63.62113    -94.6 1.605e+04 5.109e-08
 63.64070    -93.4 1.590e+04 4.185e-08
 63.66026    -92.1 1.565e+04 3.280e-08
 63.67982    -90.6 1.547e+04 2.668e-08
 63.69938    -89.2 1.540e+04 2.353e-08
 63.71894    -87.8 1.531e+04 2.271e-08
 63.73850    -86.0 1.528e+04 2.280e-08
 63.75806    -84.3 1.533e+04 2.543e-08
 63.77762    -82.9 1.546e+04 2.985e-08
 63.79718    -81.4 1.553e+04 3.480e-08
 63.81674    -79.7 1.564e+04 4.022e-08
 63.83555    -78.2 1.581e+04 4.582e-08
 63.84533    -78.9 1.586e+04 4.791e-08
 63.85586    -77.7 1.594e+04 5.174e-08
 63.87542    -76.5 1.592e+04 5.333e-08
 63.89499    -75.3 1.579e+04 5.213e-08
 63.91455    -74.1 1.557e+04 4.698e-08
 63.93411    -72.9 1.523e+04 3.934e-08
 63.95367    -71.6 1.484e+04 3.145e-08
 63.97323    -70.2 1.452e+04 2.497e-08
 63.99279    -69.2 1.423e+04 1.978e-08
 64.01235    -68.0 1.396e+04 1.606e-08
 64.03191    -67.0 1.380e+04 1.380e-08
 64.05147    -66.1 1.368e+04 1.248e-08
 64.07103    -65.2 1.354e+04 1.154e-08
 64.09059    -64.3 1.346e+04 1.064e-08
 64.11015    -63.4 1.336e+04 9.621e-09
 64.12971    -62.3 1.328e+04 8.487e-09
 64.14927    -61.4 1.323e+04 7.361e-09
 64.16884    -60.6 1.316e+04 6.309e-09
 64.18840    -59.8 1.318e+04 5.534e-09
 64.19945    -59.1 1.330e+04 5.191e-09
 64.20923    -58.7 1.325e+04 4.322e-09
 64.22752    -57.9 1.331e+04 4.218e-09
 64.24708    -57.1 1.332e+04 4.224e-09
 64.26664    -56.2 1.330e+04 4.315e-09
 64.28620    -55.4 1.323e+04 4.416e-09
 64.30576    -54.6 1.313e+04 4.557e-09
 64.32532    -53.7 1.309e+04 4.779e-09
 64.34488    -52.8 1.304e+04 5.036e-09
 64.36444    -51.7 1.299e+04 5.267e-09
 64.38400    -50.6 1.293e+04 5.435e-09
 64.40356    -49.3 1.286e+04 5.358e-09
 64.42313    -48.0 1.272e+04 5.303e-09
 64.44269    -46.7 1.258e+04 5.247e-09
 64.46225    -45.5 1.247e+04 5.248e-09
 64.48181    -44.2 1.237e+04 5.370e-09
 64.50137    -42.8 1.229e+04 5.664e-09
 64.52093    -41.4 1.221e+04 5.883e-09
 64.54049    -40.0 1.223e+04 6.045e-09
 64.55356    -38.9 1.198e+04 5.629e-09
 64.56334    -38.2 1.215e+04 6.248e-09
 64.58949    -35.8 1.228e+04 6.504e-09
 64.62871    -33.1 1.194e+04 5.738e-09
 64.66783    -30.4 1.171e+04 4.531e-09
 64.70695    -27.9 1.151e+04 3.473e-09
 64.74607    -25.3 1.134e+04 2.775e-09
 64.78519    -22.7 1.123e+04 2.395e-09
 64.82432    -20.2 1.112e+04 2.274e-09
 64.86344    -17.9 1.125e+04 2.558e-09
 64.90256    -15.8 1.134e+04 3.424e-09
 64.94168    -13.2 1.157e+04 4.948e-09
 64.97092    -11.1 1.194e+04 5.839e-09
 64.99039    -11.1 1.196e+04 5.916e-09
 65.00995     -9.4 1.217e+04 6.737e-09
 65.02951     -8.8 1.240e+04 6.669e-09
 65.04907     -8.3 1.247e+04 6.328e-09
 65.06863     -7.9 1.251e+04 6.623e-09
 65.08819     -7.1 1.253e+04 7.584e-09
 65.10775     -6.8 1.275e+04 8.249e-09
 65.12731     -7.1 1.305e+04 1.058e-08
 65.14687     -8.2 1.368e+04 1.452e-08
 65.16643     -8.7 1.382e+04 2.429e-08
 65.18599     -8.1 1.381e+04 3.083e-08
 65.20556     -7.6 1.377e+04 2.066e-08
 65.22512     -7.8 1.303e+04 1.305e-08
 65.24468     -7.9 1.241e+04 6.840e-09
 65.26180     -7.8 1.212e+04 6.383e-09
 65.27167     -7.4 1.207e+04 6.110e-09
 65.29377     -6.1 1.171e+04 3.507e-09
 65.32302     -4.4 1.155e+04 3.684e-09
 65.34248     -3.9 1.164e+04 3.850e-09
 65.36204     -2.6 1.158e+04 4.287e-09
 65.38160     -1.5 1.174e+04 4.928e-09
 65.40116     -0.2 1.177e+04 5.513e-09
 65.42072      0.4 1.191e+04 5.979e-09
 65.44028      1.7 1.188e+04 6.744e-09
 65.45985      2.1 1.200e+04 7.163e-09
 65.47941      3.5 1.202e+04 8.323e-09
 65.49897      3.9 1.210e+04 8.607e-09
 65.51853      5.1 1.204e+04 9.018e-09
 65.53809      5.7 1.216e+04 9.389e-09
 65.55765      7.0 1.194e+04 8.701e-09
 65.57721      7.3 1.199e+04 8.627e-09
 65.59677      8.5 1.162e+04 7.413e-09
 65.61591      8.7 1.166e+04 7.063e-09
 65.62569      9.5 1.176e+04 7.860e-09
 65.63589     10.7 1.136e+04 6.637e-09
 65.65545     10.8 1.139e+04 6.098e-09
 65.67501     12.1 1.100e+04 4.868e-09
 65.69457     12.3 1.108e+04 4.412e-09
 65.71414     13.7 1.066e+04 3.315e-09
 65.73370     13.9 1.083e+04 2.969e-09
 65.75326     15.2 1.059e+04 2.403e-09
 65.77282     15.4 1.061e+04 2.403e-09
 65.80226     16.8 1.065e+04 2.651e-09
 65.84148     18.5 1.075e+04 2.762e-09
 65.88060     20.0 1.085e+04 3.025e-09
 65.90984     20.9 1.084e+04 3.300e-09
 65.92930     21.1 1.096e+04 3.834e-09
 65.94886     21.3 1.110e+04 4.616e-09
 65.96842     21.5 1.125e+04 5.618e-09
 65.97981     21.4 1.146e+04 6.770e-09
 65.98959     21.9 1.153e+04 7.809e-09
 66.00755     21.1 1.202e+04 9.786e-09
 66.02711     19.2 1.259e+04 1.416e-08
 66.04667     17.7 1.297e+04 2.123e-08
 66.06623     16.6 1.320e+04 2.463e-08
 66.08579     15.3 1.311e+04 2.321e-08
 66.10535     13.7 1.282e+04 1.823e-08
 66.12491     11.5 1.248e+04 1.285e-08
 66.14447      8.7 1.234e+04 9.952e-09
 66.16403      4.7 1.295e+04 1.109e-08
 66.18359     -0.4 1.389e+04 2.010e-08
 66.20315     -3.7 1.431e+04 3.720e-08
 66.22271     -6.2 1.430e+04 4.151e-08
 66.24228     -8.7 1.396e+04 2.855e-08
 66.26184    -12.1 1.306e+04 1.372e-08
 66.28140    -15.8 1.176e+04 8.414e-09
 66.30096    -17.1 1.133e+04 6.754e-09
 66.32052    -17.8 1.128e+04 6.176e-09
 66.33393    -18.5 1.145e+04 6.157e-09
 66.34371    -18.0 1.113e+04 5.258e-09
 66.35964    -19.5 1.177e+04 6.559e-09
 66.37920    -22.3 1.252e+04 1.177e-08
 66.39876    -24.3 1.318e+04 2.457e-08
 66.41832    -24.7 1.419e+04 3.980e-08
 66.43788    -25.9 1.481e+04 4.326e-08
 66.45744    -28.6 1.484e+04 2.541e-08
 66.47700    -31.6 1.425e+04 1.199e-08
 66.49657    -33.5 1.344e+04 7.896e-09
 66.51613    -34.0 1.287e+04 6.047e-09
 66.53569    -34.1 1.254e+04 4.865e-09
 66.55525    -33.7 1.221e+04 4.083e-09
 66.57481    -33.2 1.201e+04 3.623e-09
 66.59437    -32.5 1.194e+04 3.398e-09
 66.61393    -31.7 1.196e+04 3.285e-09
 66.63349    -31.1 1.201e+04 3.360e-09
 66.65305    -30.3 1.207e+04 3.614e-09
 66.67261    -29.6 1.210e+04 3.894e-09
 66.68814    -27.9 1.211e+04 3.816e-09
 66.70780    -28.8 1.245e+04 5.094e-09
 66.73139    -27.1 1.239e+04 5.141e-09
 66.75086    -27.1 1.252e+04 5.563e-09
 66.77042    -26.3 1.295e+04 7.554e-09
 66.78998    -26.4 1.304e+04 1.022e-08
 66.80954    -25.8 1.335e+04 1.454e-08
 66.82910    -25.8 1.368e+04 1.891e-08
 66.84866    -25.8 1.419e+04 2.439e-08
 66.86822    -26.2 1.465e+04 3.031e-08
 66.88778    -26.6 1.492e+04 3.488e-08
 66.90734    -26.8 1.500e+04 3.668e-08
 66.92690    -26.7 1.499e+04 3.445e-08
 66.94646    -26.5 1.491e+04 2.986e-08
 66.96602    -26.2 1.479e+04 2.676e-08
 66.98558    -25.6 1.478e+04 2.600e-08
 67.00514    -24.8 1.480e+04 2.750e-08
 67.02471    -23.8 1.504e+04 3.214e-08
 67.04216    -23.2 1.579e+04 4.389e-08
 67.05194    -24.7 1.568e+04 3.007e-08
 67.06383    -25.7 1.659e+04 5.384e-08
 67.07845    -24.1 1.806e+04 1.047e-07
 67.08818    -27.6 1.997e+04 1.751e-07
 67.09796    -30.7 1.941e+04 6.681e-07
 67.10774    -32.8 1.803e+04 2.174e-06
 67.11752    -33.8 1.754e+04 4.178e-06
 67.12730    -36.9 1.778e+04 3.472e-06
 67.13708    -39.6 1.882e+04 1.042e-06
 67.14686    -42.1 1.968e+04 2.085e-07
 67.15664    -45.4 1.817e+04 6.983e-08
 67.16642    -47.1 1.630e+04 4.245e-08
 67.18114    -47.2 1.572e+04 3.461e-08
 67.20075    -47.2 1.467e+04 1.819e-08
 67.22031    -47.4 1.415e+04 1.300e-08
 67.23987    -46.8 1.369e+04 1.188e-08
 67.25943    -45.6 1.352e+04 1.169e-08
 67.27900    -44.5 1.348e+04 1.090e-08
 67.29856    -43.4 1.342e+04 9.532e-09
 67.31812    -42.6 1.330e+04 7.994e-09
 67.33768    -41.8 1.311e+04 6.938e-09
 67.36712    -40.4 1.299e+04 7.009e-09
 67.39647    -38.0 1.269e+04 5.820e-09
 67.41603    -37.1 1.246e+04 4.234e-09
 67.44546    -34.6 1.238e+04 3.725e-09
 67.48458    -32.5 1.246e+04 3.528e-09
 67.52370    -30.8 1.259e+04 3.500e-09
 67.56282    -29.5 1.254e+04 3.453e-09
 67.60194    -28.6 1.228e+04 3.478e-09
 67.64106    -27.9 1.200e+04 3.368e-09
 67.68019    -27.1 1.172e+04 3.244e-09
 67.71931    -26.3 1.138e+04 2.841e-09
 67.75843    -25.5 1.109e+04 2.178e-09
 67.79755    -24.9 1.083e+04 1.696e-09
 67.83667    -23.9 1.059e+04 1.556e-09
 67.87579    -22.7 1.043e+04 1.444e-09
 67.91492    -21.5 1.032e+04 1.393e-09
 67.95404    -20.0 1.025e+04 1.365e-09
 67.99316    -18.5 1.014e+04 1.307e-09
 68.03228    -16.9 1.019e+04 1.151e-09
 68.07140    -15.7 1.015e+04 1.074e-09
 68.10470    -14.5 1.015e+04 1.066e-09
 68.12426    -13.6 1.025e+04 1.241e-09
 68.14964    -12.5 1.028e+04 1.352e-09
 68.18877    -11.8 1.022e+04 1.785e-09
 68.22789    -11.5 1.061e+04 2.585e-09
 68.26701    -11.5 1.097e+04 3.868e-09
 68.30613    -11.6 1.099e+04 4.915e-09
 68.34525    -12.1 1.098e+04 2.708e-09
 68.38437    -13.0 1.031e+04 1.744e-09
 68.42349    -12.7 1.011e+04 1.482e-09
 68.46262    -11.4 1.006e+04 1.459e-09
 68.50174    -10.1 1.005e+04 1.661e-09
 68.54086     -8.7 1.012e+04 1.858e-09
 68.57998     -7.4 1.010e+04 2.101e-09
 68.61910     -6.0 1.004e+04 2.417e-09
 68.65822     -4.5 9.913e+03 2.703e-09
 68.69735     -2.9 9.853e+03 2.553e-09
 68.73647     -1.6 9.807e+03 2.219e-09
 68.77559     -0.3 9.576e+03 2.051e-09
 68.81294      1.6 9.383e+03 1.740e-09
 68.83250      2.5 9.379e+03 1.725e-09
 68.85383      4.7 9.265e+03 1.262e-09
 68.88274      6.5 9.214e+03 9.353e-10
 68.90230      6.3 9.283e+03 9.786e-10
 68.93207      8.3 9.164e+03 8.955e-10
 68.97120     10.4 9.183e+03 9.623e-10
 69.01032     12.5 9.181e+03 1.220e-09
 69.04944     14.8 9.222e+03 1.562e-09
 69.08856     17.1 9.243e+03 1.669e-09
 69.12768     19.2 9.211e+03 1.570e-09
 69.16680     21.3 9.128e+03 1.310e-09
 69.20592     23.3 9.094e+03 1.043e-09
 69.24505     25.1 9.062e+03 8.587e-10
 69.28417     27.0 9.027e+03 7.785e-10
 69.32329     29.0 9.033e+03 7.816e-10
 69.36241     30.8 9.099e+03 8.210e-10
 69.40153     32.5 9.213e+03 9.774e-10
 69.44065     34.3 9.328e+03 1.244e-09
 69.47978     36.1 9.456e+03 1.421e-09
 69.51890     37.7 9.457e+03 1.403e-09
 69.54073     39.4 9.381e+03 1.254e-09
 69.56029     40.0 9.396e+03 1.143e-09
 69.59714     41.8 9.303e+03 9.522e-10
 69.63626     43.6 9.236e+03 7.958e-10
 69.67538     45.4 9.187e+03 7.092e-10
 69.71450     47.4 9.143e+03 6.654e-10
 69.75363     49.5 9.114e+03 6.228e-10
 69.79275     51.6 9.082e+03 5.624e-10
 69.83187     53.8 9.052e+03 4.864e-10
 69.87099     55.9 9.028e+03 4.146e-10
 69.91011     58.0 9.012e+03 3.649e-10
 69.94923     60.1 9.015e+03 3.530e-10
 69.98836     62.3 9.024e+03 3.592e-10
 70.02748     64.3 9.087e+03 3.901e-10
 70.06660     66.2 9.159e+03 4.647e-10
 70.10572     68.1 9.235e+03 6.008e-10
 70.14484     69.8 9.337e+03 7.914e-10
 70.18396     71.4 9.471e+03 9.989e-10
 70.22308     72.7 9.618e+03 1.178e-09
 70.24896     73.8 9.769e+03 1.305e-09
 70.26852     74.7 9.685e+03 1.020e-09
 70.30133     75.8 9.827e+03 1.084e-09
 70.34045     76.8 9.957e+03 1.147e-09
 70.37957     77.8 1.007e+04 1.249e-09
 70.41869     78.9 1.020e+04 1.442e-09
 70.45781     80.1 1.050e+04 1.808e-09
 70.49693     80.7 1.090e+04 2.347e-09
 70.53606     80.9 1.128e+04 3.281e-09
 70.57518     80.7 1.164e+04 4.710e-09
 70.61430     80.3 1.202e+04 5.893e-09
 70.65342     79.2 1.229e+04 5.887e-09
 70.69254     77.3 1.246e+04 4.930e-09
 70.73166     74.7 1.246e+04 3.771e-09
 70.77079     71.7 1.236e+04 3.810e-09
 70.80991     69.0 1.238e+04 4.905e-09
 70.84903     66.4 1.257e+04 6.420e-09
 70.88815     64.1 1.309e+04 6.633e-09
 70.92727     61.9 1.321e+04 6.538e-09
 70.95719     59.8 1.331e+04 6.666e-09
 70.97676     59.0 1.350e+04 8.237e-09
 71.00551     56.8 1.342e+04 9.148e-09
 71.04464     55.0 1.322e+04 8.743e-09
 71.07388     54.2 1.308e+04 8.213e-09
 71.09334     53.5 1.296e+04 7.455e-09
 71.11290     52.9 1.284e+04 6.725e-09
 71.13246     52.4 1.280e+04 6.207e-09
 71.15202     51.9 1.281e+04 5.842e-09
 71.17159     51.4 1.289e+04 5.345e-09
 71.20102     50.8 1.285e+04 4.182e-09
 71.24024     50.8 1.269e+04 2.965e-09
 71.27936     51.1 1.255e+04 1.754e-09
 71.31849     51.8 1.254e+04 9.499e-10
 71.35761     52.5 1.266e+04 5.411e-10
 71.39673     53.5 1.255e+04 4.007e-10
 71.43585     55.0 1.222e+04 3.930e-10
 71.47497     56.9 1.214e+04 3.934e-10
 71.51409     58.9 1.209e+04 3.973e-10
 71.55322     60.7 1.199e+04 4.166e-10
 71.59234     62.5 1.190e+04 4.569e-10
 71.63146     64.1 1.182e+04 5.122e-10
 71.66543     65.7 1.173e+04 5.647e-10
 71.68499     65.9 1.178e+04 4.780e-10
 71.70970     67.3 1.170e+04 5.124e-10
 71.74882     68.7 1.162e+04 5.549e-10
 71.78794     69.8 1.154e+04 6.335e-10
 71.82707     70.7 1.145e+04 8.222e-10
 71.86619     71.5 1.134e+04 1.282e-09
 71.90531     72.1 1.129e+04 2.169e-09
 71.94443     72.6 1.127e+04 3.250e-09
 71.98355     72.8 1.126e+04 3.544e-09
 72.02267     73.0 1.121e+04 3.445e-09
 72.06179     73.2 1.107e+04 3.327e-09
 72.10092     73.4 1.106e+04 3.400e-09
 72.14004     73.5 1.116e+04 3.926e-09
 72.16928     73.5 1.129e+04 4.510e-09
 72.18874     73.3 1.145e+04 5.226e-09
 72.20831     72.8 1.168e+04 6.494e-09
 72.22787     71.9 1.199e+04 8.492e-09
 72.24743     70.6 1.243e+04 1.156e-08
 72.26699     68.9 1.285e+04 1.585e-08
 72.28655     67.1 1.306e+04 2.035e-08
 72.30611     65.4 1.301e+04 2.151e-08
 72.32567     64.0 1.287e+04 2.073e-08
 72.34523     62.7 1.255e+04 1.828e-08
 72.37356     60.3 1.184e+04 1.081e-08
 72.39312     62.3 1.207e+04 1.353e-08
 72.41379     61.7 1.149e+04 9.163e-09
 72.45301     61.4 1.036e+04 3.918e-09
 72.49213     61.5 9.688e+03 1.441e-09
 72.53125     61.6 9.605e+03 5.873e-10
 72.57037     62.1 9.284e+03 4.570e-10
 72.60950     63.3 9.102e+03 4.572e-10
 72.64862     64.6 9.056e+03 4.692e-10
 72.68774     65.8 8.926e+03 5.152e-10
 72.72686     66.7 8.804e+03 5.992e-10
 72.76598     67.5 8.771e+03 7.451e-10
 72.80510     68.5 8.841e+03 9.871e-10
 72.84423     69.4 8.883e+03 1.384e-09
 72.88335     70.3 9.008e+03 1.906e-09
 72.92247     70.7 9.186e+03 2.426e-09
 72.96159     70.7 9.390e+03 2.829e-09
 73.00071     70.5 9.633e+03 3.309e-09
 73.03983     70.4 9.920e+03 4.008e-09
 73.06908     69.9 1.022e+04 4.742e-09
 73.08854     69.1 1.057e+04 5.887e-09
 73.10126     68.0 1.099e+04 7.888e-09
 73.11104     67.5 1.070e+04 9.088e-09
 73.12766     66.5 1.095e+04 1.322e-08
 73.14722     65.6 1.121e+04 1.698e-08
 73.16678     64.6 1.139e+04 1.759e-08
 73.18634     62.6 1.140e+04 1.628e-08
 73.20590     61.5 1.131e+04 1.503e-08
 73.23534     59.4 1.096e+04 1.293e-08
 73.27456     57.6 9.868e+03 6.594e-09
 73.31368     56.3 8.563e+03 2.473e-09
 73.35280     55.3 7.651e+03 1.253e-09
 73.39193     55.7 7.519e+03 1.183e-09
 73.43105     57.1 7.515e+03 1.204e-09
 73.47017     59.0 7.597e+03 1.292e-09
 73.50929     60.8 7.751e+03 1.347e-09
 73.54841     62.4 7.793e+03 1.343e-09
 73.58753     64.0 7.821e+03 1.293e-09
 73.62666     65.6 7.854e+03 1.164e-09
 73.66578     67.2 7.892e+03 1.013e-09
 73.70490     68.7 7.968e+03 8.773e-10
 73.74402     70.1 8.086e+03 7.999e-10
 73.78314     71.7 8.111e+03 7.993e-10
 73.80969     73.1 8.197e+03 8.248e-10
 73.82925     73.9 8.117e+03 6.975e-10
 73.86138     75.4 8.336e+03 8.084e-10
 73.90051     76.9 8.560e+03 1.117e-09
 73.93963     78.4 8.840e+03 1.675e-09
 73.97875     79.7 9.154e+03 2.421e-09
 74.01787     81.0 9.513e+03 3.190e-09
 74.05699     82.2 9.872e+03 3.727e-09
 74.09611     83.0 1.016e+04 3.994e-09
 74.13523     83.9 1.037e+04 4.080e-09
 74.17436     84.8 1.056e+04 4.149e-09
 74.21348     85.9 1.072e+04 4.193e-09
 74.25260     87.1 1.084e+04 4.012e-09
 74.29172     88.3 1.099e+04 3.617e-09
 74.32096     89.4 1.105e+04 3.351e-09
 74.34043     89.9 1.107e+04 3.347e-09
 74.35999     90.6 1.113e+04 3.409e-09
 74.37955     91.2 1.126e+04 3.644e-09
 74.39911     91.9 1.142e+04 4.093e-09
 74.41867     92.4 1.157e+04 4.631e-09
 74.43823     92.8 1.181e+04 4.903e-09
 74.45779     93.0 1.188e+04 4.834e-09
 74.47735     93.2 1.198e+04 4.506e-09
 74.49691     93.4 1.210e+04 3.860e-09
 74.51782     92.8 1.239e+04 2.525e-09
 74.53738     94.7 1.223e+04 3.250e-09
 74.55560     94.6 1.238e+04 2.783e-09
 74.57516     94.6 1.234e+04 2.628e-09
 74.59472     94.8 1.236e+04 2.665e-09
 74.61428     94.9 1.238e+04 2.724e-09
 74.63384     95.1 1.249e+04 2.839e-09
 74.65340     95.1 1.270e+04 2.927e-09
 74.67296     95.1 1.295e+04 2.922e-09
 74.69252     94.7 1.311e+04 2.916e-09
 74.71208     94.1 1.322e+04 2.967e-09
 74.73164     93.0 1.352e+04 3.157e-09
 74.75120     90.8 1.403e+04 4.239e-09
 74.77076     88.3 1.437e+04 9.266e-09
 74.79032     86.4 1.466e+04 2.138e-08
 74.80989     84.5 1.502e+04 3.129e-08
 74.82945     82.0 1.504e+04 3.043e-08
 74.84901     79.4 1.476e+04 2.398e-08
 74.86857     76.8 1.420e+04 1.456e-08
 74.88162     75.0 1.368e+04 9.915e-09
 74.89140     76.1 1.391e+04 1.101e-08
 74.90769     74.1 1.353e+04 7.030e-09
 74.92725     72.5 1.335e+04 5.556e-09
 74.94681     71.6 1.317e+04 5.044e-09
 74.96637     71.2 1.301e+04 4.789e-09
 74.98593     71.1 1.296e+04 4.764e-09
 75.00549     71.1 1.296e+04 4.779e-09
 75.02505     71.2 1.294e+04 4.887e-09
 75.04461     71.2 1.291e+04 5.083e-09
 75.06418     71.5 1.287e+04 5.408e-09
 75.08374     71.8 1.283e+04 5.817e-09
 75.10330     72.2 1.279e+04 6.227e-09
 75.12286     72.6 1.281e+04 6.607e-09
 75.15230     73.7 1.278e+04 6.700e-09
 75.19152     74.9 1.276e+04 6.545e-09
 75.22615     76.4 1.267e+04 5.977e-09
 75.24571     76.6 1.259e+04 6.446e-09
 75.26976     78.5 1.253e+04 5.496e-09
 75.29900     79.5 1.246e+04 4.685e-09
 75.31846     80.4 1.237e+04 4.294e-09
 75.33803     81.7 1.228e+04 4.218e-09
 75.35759     82.7 1.228e+04 4.260e-09
 75.37715     84.0 1.232e+04 4.643e-09
 75.39671     84.9 1.239e+04 4.953e-09
 75.42615     86.8 1.264e+04 6.153e-09
 75.45549     86.6 1.322e+04 8.195e-09
 75.47495     86.2 1.365e+04 1.240e-08
 75.49451     85.9 1.401e+04 2.059e-08
 75.51407     85.7 1.440e+04 3.205e-08
 75.53363     85.5 1.476e+04 4.124e-08
 75.55319     85.0 1.485e+04 4.200e-08
 75.57275     84.7 1.477e+04 4.022e-08
 75.58985     84.6 1.455e+04 3.392e-08
 75.59963     85.1 1.459e+04 3.531e-08
 75.61188     85.0 1.437e+04 2.964e-08
 75.63144     85.0 1.414e+04 2.327e-08
 75.65100     85.0 1.386e+04 1.827e-08
 75.67056     84.9 1.356e+04 1.522e-08
 75.70000     84.7 1.324e+04 1.205e-08
 75.72934     85.4 1.320e+04 1.148e-08
 75.74880     85.8 1.322e+04 1.147e-08
 75.76836     86.3 1.327e+04 1.146e-08
 75.78792     86.3 1.339e+04 1.177e-08
 75.80748     86.2 1.366e+04 1.331e-08
 75.82704     85.9 1.393e+04 1.752e-08
 75.84661     85.4 1.425e+04 2.539e-08
 75.86617     84.8 1.452e+04 3.531e-08
 75.88573     84.0 1.455e+04 3.909e-08
 75.90529     83.1 1.441e+04 3.766e-08
 75.92485     82.4 1.414e+04 3.299e-08
 75.94397     81.4 1.377e+04 2.617e-08
 75.95375     81.0 1.351e+04 2.199e-08
 75.96397     79.2 1.327e+04 1.905e-08
 75.98353     77.4 1.328e+04 1.900e-08
 76.00309     75.3 1.336e+04 2.010e-08
 76.02265     73.0 1.334e+04 2.144e-08
 76.04221     70.9 1.323e+04 2.110e-08
 76.06177     69.0 1.290e+04 1.899e-08
 76.08133     67.3 1.237e+04 1.518e-08
 76.10090     66.2 1.199e+04 1.305e-08
 76.13033     65.9 1.172e+04 1.138e-08
 76.16955     65.9 1.135e+04 9.524e-09
 76.20867     66.3 1.106e+04 7.973e-09
 76.24780     67.3 1.089e+04 7.007e-09
 76.28692     68.8 1.087e+04 6.938e-09
 76.32604     70.5 1.107e+04 7.664e-09
 76.35528     72.5 1.133e+04 8.625e-09
 76.37475     73.3 1.150e+04 9.388e-09
 76.39431     73.9 1.195e+04 1.183e-08
 76.41387     74.4 1.257e+04 1.653e-08
 76.43178     74.8 1.303e+04 2.329e-08
 76.44156     73.3 1.351e+04 2.672e-08
 76.45299     72.9 1.475e+04 4.503e-08
 76.47255     71.2 1.693e+04 1.006e-07
 76.48487     70.1 1.779e+04 1.389e-07
 76.48972     71.3 1.743e+04 1.242e-07
 76.49690     69.9 1.839e+04 1.898e-07
 76.50668     68.1 1.885e+04 3.267e-07
 76.51646     66.5 1.891e+04 4.815e-07
 76.52624     64.9 1.879e+04 4.854e-07
 76.53602     64.0 1.847e+04 3.923e-07
 76.55074     62.4 1.754e+04 1.224e-07
 76.57035     58.3 1.645e+04 2.129e-08
 76.58991     47.2 1.185e+04 5.896e-09
 76.60947     40.3 1.063e+04 6.675e-09
 76.62904     37.1 1.100e+04 1.052e-08
 76.64860     35.6 1.143e+04 1.535e-08
 76.66198     34.2 1.131e+04 1.573e-08
 76.67176     35.7 1.131e+04 1.553e-08
 76.68772     34.5 1.107e+04 1.451e-08
 76.70728     33.2 1.059e+04 1.076e-08
 76.72684     30.5 1.022e+04 7.107e-09
 76.74640     26.8 1.008e+04 6.015e-09
 76.76596     20.4 1.130e+04 8.209e-09
 76.78552     11.5 1.360e+04 2.091e-08
 76.80508      8.8 1.365e+04 4.561e-08
 76.82464      8.0 1.317e+04 4.515e-08
 76.84420      9.0 1.267e+04 1.641e-08
 76.86376      2.4 1.156e+04 5.046e-09
 76.88333     -3.0 9.339e+03 2.364e-09
 76.90289     -4.3 9.130e+03 1.729e-09
 76.92245     -4.6 9.090e+03 1.667e-09
 76.95189     -4.6 9.026e+03 1.593e-09
 76.99110     -5.4 9.308e+03 1.523e-09
 77.03023     -7.3 9.897e+03 1.948e-09
 77.05947     -9.0 1.003e+04 2.789e-09
 77.07893    -10.0 1.020e+04 3.130e-09
 77.09849    -11.6 1.010e+04 4.102e-09
 77.11805    -12.6 1.011e+04 4.527e-09
 77.13762    -13.3 1.004e+04 4.514e-09
 77.15718    -14.4 9.874e+03 3.650e-09
 77.18661    -15.7 9.816e+03 3.451e-09
 77.22583    -18.0 9.669e+03 3.015e-09
 77.26496    -19.9 9.578e+03 3.029e-09
 77.30408    -21.2 9.446e+03 2.871e-09
 77.34320    -22.2 9.244e+03 2.032e-09
 77.37041    -23.7 9.177e+03 1.626e-09
 77.38997    -22.8 9.139e+03 1.479e-09
 77.42144    -26.3 1.011e+04 1.441e-09
 77.45068    -39.0 1.292e+04 2.009e-09
 77.47015    -46.2 1.503e+04 1.401e-08
 77.48971    -49.2 1.640e+04 5.662e-08
 77.50927    -53.9 1.697e+04 9.489e-08
 77.52883    -60.3 1.648e+04 8.336e-08
 77.54839    -68.1 1.397e+04 2.549e-08
 77.56795    -76.8 1.144e+04 9.386e-09
 77.58751    -82.0 1.063e+04 7.553e-09
 77.60707    -84.8 1.054e+04 7.571e-09
 77.62663    -87.4 1.052e+04 8.910e-09
 77.64619    -89.9 1.051e+04 9.657e-09
 77.66576    -92.1 1.044e+04 9.707e-09
 77.68532    -93.9 9.953e+03 8.805e-09
 77.70488    -95.3 9.445e+03 7.298e-09
 77.72433    -96.5 9.068e+03 5.917e-09
 77.73411    -97.7 8.979e+03 5.669e-09
 77.74400    -98.8 8.730e+03 4.672e-09
 77.76356   -100.1 8.535e+03 3.933e-09
 77.78312   -101.3 8.427e+03 3.508e-09
 77.81256   -102.2 8.442e+03 3.309e-09
 77.85178   -103.7 8.437e+03 3.409e-09
 77.89090   -104.4 8.578e+03 3.538e-09
 77.93002   -104.6 8.710e+03 3.536e-09
 77.96914   -104.5 8.913e+03 3.395e-09
 78.00826   -104.2 9.147e+03 3.270e-09
 78.04739   -103.5 9.409e+03 3.190e-09
 78.07864   -102.7 9.711e+03 3.131e-09
 78.09820   -104.9 9.724e+03 3.039e-09
 78.12563   -103.7 9.909e+03 2.732e-09
 78.16475   -102.3 1.005e+04 2.366e-09
 78.20387   -100.9 1.019e+04 1.993e-09
 78.24299    -99.3 1.022e+04 1.666e-09
 78.28211    -97.6 1.021e+04 1.436e-09
 78.32124    -95.9 1.020e+04 1.342e-09
 78.36036    -94.3 1.021e+04 1.332e-09
 78.39948    -93.0 1.044e+04 1.691e-09
 78.43860    -91.8 1.068e+04 2.300e-09
 78.47772    -90.9 1.097e+04 3.025e-09
 78.51684    -90.6 1.125e+04 3.628e-09
 78.55596    -90.8 1.142e+04 4.057e-09
 78.59509    -91.3 1.155e+04 4.536e-09
 78.63421    -91.6 1.164e+04 5.109e-09
 78.67333    -91.7 1.171e+04 5.705e-09
 78.71245    -91.3 1.178e+04 6.065e-09
 78.75157    -90.8 1.179e+04 6.076e-09
 78.78687    -90.1 1.176e+04 5.568e-09
 78.80644    -91.5 1.149e+04 4.635e-09
 78.82982    -90.2 1.125e+04 3.179e-09
 78.86894    -88.7 1.107e+04 2.033e-09
 78.90806    -87.0 1.104e+04 1.379e-09
 78.94718    -85.3 1.111e+04 1.115e-09
 78.98630    -83.6 1.114e+04 1.056e-09
 79.02542    -81.9 1.118e+04 1.055e-09
 79.06454    -80.4 1.130e+04 1.179e-09
 79.10367    -78.9 1.137e+04 1.401e-09
 79.14279    -77.3 1.150e+04 1.576e-09
 79.18191    -75.8 1.164e+04 1.626e-09
 79.22103    -74.4 1.177e+04 1.595e-09
 79.26015    -73.0 1.189e+04 1.649e-09
 79.29927    -71.6 1.201e+04 1.854e-09
 79.33840    -70.1 1.221e+04 2.239e-09
 79.37752    -68.5 1.240e+04 2.676e-09
 79.41664    -67.1 1.249e+04 2.857e-09
 79.45576    -65.8 1.246e+04 2.806e-09
 79.49488    -64.5 1.256e+04 2.671e-09
 79.51467    -63.5 1.267e+04 2.556e-09
 79.53423    -64.2 1.264e+04 2.275e-09
 79.57312    -63.7 1.289e+04 2.678e-09
 79.61225    -63.4 1.297e+04 3.478e-09
 79.65137    -63.1 1.296e+04 4.194e-09
 79.69049    -62.8 1.291e+04 4.491e-09
 79.72961    -62.5 1.289e+04 4.491e-09
 79.76873    -62.4 1.292e+04 4.494e-09
 79.80785    -62.7 1.315e+04 5.896e-09
 79.84697    -63.3 1.350e+04 9.832e-09
 79.88610    -64.2 1.384e+04 1.301e-08
 79.92522    -65.6 1.387e+04 1.276e-08
 79.96434    -66.2 1.351e+04 7.601e-09
 80.00346    -66.8 1.319e+04 3.616e-09
 80.04258    -67.5 1.313e+04 2.349e-09
 80.08170    -68.0 1.319e+04 2.216e-09
 80.12083    -68.5 1.354e+04 2.959e-09
 80.15995    -68.8 1.372e+04 4.298e-09
 80.19907    -68.9 1.380e+04 4.783e-09
 80.22290    -68.9 1.376e+04 4.343e-09
 80.24246    -68.7 1.390e+04 2.588e-09
 80.27731    -68.2 1.404e+04 1.809e-09
 80.31643    -67.3 1.415e+04 1.094e-09
 80.35555    -66.0 1.415e+04 7.693e-10
 80.39468    -64.4 1.415e+04 6.247e-10
 80.43380    -62.7 1.412e+04 5.521e-10
 80.47292    -60.9 1.410e+04 4.944e-10
 80.51204    -58.8 1.404e+04 4.436e-10
 80.55116    -56.7 1.399e+04 4.210e-10
 80.59028    -54.7 1.402e+04 4.210e-10
 80.62940    -53.5 1.437e+04 5.270e-10
 80.66853    -52.8 1.394e+04 1.263e-09
 80.70765    -51.9 1.379e+04 2.876e-09
 80.74677    -51.4 1.391e+04 4.446e-09
 80.78589    -52.0 1.398e+04 4.813e-09
 80.82501    -53.3 1.399e+04 3.763e-09
 80.86413    -54.4 1.402e+04 2.598e-09
 80.90326    -55.1 1.399e+04 2.346e-09
 80.93113    -55.3 1.382e+04 2.583e-09
 80.95069    -54.8 1.379e+04 2.252e-09
 80.98150    -54.9 1.374e+04 2.089e-09
 81.02062    -54.9 1.373e+04 1.795e-09
 81.05974    -54.6 1.363e+04 1.574e-09
 81.09886    -53.9 1.347e+04 1.455e-09
 81.13798    -53.1 1.337e+04 1.420e-09
 81.17711    -51.9 1.330e+04 1.398e-09
 81.21623    -50.4 1.324e+04 1.291e-09
 81.25535    -48.7 1.322e+04 1.071e-09
 81.29447    -47.0 1.323e+04 8.593e-10
 81.33359    -45.2 1.325e+04 7.542e-10
 81.37271    -43.7 1.334e+04 7.421e-10
 81.41183    -43.4 1.415e+04 8.939e-10
 81.45096    -43.5 1.370e+04 2.867e-09
 81.49008    -42.8 1.365e+04 8.264e-09
 81.52920    -42.6 1.403e+04 1.408e-08
 81.56832    -44.1 1.424e+04 1.584e-08
 81.60744    -45.4 1.402e+04 1.304e-08
 81.63937    -46.0 1.371e+04 7.965e-09
 81.65893    -45.2 1.387e+04 8.114e-09
 81.68569    -45.7 1.360e+04 5.714e-09
 81.72481    -45.8 1.344e+04 4.890e-09
 81.76393    -45.7 1.338e+04 4.350e-09
 81.80305    -45.5 1.337e+04 3.941e-09
 81.84217    -45.5 1.339e+04 3.847e-09
 81.88129    -45.8 1.364e+04 4.177e-09
 81.91054    -46.2 1.374e+04 4.315e-09
 81.93000    -46.8 1.386e+04 5.429e-09
 81.94956    -47.4 1.402e+04 7.617e-09
 81.96912    -47.9 1.426e+04 1.055e-08
 81.98868    -48.5 1.452e+04 1.392e-08
 82.00307    -49.5 1.457e+04 1.651e-08
 82.01285    -49.8 1.454e+04 1.621e-08
 82.02780    -50.7 1.446e+04 1.663e-08
 82.04736    -51.3 1.398e+04 1.570e-08
 82.06692    -51.7 1.371e+04 1.260e-08
 82.08649    -52.0 1.357e+04 9.737e-09
 82.10605    -52.2 1.341e+04 7.868e-09
 82.12561    -52.3 1.327e+04 6.652e-09
 82.15505    -52.0 1.308e+04 5.603e-09
 82.19427    -50.6 1.276e+04 4.569e-09
 82.23339    -48.9 1.269e+04 4.311e-09
 82.27251    -47.2 1.267e+04 4.275e-09
 82.31163    -45.4 1.265e+04 4.593e-09
 82.34760    -43.5 1.264e+04 4.852e-09
 82.36716    -42.8 1.243e+04 4.145e-09
 82.38987    -40.9 1.246e+04 4.443e-09
 82.42899    -39.0 1.247e+04 4.313e-09
 82.46812    -37.0 1.232e+04 3.690e-09
 82.50724    -34.9 1.212e+04 2.709e-09
 82.54636    -32.7 1.198e+04 1.749e-09
 82.58548    -30.4 1.195e+04 1.085e-09
 82.62460    -28.2 1.198e+04 7.237e-10
 82.66372    -26.1 1.191e+04 5.879e-10
 82.70284    -23.8 1.188e+04 5.623e-10
 82.74197    -21.7 1.197e+04 5.953e-10
 82.78109    -20.4 1.169e+04 9.763e-10
 82.82021    -18.6 1.162e+04 1.792e-09
 82.85933    -16.8 1.180e+04 2.763e-09
 82.89845    -15.7 1.199e+04 3.103e-09
 82.93757    -15.3 1.229e+04 2.702e-09
 82.97670    -15.7 1.249e+04 2.188e-09
 83.01582    -16.2 1.242e+04 2.457e-09
 83.05494    -15.9 1.228e+04 3.140e-09
 83.07539    -15.7 1.221e+04 3.172e-09
 83.09495    -15.3 1.216e+04 2.735e-09
 83.13318    -15.0 1.187e+04 2.340e-09
 83.17230    -14.4 1.164e+04 1.972e-09
 83.21142    -13.6 1.157e+04 1.686e-09
 83.25055    -12.4 1.153e+04 1.620e-09
 83.28967    -11.4 1.155e+04 1.599e-09
 83.32879    -10.3 1.145e+04 1.861e-09
 83.36791     -8.8 1.145e+04 2.350e-09
 83.40703     -7.1 1.151e+04 2.783e-09
 83.44615     -5.5 1.153e+04 3.231e-09
 83.48527     -3.7 1.157e+04 3.646e-09
 83.52440     -2.2 1.169e+04 3.633e-09
 83.56352     -1.2 1.169e+04 3.521e-09
 83.60264     -0.2 1.159e+04 3.209e-09
 83.64176      1.6 1.145e+04 2.308e-09
 83.68088      3.4 1.161e+04 1.152e-09
 83.72000      3.9 1.202e+04 6.345e-10
 83.75913      5.1 1.190e+04 6.625e-10
 83.78362      6.4 1.162e+04 9.170e-10
 83.80319      7.1 1.156e+04 1.147e-09
 83.83737      8.6 1.155e+04 1.274e-09
 83.87649      9.9 1.161e+04 1.244e-09
 83.91561     10.9 1.164e+04 1.199e-09
 83.95473     12.1 1.171e+04 1.093e-09
 83.98120     13.2 1.186e+04 8.716e-10
 84.00076     13.5 1.176e+04 9.682e-10
 84.03298     14.5 1.199e+04 8.289e-10
 84.07210     15.0 1.211e+04 9.248e-10
 84.11122     15.7 1.207e+04 1.446e-09
 84.15034     16.8 1.206e+04 2.235e-09
 84.18946     17.7 1.209e+04 2.311e-09
 84.22858     19.1 1.203e+04 1.850e-09
 84.26770     20.2 1.199e+04 1.150e-09
 84.30683     20.9 1.200e+04 9.042e-10
 84.34595     22.4 1.193e+04 9.281e-10
 84.38507     24.0 1.194e+04 1.017e-09
 84.42419     25.5 1.198e+04 1.240e-09
 84.46331     27.2 1.197e+04 1.986e-09
 84.49186     28.9 1.237e+04 3.135e-09
 84.51142     29.0 1.227e+04 4.029e-09
 84.53168     29.9 1.255e+04 4.273e-09
 84.55114     29.4 1.300e+04 5.812e-09
 84.57070     27.6 1.355e+04 1.466e-08
 84.59026     27.2 1.483e+04 5.412e-08
 84.60982     27.1 1.617e+04 1.043e-07
 84.62938     26.5 1.618e+04 9.120e-08
 84.64894     25.7 1.581e+04 5.463e-08
 84.66851     23.5 1.553e+04 2.951e-08
 84.68807     21.5 1.495e+04 1.801e-08
 84.70763     20.1 1.461e+04 1.402e-08
 84.72719     18.9 1.496e+04 1.467e-08
 84.74675     16.0 1.599e+04 2.124e-08
 84.76631     12.3 1.653e+04 5.111e-08
 84.78587     11.5 1.636e+04 1.263e-07
 84.80543     11.9 1.611e+04 7.751e-08
 84.82499     12.1 1.667e+04 1.714e-08
 84.84455      6.2 1.628e+04 5.600e-09
 84.85556      4.6 1.491e+04 4.332e-09
 84.86534      4.9 1.483e+04 3.324e-09
 84.88367      5.0 1.493e+04 2.698e-09
 84.90323      5.0 1.484e+04 2.447e-09
 84.92279      4.8 1.493e+04 2.246e-09
 84.94236      4.7 1.493e+04 2.244e-09
 84.97179      4.9 1.463e+04 2.628e-09
 85.01101      4.9 1.452e+04 3.043e-09
 85.05014      4.9 1.452e+04 3.108e-09
 85.08926      4.7 1.466e+04 3.074e-09
 85.12838      4.4 1.440e+04 3.438e-09
 85.16750      4.5 1.452e+04 2.746e-09
 85.20009      4.1 1.453e+04 1.994e-09
 85.21965      3.9 1.436e+04 1.701e-09
 85.24574      3.4 1.419e+04 1.603e-09
 85.28486      2.6 1.436e+04 1.598e-09
 85.32399      2.2 1.385e+04 2.109e-09
 85.36311      2.7 1.404e+04 1.765e-09
 85.40223      3.2 1.429e+04 1.186e-09
 85.44135      3.5 1.421e+04 9.119e-10
 85.48047      4.5 1.426e+04 8.476e-10
 85.51959      5.3 1.416e+04 1.136e-09
 85.55871      6.1 1.440e+04 2.108e-09
 85.59784      6.5 1.455e+04 5.618e-09
 85.62708      6.0 1.437e+04 1.386e-08
 85.64654      5.9 1.514e+04 1.792e-08
 85.66610      5.4 1.508e+04 2.890e-08
 85.68566      6.0 1.488e+04 3.420e-08
 85.70522      6.0 1.546e+04 2.424e-08
 85.72479      4.9 1.537e+04 1.986e-08
 85.74435      4.4 1.482e+04 1.650e-08
 85.76391      4.5 1.458e+04 1.400e-08
 85.79335      4.9 1.467e+04 1.204e-08
 85.83257      5.2 1.431e+04 9.474e-09
 85.87169      5.9 1.416e+04 9.733e-09
 85.90832      6.3 1.427e+04 9.183e-09
 85.92788      5.9 1.383e+04 5.960e-09
 85.94993      5.9 1.400e+04 7.010e-09
 85.98905      5.7 1.387e+04 1.170e-08
 86.01829      5.8 1.410e+04 1.791e-08
 86.03776      5.8 1.420e+04 1.953e-08
 86.05732      5.4 1.446e+04 2.119e-08
 86.07688      4.7 1.475e+04 2.805e-08
 86.09644      4.4 1.504e+04 3.850e-08
 86.11600      4.7 1.526e+04 4.809e-08
 86.13556      4.6 1.544e+04 4.586e-08
 86.15512      4.0 1.604e+04 3.922e-08
 86.17468      1.8 1.705e+04 3.655e-08
 86.19424     -0.6 1.721e+04 5.012e-08
 86.21380     -2.4 1.678e+04 6.957e-08
 86.23337     -3.0 1.645e+04 9.399e-08
 86.25293     -3.7 1.653e+04 9.988e-08
 86.27202     -5.4 1.666e+04 9.736e-08
 86.28180     -6.6 1.673e+04 1.088e-07
 86.29205     -8.1 1.684e+04 1.326e-07
 86.31161     -9.2 1.702e+04 1.517e-07
 86.33117    -10.4 1.681e+04 1.392e-07
 86.35073    -11.3 1.610e+04 8.984e-08
 86.37029    -12.3 1.505e+04 5.023e-08
 86.38985    -12.8 1.414e+04 2.872e-08
 86.40941    -13.1 1.353e+04 1.691e-08
 86.42897    -13.7 1.318e+04 1.092e-08
 86.44853    -14.5 1.297e+04 8.983e-09
 86.46809    -14.8 1.291e+04 9.251e-09
 86.49753    -15.2 1.277e+04 1.028e-08
 86.52687    -15.6 1.259e+04 9.229e-09
 86.54634    -16.4 1.257e+04 9.995e-09
 86.56590    -17.6 1.260e+04 1.197e-08
 86.58546    -19.2 1.283e+04 1.620e-08
 86.60502    -20.0 1.305e+04 2.088e-08
 86.62458    -20.4 1.324e+04 2.278e-08
 86.63592    -21.2 1.315e+04 2.136e-08
 86.64570    -21.3 1.353e+04 2.493e-08
 86.66370    -22.2 1.319e+04 1.781e-08
 86.68326    -23.1 1.279e+04 1.393e-08
 86.70282    -23.6 1.261e+04 1.253e-08
 86.72238    -23.8 1.256e+04 1.159e-08
 86.74194    -24.1 1.256e+04 1.103e-08
 86.76151    -24.4 1.258e+04 1.092e-08
 86.78107    -25.0 1.272e+04 1.161e-08
 86.80063    -25.3 1.285e+04 1.304e-08
 86.82019    -25.5 1.292e+04 1.363e-08
 86.83975    -25.5 1.272e+04 1.168e-08
 86.85931    -25.3 1.245e+04 7.802e-09
 86.87887    -25.4 1.227e+04 4.795e-09
 86.89843    -25.5 1.221e+04 3.154e-09
 86.92787    -25.7 1.227e+04 2.281e-09
 86.96709    -24.9 1.207e+04 1.935e-09
 87.00621    -23.9 1.205e+04 1.906e-09
 87.04533    -23.1 1.223e+04 2.150e-09
 87.08445    -22.2 1.246e+04 2.365e-09
 87.12357    -21.4 1.256e+04 2.328e-09
 87.16270    -20.5 1.272e+04 1.809e-09
 87.20182    -19.8 1.264e+04 1.516e-09
 87.24094    -18.9 1.249e+04 1.506e-09
 87.28006    -17.7 1.228e+04 1.499e-09
 87.31918    -16.6 1.223e+04 1.322e-09
 87.34435    -16.1 1.218e+04 1.273e-09
 87.36391    -16.1 1.213e+04 1.294e-09
 87.39743    -16.1 1.209e+04 1.436e-09
 87.43655    -16.7 1.175e+04 2.466e-09
 87.47567    -16.7 1.177e+04 3.861e-09
 87.51479    -17.6 1.179e+04 4.453e-09
 87.55391    -18.9 1.156e+04 3.235e-09
 87.59303    -20.2 1.129e+04 1.750e-09
 87.63215    -21.0 1.111e+04 1.055e-09
 87.67128    -21.7 1.082e+04 8.966e-10
 87.71040    -22.1 1.075e+04 8.643e-10
 87.74952    -22.4 1.076e+04 8.914e-10
 87.78864    -22.8 1.065e+04 1.278e-09
 87.82776    -22.3 1.060e+04 1.784e-09
 87.86688    -21.8 1.056e+04 1.902e-09
 87.90601    -21.0 1.042e+04 1.757e-09
 87.94513    -20.1 1.044e+04 1.639e-09
 87.98425    -19.3 1.057e+04 2.044e-09
 88.02337    -18.2 1.070e+04 3.288e-09
 88.05258    -16.9 1.092e+04 5.266e-09
 88.07214    -17.0 1.060e+04 3.648e-09
 88.10161    -15.8 1.085e+04 5.554e-09
 88.14073    -14.9 1.140e+04 8.539e-09
 88.16998    -14.8 1.197e+04 1.270e-08
 88.18944    -15.6 1.250e+04 1.562e-08
 88.20900    -17.8 1.391e+04 2.772e-08
 88.22856    -20.5 1.519e+04 6.396e-08
 88.24812    -21.6 1.628e+04 1.173e-07
 88.26768    -23.2 1.665e+04 1.395e-07
 88.28724    -24.9 1.616e+04 1.018e-07
 88.30681    -26.5 1.484e+04 4.635e-08
 88.32637    -28.3 1.379e+04 2.216e-08
 88.34593    -29.5 1.306e+04 1.340e-08
 88.37537    -30.3 1.259e+04 9.325e-09
 88.41458    -30.6 1.244e+04 7.482e-09
 88.44383    -30.6 1.240e+04 7.381e-09
 88.46329    -30.8 1.246e+04 7.275e-09
 88.48285    -31.1 1.250e+04 7.033e-09
 88.50241    -31.3 1.253e+04 6.725e-09
 88.53185    -31.6 1.258e+04 5.357e-09
 88.57107    -31.9 1.260e+04 3.686e-09
 88.61019    -32.1 1.266e+04 2.816e-09
 88.64931    -31.8 1.266e+04 2.652e-09
 88.68844    -31.3 1.260e+04 2.578e-09
 88.72756    -30.7 1.241e+04 2.204e-09
 88.76081    -29.8 1.234e+04 1.640e-09
 88.78037    -29.7 1.229e+04 2.011e-09
 88.80580    -28.8 1.221e+04 1.399e-09
 88.84492    -27.7 1.214e+04 9.974e-10
 88.88404    -26.4 1.202e+04 8.464e-10
 88.92316    -24.9 1.202e+04 7.582e-10
 88.96229    -23.3 1.198e+04 7.252e-10
 89.00141    -21.5 1.194e+04 7.141e-10
 89.04053    -19.6 1.188e+04 6.900e-10
 89.07965    -17.5 1.186e+04 6.292e-10
 89.11877    -15.5 1.186e+04 5.522e-10
 89.15789    -13.6 1.186e+04 4.975e-10
 89.19701    -11.7 1.188e+04 4.858e-10
 89.23614    -10.1 1.183e+04 5.699e-10
 89.27526     -8.2 1.172e+04 7.485e-10
 89.31438     -5.9 1.172e+04 8.896e-10
 89.35350     -4.1 1.181e+04 8.837e-10
 89.39262     -2.5 1.198e+04 7.379e-10
 89.43174     -1.2 1.198e+04 7.012e-10
 89.46905      0.3 1.203e+04 6.975e-10
 89.48861     -0.5 1.199e+04 7.428e-10
 89.50999      0.9 1.209e+04 7.224e-10
 89.54911      2.5 1.210e+04 6.716e-10
 89.58823      3.7 1.239e+04 5.405e-10
 89.62735      4.6 1.247e+04 5.422e-10
 89.66647      4.9 1.248e+04 7.276e-10
 89.70559      5.8 1.233e+04 1.106e-09
 89.74472      7.3 1.236e+04 1.360e-09
 89.78384      8.5 1.241e+04 1.268e-09
 89.82296      9.8 1.252e+04 1.028e-09
 89.86208     11.0 1.256e+04 9.554e-10
 89.90120     12.1 1.260e+04 1.080e-09
 89.94032     13.1 1.262e+04 1.963e-09
 89.96957     13.1 1.273e+04 3.102e-09
 89.98903     13.2 1.287e+04 4.359e-09
 90.00859     13.4 1.294e+04 6.340e-09
 90.02815     13.9 1.303e+04 7.606e-09
 90.05759     13.4 1.315e+04 7.903e-09
 90.09681     12.1 1.315e+04 9.015e-09
 90.13593     10.7 1.315e+04 1.029e-08
 90.17505     10.3 1.284e+04 7.371e-09
 90.19684     10.9 1.247e+04 3.367e-09
 90.21640     10.0 1.254e+04 1.991e-09
 90.25330     10.0 1.250e+04 9.419e-10
 90.29242     11.0 1.221e+04 7.183e-10
 90.33154     12.4 1.218e+04 6.284e-10
 90.37066     13.6 1.220e+04 6.128e-10
 90.40978     14.4 1.222e+04 6.835e-10
 90.44890     15.0 1.215e+04 8.683e-10
 90.48802     15.8 1.207e+04 1.071e-09
 90.52715     16.5 1.208e+04 1.082e-09
 90.56627     17.5 1.205e+04 9.075e-10
 90.60539     18.4 1.212e+04 6.345e-10
 90.64451     18.9 1.207e+04 5.124e-10
 90.68363     19.9 1.187e+04 5.065e-10
 90.72275     21.2 1.183e+04 5.374e-10
 90.76187     22.5 1.176e+04 6.248e-10
 90.80100     24.1 1.167e+04 7.509e-10
 90.84012     25.8 1.160e+04 8.547e-10
 90.87924     27.6 1.158e+04 8.662e-10
 90.90507     29.5 1.155e+04 8.254e-10
 90.92463     28.7 1.162e+04 7.326e-10
 90.95748     30.4 1.156e+04 6.641e-10
 90.99660     32.3 1.154e+04 6.712e-10
 91.03573     33.9 1.152e+04 7.616e-10
 91.07485     35.8 1.145e+04 1.058e-09
 91.11397     37.7 1.163e+04 1.624e-09
 91.14321     38.5 1.165e+04 2.012e-09
 91.16268     38.6 1.177e+04 2.461e-09
 91.18224     38.4 1.201e+04 3.690e-09
 91.20180     37.8 1.226e+04 6.473e-09
 91.22136     37.3 1.264e+04 1.271e-08
 91.24092     37.3 1.314e+04 2.131e-08
 91.25899     36.9 1.319e+04 2.185e-08
 91.26877     35.9 1.318e+04 2.053e-08
 91.28004     35.5 1.290e+04 1.482e-08
 91.29960     34.0 1.264e+04 8.656e-09
 91.31916     31.8 1.215e+04 5.383e-09
 91.33872     30.4 1.146e+04 4.318e-09
 91.35828     30.1 1.125e+04 4.010e-09
 91.37784     30.1 1.121e+04 3.786e-09
 91.39740     29.9 1.116e+04 3.555e-09
 91.41696     29.8 1.118e+04 3.563e-09
 91.43653     29.5 1.127e+04 3.768e-09
 91.45609     28.9 1.145e+04 4.370e-09
 91.47565     27.9 1.172e+04 5.708e-09
 91.49521     26.9 1.199e+04 8.374e-09
 91.51477     26.2 1.223e+04 1.236e-08
 91.53024     25.7 1.251e+04 1.518e-08
 91.54002     25.3 1.290e+04 1.985e-08
 91.55389     24.9 1.282e+04 1.830e-08
 91.57345     23.6 1.279e+04 1.466e-08
 91.59301     21.6 1.247e+04 1.111e-08
 91.61257     19.1 1.196e+04 1.053e-08
 91.62289     17.6 1.159e+04 1.063e-08
 91.63267     16.7 1.136e+04 1.005e-08
 91.65169     15.3 1.141e+04 1.057e-08
 91.67125     14.8 1.124e+04 1.029e-08
 91.69082     14.2 1.093e+04 8.974e-09
 91.71038     13.5 1.062e+04 7.972e-09
 91.72994     13.7 1.011e+04 5.721e-09
 91.74950     13.1 9.898e+03 4.768e-09
 91.76906     13.3 9.568e+03 3.460e-09
 91.78862     12.8 9.481e+03 3.030e-09
 91.81806     13.2 9.218e+03 2.697e-09
 91.85728     13.9 9.128e+03 2.922e-09
 91.88652     14.4 9.171e+03 3.191e-09
 91.90598     14.6 9.277e+03 3.723e-09
 91.92554     14.6 9.444e+03 4.691e-09
 91.94511     14.4 9.778e+03 6.355e-09
 91.96467     14.1 1.021e+04 8.965e-09
 91.97701     14.0 1.054e+04 1.231e-08
 91.98679     15.4 1.040e+04 1.172e-08
 92.00379     14.5 1.136e+04 1.544e-08
 92.01841      6.5 1.508e+04 3.277e-08
 92.02814     -1.9 1.880e+04 6.552e-08
 92.03792     -5.9 1.789e+04 1.628e-07
 92.04770     -7.2 1.683e+04 2.595e-07
 92.05748     -5.9 1.701e+04 3.558e-07
 92.06726     -4.7 1.732e+04 3.795e-07
 92.07704     -4.7 1.754e+04 2.070e-07
 92.08682     -5.8 1.740e+04 1.158e-07
 92.10154    -13.8 1.550e+04 3.041e-08
 92.12115    -24.9 1.056e+04 1.247e-08
 92.14071    -26.9 1.039e+04 1.296e-08
 92.16027    -27.6 1.097e+04 1.856e-08
 92.17983    -27.6 1.148e+04 2.431e-08
 92.19940    -27.2 1.176e+04 2.695e-08
 92.21896    -27.2 1.180e+04 2.674e-08
 92.23852    -27.6 1.149e+04 2.114e-08
 92.25808    -28.5 1.109e+04 1.579e-08
 92.27764    -29.6 1.066e+04 1.231e-08
 92.29720    -30.4 1.022e+04 1.010e-08
 92.31676    -30.7 9.837e+03 8.674e-09
 92.33112    -30.9 9.539e+03 7.758e-09
 92.34090    -30.9 9.183e+03 6.377e-09
 92.35588    -30.7 9.142e+03 6.243e-09
 92.37544    -30.5 9.206e+03 6.274e-09
 92.39500    -30.3 9.278e+03 6.609e-09
 92.41456    -30.1 9.373e+03 7.081e-09
 92.43412    -29.7 9.507e+03 7.698e-09
 92.45368    -29.3 9.676e+03 8.426e-09
 92.47325    -29.0 9.874e+03 9.232e-09
 92.49281    -28.8 1.011e+04 1.031e-08
 92.51237    -28.7 1.040e+04 1.165e-08
 92.53193    -28.7 1.070e+04 1.306e-08
 92.56137    -28.5 1.111e+04 1.447e-08
 92.60059    -29.0 1.145e+04 1.569e-08
 92.63971    -29.8 1.150e+04 1.454e-08
 92.67883    -30.5 1.115e+04 1.085e-08
 92.70807    -30.9 1.075e+04 8.278e-09
 92.72754    -30.7 1.071e+04 7.652e-09
 92.74710    -30.8 1.054e+04 6.017e-09
 92.76666    -30.6 1.055e+04 5.010e-09
 92.78622    -30.5 1.046e+04 4.032e-09
 92.80578    -30.3 1.045e+04 3.370e-09
 92.83522    -30.0 1.059e+04 2.769e-09
 92.87444    -29.7 1.053e+04 2.404e-09
 92.91356    -28.7 1.044e+04 2.413e-09
 92.95268    -27.6 1.046e+04 2.980e-09
 92.99180    -26.4 1.058e+04 3.394e-09
 93.02977    -25.5 1.063e+04 3.739e-09
 93.04933    -25.1 1.031e+04 2.892e-09
 93.07004    -24.8 1.054e+04 3.255e-09
 93.10917    -24.8 1.084e+04 4.691e-09
 93.14829    -24.6 1.112e+04 7.018e-09
 93.18741    -24.3 1.137e+04 8.687e-09
 93.22653    -24.8 1.146e+04 8.469e-09
 93.26565    -25.2 1.133e+04 5.935e-09
 93.30477    -25.7 1.118e+04 4.046e-09
 93.34389    -26.0 1.104e+04 3.427e-09
 93.38302    -26.1 1.103e+04 3.444e-09
 93.42214    -26.5 1.116e+04 5.061e-09
 93.46126    -26.5 1.149e+04 8.303e-09
 93.50038    -26.0 1.178e+04 1.088e-08
 93.53950    -26.0 1.175e+04 1.128e-08
 93.57862    -25.6 1.137e+04 9.405e-09
 93.61774    -25.2 1.124e+04 8.317e-09
 93.65687    -24.6 1.145e+04 9.546e-09
 93.69599    -23.8 1.174e+04 1.340e-08
 93.73511    -22.7 1.196e+04 1.584e-08
 93.75756    -21.8 1.184e+04 1.552e-08
 93.77712    -22.2 1.141e+04 1.143e-08
 93.81335    -20.7 1.110e+04 6.941e-09
 93.85247    -19.3 1.082e+04 3.688e-09
 93.89160    -18.2 1.060e+04 2.428e-09
 93.93072    -17.7 1.059e+04 2.027e-09
 93.96984    -17.9 1.051e+04 2.201e-09
 94.00896    -18.7 1.053e+04 3.699e-09
 94.04808    -19.2 1.107e+04 4.800e-09
 94.07733    -20.1 1.123e+04 4.959e-09
 94.09679    -20.5 1.131e+04 5.125e-09
 94.11148    -20.9 1.118e+04 5.120e-09
 94.12127    -19.7 1.104e+04 4.736e-09
 94.13591    -19.8 1.119e+04 5.096e-09
 94.15547    -20.1 1.129e+04 5.608e-09
 94.17503    -20.2 1.156e+04 6.578e-09
 94.19459    -19.9 1.190e+04 7.623e-09
 94.21415    -20.0 1.212e+04 8.641e-09
 94.23371    -20.2 1.236e+04 1.047e-08
 94.25327    -20.9 1.265e+04 1.387e-08
 94.27283    -21.8 1.318e+04 2.096e-08
 94.29240    -22.7 1.369e+04 3.265e-08
 94.31196    -23.0 1.405e+04 4.505e-08
 94.33152    -23.0 1.409e+04 4.877e-08
 94.35108    -23.6 1.392e+04 3.962e-08
 94.37064    -28.1 1.629e+04 2.825e-08
 94.39020    -35.7 1.837e+04 3.816e-08
 94.40976    -39.7 1.707e+04 8.109e-08
 94.42932    -40.9 1.669e+04 1.249e-07
 94.44888    -41.9 1.682e+04 1.303e-07
 94.46560    -43.8 1.663e+04 1.060e-07
 94.47538    -46.6 1.574e+04 6.154e-08
 94.48800    -50.6 1.331e+04 2.520e-08
 94.50756    -54.1 1.118e+04 1.385e-08
 94.52712    -56.1 1.045e+04 1.067e-08
 94.54669    -57.2 1.013e+04 8.768e-09
 94.56625    -57.9 9.866e+03 7.230e-09
 94.58581    -58.7 9.627e+03 5.852e-09
 94.60537    -59.3 9.388e+03 4.616e-09
 94.62493    -59.8 9.143e+03 3.692e-09
 94.64449    -60.1 8.899e+03 2.993e-09
 94.66405    -60.4 8.684e+03 2.564e-09
 94.68361    -60.5 8.609e+03 2.433e-09
 94.70317    -61.3 8.797e+03 2.459e-09
 94.72273    -63.5 1.012e+04 3.059e-09
 94.74229    -65.6 1.112e+04 6.357e-09
 94.76185    -66.4 1.174e+04 1.395e-08
 94.78141    -66.3 1.245e+04 2.509e-08
 94.80098    -66.0 1.315e+04 3.484e-08
 94.81972    -66.1 1.352e+04 3.831e-08
 94.82950    -67.6 1.306e+04 2.940e-08
 94.84010    -68.8 1.251e+04 2.129e-08
 94.85966    -70.0 1.149e+04 1.401e-08
 94.87922    -70.9 1.053e+04 9.495e-09
 94.89878    -71.2 9.947e+03 6.848e-09
 94.91834    -71.3 9.594e+03 5.153e-09
 94.93790    -71.2 9.319e+03 4.011e-09
 94.95746    -70.9 9.118e+03 3.301e-09
 94.97702    -70.6 9.025e+03 2.941e-09
 94.99658    -70.2 9.023e+03 2.837e-09
 95.01614    -69.9 9.157e+03 2.911e-09
 95.03570    -69.9 9.317e+03 3.261e-09
 95.05527    -69.9 9.489e+03 3.830e-09
 95.07483    -69.8 9.672e+03 4.658e-09
 95.09439    -69.7 9.822e+03 5.462e-09
 95.11395    -69.4 9.882e+03 5.831e-09
 95.13351    -69.0 9.849e+03 5.732e-09
 95.15307    -68.5 9.713e+03 4.891e-09
 95.17263    -68.0 9.538e+03 3.821e-09
 95.18361    -67.5 9.395e+03 2.980e-09
 95.19339    -68.0 9.257e+03 2.370e-09
 95.22163    -67.2 9.247e+03 2.029e-09
 95.26085    -65.4 9.274e+03 1.971e-09
 95.29997    -63.5 9.470e+03 2.091e-09
 95.33909    -61.9 9.742e+03 2.496e-09
 95.36833    -60.8 9.983e+03 3.077e-09
 95.38780    -60.6 1.008e+04 3.533e-09
 95.40736    -59.9 1.027e+04 4.406e-09
 95.42692    -59.4 1.042e+04 5.169e-09
 95.44648    -58.8 1.062e+04 5.995e-09
 95.46604    -58.4 1.078e+04 6.612e-09
 95.48560    -58.1 1.090e+04 6.922e-09
 95.50516    -57.8 1.095e+04 6.948e-09
 95.52472    -57.4 1.097e+04 6.583e-09
 95.53773    -57.0 1.096e+04 5.914e-09
 95.54751    -57.3 1.094e+04 5.532e-09
 95.56384    -56.8 1.092e+04 4.801e-09
 95.58341    -56.2 1.092e+04 3.971e-09
 95.60297    -55.7 1.100e+04 3.147e-09
 95.62253    -55.3 1.109e+04 2.573e-09
 95.65197    -54.5 1.117e+04 2.457e-09
 95.69118    -52.7 1.113e+04 1.940e-09
 95.73031    -50.6 1.115e+04 1.636e-09
 95.76943    -48.2 1.117e+04 1.541e-09
 95.80855    -45.6 1.137e+04 1.563e-09
 95.84767    -43.1 1.159e+04 1.683e-09
 95.88226    -40.8 1.181e+04 2.000e-09
 95.90182    -41.5 1.169e+04 1.800e-09
 95.92591    -39.2 1.192e+04 2.194e-09
 95.95516    -37.7 1.210e+04 2.623e-09
 95.97462    -37.3 1.209e+04 3.062e-09
 95.99418    -36.3 1.229e+04 3.931e-09
 96.01374    -35.6 1.239e+04 4.924e-09
 96.03330    -34.7 1.253e+04 6.086e-09
 96.05286    -34.0 1.261e+04 7.172e-09
 96.07242    -33.3 1.266e+04 8.148e-09
 96.09198    -32.8 1.263e+04 8.747e-09
 96.11155    -32.2 1.260e+04 9.051e-09
 96.13111    -31.7 1.255e+04 8.809e-09
 96.15067    -31.1 1.241e+04 8.403e-09
 96.17023    -30.8 1.222e+04 7.735e-09
 96.19967    -29.9 1.207e+04 7.321e-09
 96.23889    -28.4 1.180e+04 5.977e-09
 96.27801    -26.8 1.153e+04 4.745e-09
 96.31713    -24.9 1.126e+04 3.888e-09
 96.35625    -22.8 1.108e+04 3.347e-09
 96.39537    -20.6 1.101e+04 3.048e-09
 96.43449    -18.3 1.093e+04 2.760e-09
 96.47361    -16.0 1.085e+04 2.500e-09
 96.51274    -13.7 1.083e+04 2.268e-09
 96.55186    -11.8 1.077e+04 2.072e-09
 96.59049     -9.8 1.081e+04 1.988e-09
 96.61006    -10.0 1.069e+04 1.896e-09
 96.63010     -8.1 1.067e+04 1.801e-09
 96.66922     -6.2 1.066e+04 1.797e-09
 96.70834     -4.4 1.070e+04 1.871e-09
 96.74747     -2.7 1.082e+04 2.030e-09
 96.78659     -0.9 1.097e+04 2.245e-09
 96.82571      0.6 1.126e+04 2.243e-09
 96.85495      1.5 1.128e+04 2.319e-09
 96.87442      1.7 1.136e+04 2.574e-09
 96.89398      1.9 1.151e+04 3.136e-09
 96.91354      1.6 1.182e+04 4.039e-09
 96.93310      0.5 1.234e+04 6.526e-09
 96.95266     -1.0 1.318e+04 1.344e-08
 96.96398     -1.4 1.341e+04 2.834e-08
 96.97376     -1.1 1.330e+04 2.305e-08
 96.99178     -0.9 1.357e+04 3.330e-08
 97.01134     -0.9 1.348e+04 2.822e-08
 97.03090     -1.4 1.336e+04 1.757e-08
 97.05046     -3.6 1.310e+04 1.103e-08
 97.07002     -4.7 1.218e+04 9.620e-09
 97.08958     -4.4 1.200e+04 8.731e-09
 97.10914     -4.0 1.213e+04 6.840e-09
 97.13858     -3.1 1.180e+04 5.583e-09
 97.17780     -1.9 1.180e+04 4.613e-09
 97.20705     -0.7 1.197e+04 4.334e-09
 97.22651     -0.5 1.197e+04 4.358e-09
 97.24607      0.6 1.213e+04 4.731e-09
 97.26563      0.9 1.231e+04 4.927e-09
 97.28519      1.4 1.226e+04 6.154e-09
 97.30475      1.7 1.250e+04 6.695e-09
 97.31809      2.4 1.252e+04 8.094e-09
 97.32787      2.7 1.233e+04 6.995e-09
 97.34387      3.1 1.240e+04 7.261e-09
 97.36343      3.7 1.259e+04 7.424e-09
 97.38299      3.8 1.259e+04 7.431e-09
 97.41243      4.9 1.262e+04 6.243e-09
 97.45165      5.3 1.272e+04 5.046e-09
 97.49077      5.7 1.276e+04 4.660e-09
 97.52990      5.8 1.277e+04 4.530e-09
 97.56902      6.3 1.259e+04 3.858e-09
 97.60814      7.3 1.251e+04 2.550e-09
 97.64726      7.9 1.251e+04 1.910e-09
 97.68638      9.1 1.239e+04 1.905e-09
 97.72550     10.6 1.237e+04 2.044e-09
 97.76462     12.3 1.251e+04 2.617e-09
 97.79387     13.0 1.275e+04 3.267e-09
 97.81333     13.4 1.285e+04 4.532e-09
 97.83289     13.9 1.300e+04 6.526e-09
 97.85245     14.2 1.325e+04 9.499e-09
 97.87201     13.6 1.392e+04 1.485e-08
 97.89157     11.7 1.525e+04 3.097e-08
 97.91113     10.4 1.611e+04 7.161e-08
 97.93070      9.4 1.651e+04 1.138e-07
 97.95026      8.4 1.645e+04 1.091e-07
 97.96982      7.3 1.610e+04 9.146e-08
 97.98938      6.3 1.539e+04 5.531e-08
 98.00894      4.8 1.428e+04 2.861e-08
 98.02633      3.1 1.301e+04 1.835e-08
 98.03611      0.8 1.202e+04 1.462e-08
 98.04806      1.2 1.170e+04 1.295e-08
 98.06762      2.0 1.154e+04 1.241e-08
 98.08718      2.8 1.146e+04 1.149e-08
 98.10674      3.2 1.148e+04 1.165e-08
 98.12630      4.2 1.125e+04 1.243e-08
 98.14586      5.7 1.134e+04 1.237e-08
 98.16542      6.7 1.154e+04 1.296e-08
 98.18499      7.9 1.153e+04 1.306e-08
 98.20455      9.3 1.141e+04 1.266e-08
 98.22411     11.3 1.125e+04 1.150e-08
 98.24367     11.9 1.136e+04 1.136e-08
 98.27311     15.0 1.094e+04 9.127e-09
 98.31233     18.2 1.102e+04 9.424e-09
 98.35145     21.7 1.134e+04 1.094e-08
 98.39057     25.3 1.171e+04 1.371e-08
 98.41981     26.8 1.180e+04 1.506e-08
 98.43928     28.6 1.186e+04 1.574e-08
 98.45884     30.1 1.196e+04 1.635e-08
 98.47840     30.6 1.214e+04 1.707e-08
 98.49796     29.8 1.281e+04 2.030e-08
 98.51752     26.2 1.474e+04 3.821e-08
 98.53708     23.3 1.610e+04 8.536e-08
 98.55664     23.2 1.588e+04 8.912e-08
 98.57620     22.7 1.552e+04 7.015e-08
 98.59576     18.9 1.550e+04 4.345e-08
 98.61532     11.4 1.519e+04 3.539e-08
 98.63488      2.8 1.621e+04 4.759e-08
 98.64950     -1.5 1.704e+04 7.199e-08
 98.65924     -4.9 1.779e+04 1.090e-07
 98.66902     -7.0 1.851e+04 1.491e-07
 98.67880     -9.9 1.888e+04 2.351e-07
 98.68858    -12.8 1.916e+04 3.622e-07
 98.69836    -16.3 1.899e+04 5.977e-07
 98.70814    -19.3 1.869e+04 9.509e-07
 98.71792    -22.0 1.873e+04 1.355e-06
 98.72770    -27.8 2.241e+04 1.558e-06
 98.73748    -43.7 2.778e+04 1.794e-06
 98.74422    -57.8 2.552e+04 2.845e-06
 98.74664    -64.6 2.230e+04 5.491e-06
 98.74966    -71.4 1.832e+04 1.375e-05
 98.75455    -75.7 1.619e+04 2.988e-05
 98.75944    -78.9 1.517e+04 5.067e-05
 98.76433    -80.8 1.472e+04 7.976e-05
 98.76922    -82.7 1.486e+04 7.082e-05
 98.77411    -84.2 1.564e+04 3.867e-05
 98.77900    -86.0 1.625e+04 2.308e-05
 98.78389    -87.5 1.694e+04 1.343e-05
 98.78878    -89.5 1.777e+04 6.755e-06
 98.79614    -93.4 1.912e+04 1.531e-06
 98.80594    -97.6 1.856e+04 2.696e-07
 98.81572   -100.2 1.625e+04 7.470e-08
 98.82550   -100.4 1.509e+04 4.993e-08
 98.83528    -99.7 1.485e+04 4.592e-08
 98.84506    -98.7 1.492e+04 4.538e-08
 98.85484    -97.8 1.492e+04 4.396e-08
 98.86462    -97.0 1.474e+04 4.185e-08
 98.87440    -95.9 1.465e+04 4.035e-08
 98.88418    -94.9 1.469e+04 3.958e-08
 98.89397    -94.1 1.470e+04 3.932e-08
 98.90375    -93.2 1.478e+04 3.934e-08
 98.91353    -92.6 1.483e+04 3.932e-08
 98.92825    -91.4 1.468e+04 3.624e-08
 98.94785    -89.8 1.478e+04 3.668e-08
 98.96742    -88.4 1.493e+04 3.832e-08
 98.98204    -87.7 1.530e+04 4.483e-08
 98.99177    -87.3 1.549e+04 4.843e-08
 99.00155    -86.4 1.585e+04 5.586e-08
 99.01133    -85.9 1.592e+04 6.051e-08
 99.02605    -84.6 1.586e+04 6.604e-08
 99.04566    -83.5 1.659e+04 7.889e-08
 99.06522    -82.6 1.718e+04 9.303e-08
 99.07947    -81.7 1.760e+04 1.083e-07
 99.08925    -83.1 1.787e+04 1.027e-07
 99.09845    -82.8 1.806e+04 1.099e-07
 99.10823    -82.9 1.830e+04 1.310e-07
 99.12390    -82.8 1.826e+04 1.317e-07
 99.14346    -82.6 1.806e+04 1.184e-07
 99.16302    -82.1 1.770e+04 9.730e-08
 99.18258    -81.3 1.729e+04 7.510e-08
 99.20214    -80.4 1.686e+04 5.455e-08
 99.22171    -79.2 1.637e+04 3.813e-08
 99.24127    -77.9 1.597e+04 2.624e-08
 99.26083    -76.6 1.569e+04 1.836e-08
 99.28039    -75.4 1.548e+04 1.319e-08
 99.29995    -74.2 1.527e+04 9.848e-09
 99.31951    -73.0 1.496e+04 7.643e-09
 99.33907    -71.8 1.433e+04 5.983e-09
 99.35863    -70.8 1.316e+04 4.704e-09
 99.37819    -70.4 1.151e+04 3.927e-09
 99.39775    -70.5 1.035e+04 4.222e-09
 99.41731    -70.9 1.017e+04 5.030e-09
 99.43687    -71.1 1.035e+04 6.171e-09
 99.45257    -71.2 1.061e+04 7.587e-09
 99.46235    -71.0 1.139e+04 9.424e-09
 99.47600    -71.1 1.156e+04 1.095e-08
 99.49556    -70.8 1.174e+04 1.202e-08
 99.51512    -70.5 1.205e+04 1.276e-08
 99.53468    -70.8 1.301e+04 1.362e-08
 99.55424    -71.3 1.442e+04 1.812e-08
 99.57380    -71.4 1.528e+04 2.891e-08
 99.59336    -71.0 1.570e+04 4.208e-08
 99.61292    -70.4 1.597e+04 5.225e-08
 99.63248    -69.8 1.607e+04 5.622e-08
 99.65204    -69.2 1.595e+04 5.337e-08
 99.67160    -68.4 1.567e+04 4.609e-08
 99.69116    -67.5 1.538e+04 3.899e-08
 99.71072    -66.5 1.519e+04 3.360e-08
 99.73029    -65.6 1.497e+04 2.909e-08
 99.74985    -64.4 1.466e+04 2.471e-08
 99.76941    -62.9 1.438e+04 2.106e-08
 99.78897    -61.5 1.419e+04 1.822e-08
 99.80669    -60.2 1.397e+04 1.562e-08
 99.81647    -60.5 1.385e+04 1.550e-08
 99.82809    -59.0 1.357e+04 1.299e-08
 99.84765    -57.4 1.341e+04 1.123e-08
 99.86721    -56.1 1.334e+04 1.017e-08
 99.88677    -55.0 1.324e+04 9.409e-09
 99.90633    -53.8 1.314e+04 8.950e-09
 99.92589    -52.2 1.314e+04 8.867e-09
 99.94545    -50.8 1.316e+04 8.899e-09
 99.96501    -49.4 1.308e+04 8.523e-09
 99.98457    -48.0 1.300e+04 7.828e-09
100.00414    -46.6 1.292e+04 7.132e-09
