# Columns:
#   distance along LOS (in CHIMPs)
#   peculiar velocity  (in km/s)
#   temperature (K)
#   HI number density
# pos=(106.903,58.1857,250.962), angles=(1.58294,4.93647)
  0.00491   -114.8 1.862e+04 1.287e-06
  0.01483   -117.1 1.936e+04 2.488e-07
  0.02198   -119.4 1.732e+04 9.737e-08
  0.02699   -118.5 1.668e+04 7.205e-08
  0.03487   -119.7 1.505e+04 4.872e-08
  0.04488   -119.8 1.425e+04 3.750e-08
  0.05903   -119.7 1.382e+04 3.082e-08
  0.06910   -119.2 1.292e+04 2.325e-08
  0.08004   -118.2 1.207e+04 1.666e-08
  0.10007   -117.5 1.108e+04 1.133e-08
  0.12011   -116.7 1.056e+04 8.610e-09
  0.14014   -115.5 1.033e+04 7.627e-09
  0.15311   -114.1 1.015e+04 6.838e-09
  0.16313   -114.0 1.012e+04 7.030e-09
  0.18021   -112.8 1.001e+04 6.390e-09
  0.21036   -111.7 9.856e+03 5.646e-09
  0.23723   -109.6 9.511e+03 4.690e-09
  0.24715   -109.6 9.530e+03 4.730e-09
  0.26034   -108.5 9.345e+03 3.874e-09
  0.29049   -107.7 9.078e+03 3.042e-09
  0.33066   -106.6 8.687e+03 2.262e-09
  0.37072   -104.8 8.237e+03 1.588e-09
  0.40536   -102.9 7.997e+03 1.182e-09
  0.42540   -102.8 7.981e+03 1.167e-09
  0.45086   -100.9 7.913e+03 9.347e-10
  0.49092    -99.1 7.901e+03 8.084e-10
  0.53099    -97.3 7.900e+03 7.589e-10
  0.57106    -95.7 7.927e+03 7.762e-10
  0.59343    -94.1 7.987e+03 8.294e-10
  0.61347    -94.8 8.212e+03 1.225e-09
  0.65119    -93.9 8.427e+03 1.378e-09
  0.69126    -93.5 8.836e+03 1.817e-09
  0.73133    -93.3 9.372e+03 2.836e-09
  0.76128    -92.5 9.743e+03 4.041e-09
  0.78122    -94.1 1.027e+04 6.223e-09
  0.80125    -94.5 1.060e+04 7.715e-09
  0.82128    -95.4 1.079e+04 8.300e-09
  0.84132    -96.4 1.090e+04 8.722e-09
  0.85531    -97.4 1.091e+04 8.413e-09
  0.86533    -98.4 1.077e+04 7.458e-09
  0.88138    -99.4 1.060e+04 6.509e-09
  0.90142    -99.8 1.054e+04 5.639e-09
  0.92145   -100.8 1.031e+04 4.323e-09
  0.93933   -101.0 1.025e+04 3.973e-09
  0.94944   -102.2 1.006e+04 3.369e-09
  0.97173   -103.1 9.821e+03 2.421e-09
  1.01180   -103.5 9.651e+03 1.802e-09
  1.05186   -103.0 9.618e+03 1.455e-09
  1.09193   -102.4 9.622e+03 1.230e-09
  1.11758   -101.6 9.654e+03 1.159e-09
  1.13761   -102.5 9.596e+03 1.134e-09
  1.17206   -101.8 9.626e+03 1.124e-09
  1.21213   -101.5 9.822e+03 1.258e-09
  1.25220   -101.5 9.915e+03 1.636e-09
  1.28561   -101.7 1.005e+04 2.171e-09
  1.30565   -103.0 9.983e+03 2.067e-09
  1.33233   -104.7 1.069e+04 3.405e-09
  1.37240   -108.9 1.203e+04 7.182e-09
  1.40235   -113.0 1.311e+04 1.463e-08
  1.42229   -116.0 1.385e+04 2.124e-08
  1.44232   -119.4 1.406e+04 2.503e-08
  1.46236   -122.5 1.382e+04 2.150e-08
  1.47349   -125.7 1.307e+04 1.119e-08
  1.48351   -127.8 1.268e+04 8.418e-09
  1.50242   -131.2 1.177e+04 4.592e-09
  1.52246   -133.4 1.132e+04 3.766e-09
  1.54249   -134.4 1.117e+04 3.608e-09
  1.55751   -135.1 1.111e+04 3.590e-09
  1.56752   -135.7 1.097e+04 3.314e-09
  1.58256   -136.1 1.092e+04 3.248e-09
  1.60259   -136.2 1.092e+04 3.143e-09
  1.62262   -136.4 1.090e+04 3.077e-09
  1.64162   -136.7 1.090e+04 2.970e-09
  1.66175   -137.5 1.085e+04 2.714e-09
  1.69294   -138.5 1.063e+04 2.183e-09
  1.73300   -139.0 1.040e+04 1.757e-09
  1.77307   -139.4 1.024e+04 1.507e-09
  1.80976   -139.5 1.013e+04 1.369e-09
  1.82979   -139.6 1.014e+04 1.368e-09
  1.85321   -139.3 1.004e+04 1.283e-09
  1.89327   -138.9 1.004e+04 1.198e-09
  1.93334   -138.5 1.015e+04 1.136e-09
  1.97341   -138.1 1.030e+04 1.137e-09
  1.99783   -137.9 1.045e+04 1.256e-09
  2.01786   -138.4 1.069e+04 1.923e-09
  2.05354   -138.6 1.078e+04 2.373e-09
  2.09361   -139.0 1.092e+04 2.938e-09
  2.13367   -140.2 1.106e+04 3.540e-09
  2.16586   -141.6 1.110e+04 4.006e-09
  2.18590   -142.8 1.160e+04 6.315e-09
  2.21381   -143.9 1.149e+04 6.349e-09
  2.25388   -144.3 1.114e+04 5.013e-09
  2.29394   -144.5 1.082e+04 3.434e-09
  2.33390   -143.7 1.049e+04 2.301e-09
  2.37397   -143.4 1.035e+04 1.751e-09
  2.41414   -141.9 1.023e+04 1.534e-09
  2.45421   -140.1 1.019e+04 1.473e-09
  2.49428   -138.3 1.020e+04 1.475e-09
  2.52197   -136.7 1.024e+04 1.603e-09
  2.54201   -137.3 1.039e+04 1.795e-09
  2.57441   -135.8 1.043e+04 1.948e-09
  2.61448   -134.5 1.050e+04 2.144e-09
  2.65455   -133.3 1.065e+04 2.520e-09
  2.69001   -132.3 1.084e+04 3.123e-09
  2.71004   -133.2 1.116e+04 4.133e-09
  2.72118   -132.7 1.141e+04 5.072e-09
  2.74122   -132.8 1.129e+04 4.124e-09
  2.77475   -132.4 1.146e+04 4.814e-09
  2.81482   -132.1 1.154e+04 5.188e-09
  2.85488   -131.9 1.155e+04 5.221e-09
  2.87808   -131.5 1.151e+04 5.163e-09
  2.89811   -132.6 1.168e+04 5.643e-09
  2.93502   -131.9 1.166e+04 5.422e-09
  2.97508   -131.0 1.159e+04 4.915e-09
  3.01515   -130.0 1.147e+04 4.293e-09
  3.04611   -128.7 1.137e+04 3.806e-09
  3.06615   -129.5 1.158e+04 4.114e-09
  3.09528   -127.9 1.157e+04 3.932e-09
  3.13535   -126.4 1.162e+04 3.929e-09
  3.17542   -125.1 1.183e+04 4.402e-09
  3.21415   -124.0 1.203e+04 5.508e-09
  3.23419   -125.3 1.205e+04 5.565e-09
  3.25555   -124.2 1.222e+04 6.586e-09
  3.29562   -123.2 1.230e+04 6.901e-09
  3.33569   -122.0 1.230e+04 6.664e-09
  3.37575   -120.5 1.225e+04 5.656e-09
  3.40222   -118.8 1.206e+04 4.546e-09
  3.42226   -119.1 1.210e+04 3.475e-09
  3.45589   -117.3 1.200e+04 2.974e-09
  3.49596   -115.3 1.185e+04 2.597e-09
  3.53602   -112.8 1.181e+04 2.399e-09
  3.57026   -110.3 1.184e+04 2.356e-09
  3.59029   -110.6 1.191e+04 2.145e-09
  3.61616   -108.3 1.210e+04 2.455e-09
  3.64611   -105.7 1.228e+04 2.985e-09
  3.66410   -105.7 1.226e+04 3.081e-09
  3.67412   -105.9 1.226e+04 3.057e-09
  3.69619   -104.6 1.231e+04 3.962e-09
  3.73636   -103.0 1.251e+04 5.527e-09
  3.75833   -101.8 1.280e+04 7.424e-09
  3.77836   -102.5 1.278e+04 7.557e-09
  3.81649   -101.8 1.311e+04 8.938e-09
  3.85656   -101.5 1.332e+04 9.308e-09
  3.89663   -101.5 1.337e+04 9.050e-09
  3.92637   -101.1 1.338e+04 6.830e-09
  3.94640   -101.5 1.341e+04 6.753e-09
  3.97676   -100.5 1.329e+04 4.368e-09
  4.01683    -99.3 1.329e+04 2.997e-09
  4.05690    -97.7 1.328e+04 2.270e-09
  4.09440    -95.9 1.322e+04 1.821e-09
  4.11444    -95.7 1.321e+04 1.688e-09
  4.13703    -93.7 1.311e+04 1.375e-09
  4.17710    -91.6 1.304e+04 1.101e-09
  4.21716    -89.6 1.301e+04 9.021e-10
  4.25723    -87.5 1.290e+04 8.154e-10
  4.28247    -85.4 1.281e+04 7.983e-10
  4.30251    -85.1 1.285e+04 7.538e-10
  4.33736    -82.9 1.275e+04 7.557e-10
  4.37743    -80.5 1.261e+04 7.165e-10
  4.41750    -78.2 1.268e+04 5.879e-10
  4.45051    -76.2 1.271e+04 4.747e-10
  4.47054    -75.6 1.276e+04 4.621e-10
  4.49763    -73.8 1.269e+04 4.279e-10
  4.53770    -71.6 1.259e+04 4.290e-10
  4.57777    -69.3 1.242e+04 4.758e-10
  4.61783    -66.8 1.239e+04 4.781e-10
  4.63858    -64.6 1.244e+04 4.475e-10
  4.65861    -64.0 1.254e+04 4.493e-10
  4.69797    -61.9 1.258e+04 4.950e-10
  4.73804    -59.8 1.245e+04 6.241e-10
  4.77810    -57.6 1.241e+04 7.118e-10
  4.80662    -55.5 1.249e+04 7.723e-10
  4.82665    -55.0 1.251e+04 8.644e-10
  4.85824    -53.2 1.252e+04 9.982e-10
  4.89830    -51.3 1.254e+04 1.230e-09
  4.93837    -49.6 1.252e+04 1.542e-09
  4.97465    -48.1 1.251e+04 1.902e-09
  4.99469    -47.5 1.254e+04 1.861e-09
  5.01851    -46.5 1.245e+04 2.378e-09
  5.05857    -45.9 1.236e+04 3.370e-09
  5.09864    -45.4 1.224e+04 4.201e-09
  5.13871    -45.1 1.212e+04 3.846e-09
  5.16272    -44.6 1.195e+04 2.767e-09
  5.18276    -43.8 1.201e+04 2.732e-09
  5.21884    -43.5 1.204e+04 1.787e-09
  5.25891    -43.2 1.198e+04 1.401e-09
  5.29897    -41.9 1.179e+04 1.397e-09
  5.33076    -40.3 1.180e+04 1.536e-09
  5.35079    -39.9 1.181e+04 1.534e-09
  5.37911    -38.6 1.211e+04 1.991e-09
  5.41918    -37.0 1.222e+04 2.473e-09
  5.44913    -36.9 1.235e+04 3.311e-09
  5.46906    -36.3 1.240e+04 3.806e-09
  5.48910    -35.9 1.257e+04 4.345e-09
  5.50862    -35.7 1.275e+04 5.122e-09
  5.51863    -36.1 1.281e+04 5.317e-09
  5.52917    -36.6 1.318e+04 7.226e-09
  5.54920    -37.8 1.376e+04 1.319e-08
  5.56923    -39.0 1.464e+04 2.884e-08
  5.58927    -40.0 1.551e+04 5.281e-08
  5.60265    -41.6 1.633e+04 7.113e-08
  5.61267    -41.4 1.591e+04 5.748e-08
  5.62933    -43.6 1.618e+04 5.500e-08
  5.64937    -45.9 1.596e+04 4.952e-08
  5.66940    -48.0 1.557e+04 3.774e-08
  5.68667    -49.8 1.503e+04 2.323e-08
  5.69669    -49.8 1.476e+04 2.028e-08
  5.70947    -51.6 1.427e+04 1.191e-08
  5.72950    -52.7 1.346e+04 8.603e-09
  5.74953    -53.4 1.307e+04 7.150e-09
  5.77968    -53.0 1.280e+04 5.691e-09
  5.81985    -53.6 1.240e+04 3.299e-09
  5.85490    -53.6 1.251e+04 2.881e-09
  5.87494    -54.1 1.282e+04 2.913e-09
  5.88987    -56.1 1.318e+04 5.584e-09
  5.90980    -56.2 1.330e+04 5.872e-09
  5.92984    -56.3 1.356e+04 9.396e-09
  5.94232    -56.0 1.369e+04 1.264e-08
  5.95121    -57.2 1.349e+04 1.026e-08
  5.95876    -57.7 1.351e+04 9.159e-09
  5.96990    -57.8 1.391e+04 6.687e-09
  5.98994    -58.8 1.369e+04 4.448e-09
  6.02008    -61.1 1.291e+04 3.843e-09
  6.04297    -62.3 1.291e+04 4.725e-09
  6.06301    -62.9 1.290e+04 4.613e-09
  6.10032    -64.0 1.296e+04 6.805e-09
  6.14038    -65.1 1.296e+04 8.442e-09
  6.18045    -65.9 1.269e+04 6.085e-09
  6.21101    -66.5 1.239e+04 2.616e-09
  6.23104    -65.6 1.247e+04 3.158e-09
  6.26059    -65.6 1.223e+04 1.543e-09
  6.30065    -64.8 1.199e+04 1.036e-09
  6.34072    -63.3 1.197e+04 8.315e-10
  6.37905    -61.6 1.199e+04 6.625e-10
  6.39908    -60.9 1.211e+04 9.737e-10
  6.42085    -59.1 1.205e+04 7.580e-10
  6.46092    -57.3 1.223e+04 5.006e-10
  6.50099    -56.2 1.230e+04 4.103e-10
  6.54105    -55.0 1.186e+04 5.945e-10
  6.56712    -52.5 1.144e+04 9.903e-10
  6.58715    -51.8 1.149e+04 1.041e-09
  6.62119    -49.1 1.144e+04 1.152e-09
  6.66126    -46.3 1.155e+04 9.598e-10
  6.70132    -44.2 1.160e+04 8.226e-10
  6.73515    -42.0 1.154e+04 7.510e-10
  6.75519    -41.2 1.157e+04 7.942e-10
  6.78146    -39.0 1.149e+04 7.935e-10
  6.82152    -36.7 1.140e+04 8.057e-10
  6.86159    -34.5 1.131e+04 8.093e-10
  6.90166    -32.3 1.120e+04 7.997e-10
  6.92322    -30.0 1.109e+04 7.547e-10
  6.94326    -29.2 1.112e+04 8.838e-10
  6.98179    -26.9 1.105e+04 7.662e-10
  7.02186    -24.7 1.098e+04 6.448e-10
  7.06193    -22.6 1.092e+04 5.655e-10
  7.09126    -20.6 1.083e+04 5.322e-10
  7.11129    -19.8 1.094e+04 5.769e-10
  7.14206    -17.9 1.093e+04 5.626e-10
  7.18213    -16.2 1.090e+04 5.718e-10
  7.22220    -14.5 1.068e+04 6.248e-10
  7.25930    -12.7 1.048e+04 7.091e-10
  7.27933    -12.0 1.054e+04 7.232e-10
  7.30233    -10.2 1.046e+04 7.758e-10
  7.34240     -8.5 1.039e+04 8.846e-10
  7.38246     -7.0 1.038e+04 1.070e-09
  7.42253     -5.6 1.038e+04 1.253e-09
  7.44737     -4.4 1.036e+04 1.273e-09
  7.46740     -3.9 1.036e+04 1.338e-09
  7.50266     -2.6 1.027e+04 1.220e-09
  7.54273     -1.2 1.015e+04 1.004e-09
  7.58280      0.2 1.005e+04 7.927e-10
  7.61540      1.8 9.877e+03 6.902e-10
  7.63544      2.6 9.908e+03 5.891e-10
  7.66293      4.4 9.728e+03 5.646e-10
  7.70300      6.2 9.703e+03 5.700e-10
  7.74307      8.0 9.633e+03 6.155e-10
  7.78313      9.5 9.599e+03 7.557e-10
  7.80347     10.8 9.749e+03 1.062e-09
  7.82351     12.1 9.755e+03 9.840e-10
  7.86327     12.9 1.004e+04 1.726e-09
  7.90334     13.2 1.032e+04 2.843e-09
  7.94340     13.4 1.046e+04 3.506e-09
  7.97151     13.6 1.044e+04 3.470e-09
  7.99154     14.9 1.060e+04 4.044e-09
  8.02354     15.2 1.058e+04 3.985e-09
  8.06360     15.5 1.057e+04 3.743e-09
  8.10367     15.7 1.065e+04 3.693e-09
  8.13955     15.7 1.089e+04 4.130e-09
  8.15958     17.0 1.126e+04 6.307e-09
  8.18381     16.7 1.157e+04 7.408e-09
  8.21376     15.1 1.147e+04 6.658e-09
  8.23339     13.5 1.160e+04 7.560e-09
  8.24340     14.1 1.178e+04 8.541e-09
  8.25373     12.1 1.200e+04 1.046e-08
  8.27376      9.7 1.250e+04 1.534e-08
  8.29379      7.7 1.298e+04 2.186e-08
  8.31383      5.8 1.314e+04 2.351e-08
  8.32742      4.2 1.297e+04 2.140e-08
  8.33744      3.7 1.295e+04 2.056e-08
  8.35390      2.1 1.246e+04 1.498e-08
  8.37393      1.1 1.210e+04 1.142e-08
  8.39396      0.2 1.175e+04 8.801e-09
  8.42411     -1.0 1.138e+04 6.551e-09
  8.46428     -0.9 1.099e+04 4.133e-09
  8.49565     -0.8 1.053e+04 2.864e-09
  8.51569     -1.2 1.124e+04 4.926e-09
  8.54441     -0.9 1.121e+04 4.839e-09
  8.58448     -0.1 1.120e+04 5.196e-09
  8.62454      0.9 1.121e+04 6.260e-09
  8.66369      2.2 1.137e+04 8.009e-09
  8.68372      1.4 1.153e+04 8.857e-09
  8.70468      2.8 1.157e+04 9.105e-09
  8.74474      4.3 1.143e+04 8.015e-09
  8.78481      6.1 1.115e+04 6.050e-09
  8.82488      8.2 1.085e+04 3.856e-09
  8.85176     10.2 1.067e+04 2.311e-09
  8.87179     10.6 1.077e+04 2.131e-09
  8.90501     12.8 1.070e+04 1.553e-09
  8.94508     15.1 1.064e+04 1.312e-09
  8.98515     17.8 1.059e+04 1.274e-09
  9.01980     20.5 1.061e+04 1.287e-09
  9.03983     21.2 1.064e+04 1.260e-09
  9.06528     23.7 1.074e+04 1.290e-09
  9.10535     25.9 1.085e+04 1.351e-09
  9.14382     27.9 1.093e+04 1.453e-09
  9.16385     27.3 1.080e+04 1.062e-09
  9.18548     29.3 1.091e+04 1.170e-09
  9.20787     31.0 1.103e+04 1.503e-09
  9.22790     31.4 1.107e+04 1.483e-09
  9.26562     32.4 1.155e+04 2.287e-09
  9.30568     32.6 1.178e+04 3.997e-09
  9.34575     32.4 1.198e+04 6.163e-09
  9.37590     32.2 1.217e+04 8.266e-09
  9.39594     31.4 1.263e+04 1.160e-08
  9.42589     30.8 1.261e+04 1.165e-08
  9.46595     30.5 1.239e+04 9.765e-09
  9.50602     30.5 1.196e+04 6.782e-09
  9.54394     30.6 1.150e+04 4.446e-09
  9.56397     28.7 1.163e+04 4.523e-09
  9.58615     29.2 1.121e+04 3.967e-09
  9.62622     30.3 1.120e+04 4.006e-09
  9.66629     31.5 1.120e+04 4.359e-09
  9.70635     32.4 1.122e+04 5.025e-09
  9.73201     32.9 1.117e+04 5.488e-09
  9.75204     30.0 1.150e+04 6.492e-09
  9.78649     30.0 1.145e+04 6.208e-09
  9.82656     30.2 1.143e+04 5.486e-09
  9.85651     29.1 1.164e+04 5.384e-09
  9.87644     28.2 1.160e+04 5.253e-09
  9.89648     27.5 1.150e+04 5.451e-09
  9.90987     27.1 1.150e+04 6.093e-09
  9.91989     25.1 1.180e+04 7.899e-09
  9.93655     25.2 1.190e+04 9.173e-09
  9.95658     25.4 1.201e+04 1.046e-08
  9.97661     25.7 1.210e+04 1.151e-08
  9.99389     26.0 1.225e+04 1.240e-08
 10.00390     23.8 1.232e+04 1.253e-08
 10.01668     23.1 1.269e+04 1.388e-08
 10.03671     21.6 1.332e+04 1.752e-08
 10.05675     19.9 1.395e+04 2.524e-08
 10.07678     18.4 1.442e+04 3.649e-08
 10.08792     17.2 1.488e+04 4.749e-08
 10.09794     14.3 1.452e+04 4.605e-08
 10.11685     13.1 1.444e+04 4.321e-08
 10.13688     11.6 1.409e+04 3.501e-08
 10.15691     10.7 1.397e+04 2.972e-08
 10.17194      9.6 1.374e+04 2.548e-08
 10.18196      6.1 1.246e+04 1.482e-08
 10.19698      4.9 1.206e+04 1.275e-08
 10.21702      3.8 1.170e+04 1.109e-08
 10.23705      2.7 1.153e+04 1.023e-08
 10.25596      1.4 1.164e+04 1.092e-08
 10.26598     -0.7 1.160e+04 1.067e-08
 10.27712     -2.5 1.221e+04 1.424e-08
 10.29715     -4.6 1.312e+04 2.259e-08
 10.31718     -6.7 1.378e+04 3.299e-08
 10.33722     -8.6 1.387e+04 3.725e-08
 10.34999     -9.8 1.348e+04 3.385e-08
 10.36001    -10.4 1.312e+04 2.927e-08
 10.37728    -10.9 1.222e+04 1.996e-08
 10.39732    -11.4 1.127e+04 1.207e-08
 10.41735    -12.0 1.053e+04 7.160e-09
 10.43401    -12.6 1.010e+04 4.556e-09
 10.44403    -12.5 1.003e+04 4.120e-09
 10.45742    -12.7 9.848e+03 2.989e-09
 10.47745    -12.9 9.704e+03 2.419e-09
 10.49748    -12.7 9.566e+03 2.382e-09
 10.51752    -12.5 9.563e+03 2.398e-09
 10.54767    -11.6 9.632e+03 2.741e-09
 10.58783    -10.4 9.711e+03 3.308e-09
 10.61226     -9.1 9.648e+03 3.318e-09
 10.63230     -7.7 9.643e+03 3.059e-09
 10.66797     -5.9 9.423e+03 2.673e-09
 10.70803     -3.8 9.164e+03 1.899e-09
 10.74810     -1.4 8.968e+03 1.262e-09
 10.78030      1.0 8.885e+03 8.725e-10
 10.80033      2.4 8.869e+03 8.570e-10
 10.82823      4.9 8.845e+03 6.632e-10
 10.86830      7.6 8.853e+03 6.272e-10
 10.90837     10.5 8.853e+03 6.320e-10
 10.94833     13.3 8.884e+03 6.552e-10
 10.98840     17.1 8.939e+03 6.799e-10
 11.02857     19.9 9.030e+03 7.935e-10
 11.06864     22.6 9.141e+03 9.835e-10
 11.10870     25.3 9.257e+03 1.239e-09
 11.13641     27.9 9.351e+03 1.507e-09
 11.15644     28.7 9.296e+03 1.272e-09
 11.18884     31.2 9.358e+03 1.449e-09
 11.22890     33.5 9.426e+03 1.548e-09
 11.26897     35.7 9.502e+03 1.557e-09
 11.30444     37.8 9.536e+03 1.545e-09
 11.32448     38.8 9.496e+03 1.382e-09
 11.34911     40.9 9.531e+03 1.382e-09
 11.38917     43.1 9.581e+03 1.386e-09
 11.42924     45.1 9.703e+03 1.410e-09
 11.46931     47.1 9.872e+03 1.513e-09
 11.49251     48.8 1.010e+04 1.750e-09
 11.51255     49.9 9.954e+03 1.553e-09
 11.54944     51.4 1.020e+04 1.838e-09
 11.58951     52.6 1.042e+04 2.306e-09
 11.62958     53.9 1.053e+04 2.831e-09
 11.66055     55.2 1.056e+04 3.082e-09
 11.68058     56.3 1.045e+04 2.578e-09
 11.70971     57.5 1.039e+04 2.526e-09
 11.74978     58.8 1.020e+04 2.245e-09
 11.78984     60.0 9.988e+03 1.838e-09
 11.82859     60.9 9.848e+03 1.594e-09
 11.84862     63.2 9.867e+03 1.559e-09
 11.86998     64.0 9.795e+03 1.479e-09
 11.91004     64.9 9.753e+03 1.479e-09
 11.95011     65.9 9.726e+03 1.528e-09
 11.99018     67.0 9.712e+03 1.732e-09
 12.01666     68.1 9.826e+03 2.157e-09
 12.03669     69.4 9.774e+03 1.877e-09
 12.07031     70.3 9.953e+03 2.454e-09
 12.11038     71.2 1.008e+04 2.996e-09
 12.14033     72.1 1.016e+04 3.193e-09
 12.16027     72.5 1.019e+04 3.323e-09
 12.18030     72.9 1.021e+04 3.414e-09
 12.19451     73.2 1.024e+04 3.442e-09
 12.20463     73.9 1.020e+04 3.049e-09
 12.22047     74.0 1.028e+04 3.066e-09
 12.24040     74.2 1.033e+04 3.059e-09
 12.26044     74.5 1.036e+04 3.015e-09
 12.27853     74.7 1.041e+04 2.955e-09
 12.28855     75.0 1.046e+04 2.786e-09
 12.30050     75.2 1.054e+04 2.667e-09
 12.32054     75.3 1.055e+04 2.637e-09
 12.34057     75.5 1.055e+04 2.552e-09
 12.36060     75.6 1.055e+04 2.555e-09
 12.37257     75.5 1.055e+04 2.690e-09
 12.37692     75.9 1.060e+04 2.507e-09
 12.38499     75.8 1.058e+04 2.225e-09
 12.40067     75.7 1.057e+04 2.484e-09
 12.42071     75.4 1.072e+04 3.212e-09
 12.44074     74.8 1.101e+04 4.505e-09
 12.45659     74.0 1.142e+04 6.601e-09
 12.46660     75.0 1.113e+04 4.893e-09
 12.48081     74.1 1.157e+04 7.093e-09
 12.50084     72.2 1.246e+04 1.158e-08
 12.52087     68.7 1.405e+04 2.240e-08
 12.54060     64.4 1.532e+04 4.125e-08
 12.55062     67.0 1.466e+04 3.093e-08
 12.56094     63.0 1.571e+04 5.715e-08
 12.58097     58.8 1.641e+04 6.708e-08
 12.60101     53.8 1.647e+04 5.942e-08
 12.62104     48.1 1.615e+04 3.757e-08
 12.63464     41.6 1.488e+04 2.191e-08
 12.64466     45.3 1.571e+04 2.927e-08
 12.66111     39.2 1.401e+04 1.899e-08
 12.68114     34.9 1.278e+04 1.675e-08
 12.70117     32.6 1.244e+04 1.515e-08
 12.71866     31.1 1.219e+04 1.256e-08
 12.72867     32.8 1.257e+04 1.589e-08
 12.74124     31.5 1.221e+04 1.244e-08
 12.76128     30.0 1.165e+04 9.043e-09
 12.78131     28.3 1.096e+04 7.182e-09
 12.80134     27.1 1.046e+04 6.808e-09
 12.81269     26.4 1.036e+04 6.747e-09
 12.82271     26.6 1.036e+04 7.140e-09
 12.84141     26.0 1.035e+04 7.101e-09
 12.86144     25.9 1.036e+04 7.123e-09
 12.88148     25.8 1.038e+04 7.248e-09
 12.89671     25.8 1.038e+04 7.492e-09
 12.90673     25.8 1.042e+04 7.880e-09
 12.92154     25.9 1.040e+04 7.987e-09
 12.94158     26.1 1.037e+04 7.935e-09
 12.96161     26.5 1.030e+04 7.768e-09
 12.98073     27.0 1.019e+04 7.500e-09
 12.99075     27.2 1.021e+04 7.707e-09
 13.00168     27.9 1.010e+04 7.443e-09
 13.02171     28.7 1.001e+04 7.221e-09
 13.04174     29.5 9.933e+03 7.040e-09
 13.06178     30.3 9.851e+03 6.815e-09
 13.07476     31.1 9.756e+03 6.527e-09
 13.08478     31.6 9.891e+03 7.123e-09
 13.10185     32.4 9.800e+03 6.800e-09
 13.12188     33.2 9.684e+03 6.322e-09
 13.14191     33.8 9.552e+03 5.825e-09
 13.15878     34.5 9.409e+03 5.335e-09
 13.16880     35.0 9.656e+03 6.625e-09
 13.18198     35.7 9.532e+03 6.380e-09
 13.20201     36.3 9.408e+03 6.205e-09
 13.22205     36.9 9.310e+03 6.092e-09
 13.24208     37.4 9.257e+03 6.087e-09
 13.25282     37.8 9.237e+03 6.168e-09
 13.26283     38.2 9.360e+03 6.872e-09
 13.28215     38.4 9.267e+03 6.640e-09
 13.30218     38.7 9.168e+03 6.447e-09
 13.32221     39.0 9.074e+03 6.204e-09
 13.33684     39.4 8.975e+03 5.909e-09
 13.34685     39.6 8.800e+03 5.408e-09
 13.36228     39.9 8.660e+03 4.937e-09
 13.38232     40.2 8.544e+03 4.621e-09
 13.40235     40.4 8.532e+03 4.598e-09
 13.42085     40.5 8.558e+03 4.669e-09
 13.43087     40.6 8.292e+03 3.936e-09
 13.44242     40.6 8.380e+03 4.186e-09
 13.46245     40.5 8.563e+03 4.761e-09
 13.48248     40.2 8.816e+03 5.674e-09
 13.50252     40.0 9.101e+03 6.911e-09
 13.51489     39.7 9.383e+03 8.340e-09
 13.52491     39.9 9.268e+03 7.889e-09
 13.54258     39.8 9.508e+03 9.204e-09
 13.56262     39.7 9.602e+03 9.615e-09
 13.58265     39.5 9.585e+03 9.553e-09
 13.59891     39.5 9.498e+03 9.227e-09
 13.60892     39.9 9.381e+03 8.685e-09
 13.62272     40.0 9.214e+03 8.000e-09
 13.64275     40.1 9.010e+03 7.206e-09
 13.66278     40.3 8.924e+03 6.838e-09
 13.68282     40.5 8.964e+03 6.913e-09
 13.69294     40.4 9.204e+03 7.480e-09
 13.70296     40.7 8.900e+03 6.497e-09
 13.72289     40.1 9.520e+03 8.227e-09
 13.74292     38.5 1.129e+04 1.584e-08
 13.76295     36.8 1.280e+04 2.800e-08
 13.77691     35.6 1.374e+04 3.866e-08
 13.78187     36.0 1.340e+04 3.464e-08
 13.78790     34.8 1.447e+04 5.039e-08
 13.79791     33.4 1.575e+04 8.089e-08
 13.80793     32.8 1.654e+04 1.177e-07
 13.81795     31.9 1.731e+04 1.577e-07
 13.82388     31.3 1.751e+04 1.685e-07
 13.82889     31.9 1.714e+04 1.449e-07
 13.84304     29.6 1.785e+04 1.718e-07
 13.86098     27.1 1.778e+04 1.353e-07
 13.87100     28.2 1.721e+04 1.239e-07
 13.88315     25.8 1.693e+04 8.965e-08
 13.90319     23.2 1.612e+04 6.372e-08
 13.92322     21.0 1.528e+04 5.289e-08
 13.94325     20.0 1.466e+04 4.801e-08
 13.95501     19.7 1.426e+04 4.162e-08
 13.96503     21.2 1.497e+04 5.398e-08
 13.98063     20.9 1.491e+04 5.341e-08
 13.99065     21.4 1.572e+04 7.024e-08
 14.00336     20.9 1.614e+04 8.624e-08
 14.02339     20.5 1.665e+04 9.540e-08
 14.03903     19.7 1.704e+04 8.181e-08
 14.04900     20.5 1.724e+04 9.817e-08
 14.05835     19.4 1.785e+04 7.287e-08
 14.06837     18.5 1.829e+04 5.224e-08
 14.07838     16.6 1.919e+04 3.517e-08
 14.08595     14.0 1.920e+04 2.325e-08
 14.09096     15.5 1.961e+04 5.001e-08
 14.10347     10.2 1.810e+04 3.475e-08
 14.12305      6.2 1.418e+04 2.168e-08
 14.13307      7.6 1.665e+04 3.259e-08
 14.14359      4.4 1.287e+04 1.887e-08
 14.16362      3.4 1.199e+04 1.468e-08
 14.18366      2.9 1.172e+04 1.137e-08
 14.20369      2.1 1.144e+04 8.486e-09
 14.21709      1.1 1.116e+04 6.482e-09
 14.22710      1.1 1.121e+04 6.450e-09
 14.24376     -0.4 1.133e+04 5.446e-09
 14.26379     -2.0 1.161e+04 5.828e-09
 14.28382     -3.0 1.195e+04 7.151e-09
 14.30110     -3.6 1.215e+04 9.130e-09
 14.31112     -4.1 1.236e+04 1.220e-08
 14.32389     -4.7 1.243e+04 1.403e-08
 14.34393     -5.3 1.245e+04 1.534e-08
 14.36396     -5.7 1.247e+04 1.622e-08
 14.38399     -6.0 1.239e+04 1.582e-08
 14.39514     -6.5 1.227e+04 1.459e-08
 14.40516     -7.1 1.197e+04 1.212e-08
 14.42406     -7.7 1.184e+04 1.105e-08
 14.44409     -8.2 1.185e+04 1.114e-08
 14.46413     -9.0 1.203e+04 1.222e-08
 14.47916     -9.9 1.247e+04 1.554e-08
 14.48917    -10.5 1.224e+04 1.426e-08
 14.50419    -11.0 1.275e+04 2.091e-08
 14.52423    -11.0 1.314e+04 2.879e-08
 14.54426    -10.8 1.321e+04 3.183e-08
 14.56318    -10.2 1.312e+04 3.131e-08
 14.57319    -10.0 1.259e+04 2.517e-08
 14.58433     -9.5 1.229e+04 2.110e-08
 14.60436     -9.4 1.203e+04 1.565e-08
 14.62440     -9.7 1.188e+04 1.110e-08
 14.64443    -10.4 1.171e+04 8.133e-09
 14.65721    -11.1 1.148e+04 6.582e-09
 14.66723    -11.2 1.117e+04 4.655e-09
 14.68450    -11.7 1.099e+04 4.811e-09
 14.70453    -12.1 1.099e+04 5.653e-09
 14.72456    -12.7 1.135e+04 7.641e-09
 14.74123    -13.3 1.185e+04 1.141e-08
 14.75125    -13.1 1.164e+04 1.013e-08
 14.76463    -13.4 1.203e+04 1.488e-08
 14.78466    -13.4 1.218e+04 1.826e-08
 14.80470    -13.2 1.206e+04 1.760e-08
 14.82473    -13.2 1.178e+04 1.501e-08
 14.83526    -13.4 1.154e+04 1.194e-08
 14.84528    -13.1 1.163e+04 1.295e-08
 14.86480    -13.7 1.153e+04 1.126e-08
 14.88483    -14.3 1.145e+04 1.060e-08
 14.90486    -14.7 1.150e+04 1.076e-08
 14.91928    -15.2 1.168e+04 1.175e-08
 14.92930    -14.7 1.205e+04 1.432e-08
 14.94493    -15.8 1.257e+04 1.797e-08
 14.96497    -17.1 1.306e+04 2.345e-08
 14.98500    -18.1 1.326e+04 2.628e-08
 15.00330    -18.7 1.310e+04 2.366e-08
 15.01332    -19.4 1.421e+04 4.037e-08
 15.02507    -19.9 1.372e+04 3.118e-08
 15.04510    -20.7 1.288e+04 1.942e-08
 15.06513    -21.9 1.181e+04 1.139e-08
 15.08517    -22.9 1.095e+04 7.546e-09
 15.09734    -23.5 1.051e+04 5.550e-09
 15.10735    -23.6 1.049e+04 5.606e-09
 15.12523    -23.7 1.012e+04 4.809e-09
 15.14527    -23.7 9.968e+03 4.656e-09
 15.16530    -23.6 9.973e+03 4.957e-09
 15.18135    -23.3 1.013e+04 5.667e-09
 15.19137    -23.1 9.822e+03 4.169e-09
 15.20537    -22.8 9.942e+03 4.586e-09
 15.22540    -22.6 1.020e+04 5.028e-09
 15.24544    -23.0 1.070e+04 5.797e-09
 15.26537    -24.0 1.127e+04 7.427e-09
 15.28541    -24.0 1.103e+04 6.603e-09
 15.30554    -25.0 1.135e+04 1.019e-08
 15.32557    -25.2 1.170e+04 1.423e-08
 15.34560    -25.2 1.197e+04 1.621e-08
 15.35941    -25.1 1.207e+04 1.519e-08
 15.36943    -24.2 1.196e+04 1.518e-08
 15.39578    -25.4 1.216e+04 1.414e-08
 15.43595    -27.9 1.231e+04 1.274e-08
 15.47602    -29.1 1.187e+04 1.310e-08
 15.51608    -29.8 1.169e+04 7.077e-09
 15.53756    -31.2 1.126e+04 4.574e-09
 15.55759    -29.8 1.151e+04 5.236e-09
 15.58648    -31.1 1.062e+04 4.542e-09
 15.60642    -32.0 1.092e+04 5.831e-09
 15.62148    -32.0 1.097e+04 4.492e-09
 15.63150    -31.2 1.113e+04 5.868e-09
 15.64611    -31.3 1.111e+04 5.695e-09
 15.66614    -32.0 1.136e+04 4.243e-09
 15.68617    -32.2 1.136e+04 4.300e-09
 15.70550    -33.3 1.095e+04 4.493e-09
 15.72563    -31.9 1.157e+04 5.845e-09
 15.74637    -33.0 1.097e+04 5.873e-09
 15.76631    -33.1 1.105e+04 6.075e-09
 15.79646    -34.5 1.132e+04 8.162e-09
 15.82651    -36.1 1.155e+04 1.096e-08
 15.84644    -37.6 1.193e+04 1.519e-08
 15.86647    -38.6 1.214e+04 2.040e-08
 15.88355    -39.0 1.233e+04 2.291e-08
 15.89357    -38.7 1.301e+04 2.764e-08
 15.90654    -40.8 1.326e+04 2.425e-08
 15.92658    -44.8 1.386e+04 1.971e-08
 15.94661    -48.6 1.444e+04 2.144e-08
 15.96664    -51.0 1.391e+04 2.272e-08
 15.97759    -53.0 1.308e+04 2.112e-08
 15.98760    -54.9 1.404e+04 3.168e-08
 16.00671    -56.4 1.302e+04 2.657e-08
 16.02674    -57.0 1.258e+04 2.467e-08
 16.04678    -57.0 1.237e+04 2.388e-08
 16.06161    -56.5 1.208e+04 2.213e-08
 16.07162    -57.9 1.175e+04 1.948e-08
 16.08684    -57.1 1.155e+04 1.713e-08
 16.10688    -56.5 1.134e+04 1.487e-08
 16.12691    -55.9 1.099e+04 1.260e-08
 16.14562    -54.9 1.077e+04 1.111e-08
 16.15564    -55.9 1.077e+04 1.122e-08
 16.16698    -55.0 1.074e+04 1.071e-08
 16.18701    -54.2 1.066e+04 1.029e-08
 16.20705    -53.2 1.071e+04 1.049e-08
 16.22708    -52.5 1.123e+04 1.255e-08
 16.23966    -52.6 1.180e+04 1.598e-08
 16.24968    -53.9 1.193e+04 1.810e-08
 16.26715    -54.4 1.284e+04 2.679e-08
 16.28718    -55.2 1.411e+04 4.539e-08
 16.30721    -55.2 1.537e+04 7.986e-08
 16.32368    -54.7 1.622e+04 1.188e-07
 16.33369    -55.3 1.537e+04 9.736e-08
 16.34728    -54.8 1.558e+04 1.055e-07
 16.36731    -54.4 1.496e+04 8.031e-08
 16.38735    -54.3 1.379e+04 4.401e-08
 16.40738    -55.6 1.264e+04 2.445e-08
 16.41771    -56.7 1.185e+04 1.601e-08
 16.42773    -56.8 1.150e+04 1.553e-08
 16.44745    -57.1 1.124e+04 1.271e-08
 16.46748    -57.2 1.094e+04 1.127e-08
 16.48751    -57.1 1.077e+04 1.046e-08
 16.50173    -56.9 1.061e+04 9.707e-09
 16.51175    -56.6 1.057e+04 9.680e-09
 16.52758    -56.3 1.044e+04 8.898e-09
 16.54762    -55.9 1.034e+04 8.161e-09
 16.56765    -55.5 1.029e+04 7.312e-09
 16.58575    -55.3 1.024e+04 6.482e-09
 16.59577    -55.3 1.033e+04 6.879e-09
 16.60772    -55.3 1.032e+04 6.262e-09
 16.62775    -55.7 1.026e+04 5.942e-09
 16.64778    -55.9 1.023e+04 5.870e-09
 16.66782    -56.1 1.028e+04 6.227e-09
 16.67978    -56.3 1.032e+04 6.996e-09
 16.68980    -56.5 1.040e+04 7.496e-09
 16.70788    -56.4 1.045e+04 8.188e-09
 16.72792    -56.3 1.049e+04 8.416e-09
 16.74795    -56.1 1.023e+04 7.989e-09
 16.76380    -55.4 9.756e+03 6.536e-09
 16.77382    -55.4 9.710e+03 6.272e-09
 16.78802    -54.7 9.269e+03 4.489e-09
 16.80805    -54.2 9.081e+03 3.210e-09
 16.83820    -54.8 8.667e+03 2.020e-09
 16.87836    -54.3 8.175e+03 1.158e-09
 16.91843    -53.3 7.984e+03 9.129e-10
 16.94205    -52.5 8.004e+03 8.810e-10
 16.96208    -54.8 8.404e+03 1.063e-09
 16.99857    -54.8 8.637e+03 1.815e-09
 17.03863    -54.2 8.978e+03 3.096e-09
 17.07870    -53.4 9.339e+03 3.954e-09
 17.11009    -53.1 9.429e+03 3.940e-09
 17.13012    -55.1 9.388e+03 3.661e-09
 17.15883    -54.6 9.362e+03 3.027e-09
 17.19890    -54.1 9.279e+03 2.461e-09
 17.23897    -53.3 9.342e+03 2.235e-09
 17.27812    -53.1 9.620e+03 2.471e-09
 17.29816    -54.5 9.869e+03 3.271e-09
 17.30899    -53.7 1.000e+04 3.943e-09
 17.32892    -54.2 1.024e+04 5.071e-09
 17.34896    -54.5 1.047e+04 6.926e-09
 17.36899    -54.5 1.069e+04 8.500e-09
 17.38198    -54.5 1.072e+04 9.288e-09
 17.39200    -54.8 1.068e+04 9.571e-09
 17.40906    -54.8 1.037e+04 8.079e-09
 17.42909    -55.1 1.009e+04 6.256e-09
 17.44913    -56.2 9.992e+03 5.056e-09
 17.46600    -58.1 1.005e+04 4.746e-09
 17.47602    -58.8 9.980e+03 4.455e-09
 17.48919    -61.3 1.042e+04 5.920e-09
 17.50923    -63.0 1.066e+04 9.572e-09
 17.52926    -63.2 1.114e+04 1.475e-08
 17.54929    -62.9 1.169e+04 1.869e-08
 17.56003    -63.0 1.191e+04 1.959e-08
 17.57005    -62.6 1.136e+04 1.565e-08
 17.58936    -63.0 1.132e+04 1.276e-08
 17.60939    -64.0 1.140e+04 1.077e-08
 17.62943    -64.8 1.145e+04 1.051e-08
 17.64405    -65.2 1.155e+04 1.214e-08
 17.65407    -64.4 1.132e+04 8.819e-09
 17.66949    -64.9 1.159e+04 1.196e-08
 17.68953    -65.2 1.195e+04 1.786e-08
 17.70956    -65.2 1.269e+04 2.830e-08
 17.72807    -64.8 1.360e+04 4.323e-08
 17.73809    -65.0 1.312e+04 3.617e-08
 17.74963    -63.8 1.392e+04 5.015e-08
 17.76966    -62.7 1.436e+04 5.519e-08
 17.78970    -62.1 1.420e+04 4.659e-08
 17.80973    -61.6 1.344e+04 3.095e-08
 17.82211    -61.2 1.247e+04 1.860e-08
 17.83212    -60.8 1.228e+04 1.950e-08
 17.84980    -60.4 1.144e+04 1.251e-08
 17.86983    -59.8 1.098e+04 8.751e-09
 17.88986    -59.0 1.069e+04 6.681e-09
 17.90612    -58.3 1.047e+04 5.924e-09
 17.91614    -58.0 1.058e+04 6.592e-09
 17.92993    -57.0 1.051e+04 6.410e-09
 17.94996    -55.6 1.063e+04 6.704e-09
 17.97000    -54.4 1.078e+04 6.930e-09
 17.99003    -53.3 1.085e+04 7.062e-09
 18.00016    -52.1 1.083e+04 7.319e-09
 18.01018    -52.0 1.085e+04 7.815e-09
 18.03010    -50.4 1.092e+04 7.997e-09
 18.05013    -49.2 1.090e+04 7.600e-09
 18.07016    -47.9 1.097e+04 7.515e-09
 18.08418    -46.8 1.121e+04 7.683e-09
 18.09419    -46.7 1.116e+04 7.879e-09
 18.11023    -46.3 1.170e+04 9.412e-09
 18.13027    -47.1 1.355e+04 1.251e-08
 18.15030    -49.3 1.533e+04 2.323e-08
 18.16820    -50.5 1.567e+04 5.337e-08
 18.17821    -50.3 1.568e+04 4.299e-08
 18.19037    -49.5 1.564e+04 7.898e-08
 18.21040    -48.6 1.571e+04 9.309e-08
 18.23043    -48.1 1.552e+04 7.245e-08
 18.25047    -48.2 1.505e+04 5.162e-08
 18.26223    -48.3 1.432e+04 3.163e-08
 18.27225    -47.9 1.431e+04 3.438e-08
 18.29053    -47.7 1.358e+04 2.007e-08
 18.31057    -47.4 1.271e+04 1.165e-08
 18.33060    -46.9 1.202e+04 7.603e-09
 18.34625    -46.5 1.150e+04 5.447e-09
 18.35627    -46.4 1.146e+04 5.266e-09
 18.37067    -45.8 1.105e+04 4.306e-09
 18.39070    -44.9 1.097e+04 3.684e-09
 18.41074    -44.1 1.092e+04 3.293e-09
 18.43027    -43.2 1.087e+04 3.359e-09
 18.44028    -43.4 1.071e+04 3.129e-09
 18.45080    -42.4 1.087e+04 3.105e-09
 18.47084    -41.8 1.105e+04 3.157e-09
 18.49087    -41.5 1.114e+04 3.405e-09
 18.51090    -40.8 1.117e+04 4.001e-09
 18.52430    -40.7 1.136e+04 4.015e-09
 18.53432    -40.7 1.135e+04 4.001e-09
 18.55097    -40.4 1.095e+04 5.245e-09
 18.57100    -40.3 1.126e+04 5.447e-09
 18.59104    -40.9 1.139e+04 7.110e-09
 18.60832    -43.8 1.282e+04 1.139e-08
 18.61834    -43.5 1.275e+04 1.135e-08
 18.63110    -47.4 1.368e+04 2.321e-08
 18.65114    -48.6 1.431e+04 4.698e-08
 18.66611    -48.6 1.464e+04 5.791e-08
 18.67608    -49.2 1.501e+04 6.128e-08
 18.69116    -51.3 1.543e+04 6.394e-08
 18.70236    -55.9 1.499e+04 4.128e-08
 18.71237    -54.5 1.482e+04 3.795e-08
 18.73127    -59.3 1.322e+04 2.734e-08
 18.75131    -60.7 1.239e+04 2.232e-08
 18.77134    -61.2 1.190e+04 1.587e-08
 18.78637    -62.4 1.118e+04 8.954e-09
 18.79639    -61.1 1.129e+04 1.039e-08
 18.80762    -62.6 1.040e+04 5.903e-09
 18.81764    -60.5 1.110e+04 8.328e-09
 18.83144    -62.3 1.002e+04 4.544e-09
 18.85147    -63.1 9.315e+03 3.549e-09
 18.87039    -63.2 9.173e+03 3.193e-09
 18.88041    -61.8 9.189e+03 3.198e-09
 18.89154    -61.7 9.096e+03 3.065e-09
 18.91157    -61.3 9.080e+03 3.060e-09
 18.93161    -60.7 9.075e+03 3.090e-09
 18.95164    -59.9 9.046e+03 2.986e-09
 18.96443    -59.0 9.058e+03 2.677e-09
 18.97444    -58.0 9.148e+03 3.077e-09
 19.00182    -57.9 9.166e+03 2.475e-09
 19.03862    -57.0 9.121e+03 2.099e-09
 19.05866    -54.5 9.528e+03 3.026e-09
 19.07194    -54.8 9.319e+03 2.451e-09
 19.09188    -54.2 9.345e+03 2.913e-09
 19.11191    -53.1 9.497e+03 3.445e-09
 19.13194    -52.1 9.571e+03 3.758e-09
 19.14248    -50.5 9.761e+03 4.082e-09
 19.15250    -49.6 9.838e+03 4.211e-09
 19.17201    -49.0 9.793e+03 4.096e-09
 19.19204    -47.5 9.932e+03 4.029e-09
 19.21208    -46.9 9.906e+03 3.698e-09
 19.22660    -46.0 9.936e+03 2.937e-09
 19.24673    -44.7 9.916e+03 3.168e-09
 19.28239    -42.3 1.006e+04 3.165e-09
 19.32246    -39.7 1.023e+04 4.180e-09
 19.36252    -36.7 1.061e+04 5.108e-09
 19.39473    -34.2 1.091e+04 5.743e-09
 19.41477    -33.2 1.103e+04 5.935e-09
 19.44266    -30.5 1.150e+04 8.247e-09
 19.48273    -28.0 1.207e+04 1.124e-08
 19.51268    -26.0 1.276e+04 1.585e-08
 19.53261    -25.0 1.315e+04 1.850e-08
 19.55265    -23.9 1.345e+04 2.208e-08
 19.57259    -22.8 1.369e+04 2.436e-08
 19.59262    -20.9 1.440e+04 3.172e-08
 19.61275    -20.0 1.462e+04 3.221e-08
 19.63278    -19.3 1.491e+04 3.209e-08
 19.65282    -18.6 1.501e+04 3.029e-08
 19.66663    -18.0 1.516e+04 2.734e-08
 19.67664    -16.9 1.594e+04 4.153e-08
 19.69288    -16.3 1.620e+04 3.761e-08
 19.71292    -16.2 1.628e+04 3.354e-08
 19.73295    -16.1 1.630e+04 3.411e-08
 19.75064    -16.4 1.637e+04 3.914e-08
 19.76066    -15.2 1.729e+04 5.836e-08
 19.77302    -15.2 1.737e+04 6.818e-08
 19.79305    -14.9 1.743e+04 7.802e-08
 19.81308    -14.7 1.740e+04 7.987e-08
 19.83312    -14.7 1.739e+04 7.519e-08
 19.84468    -15.1 1.754e+04 7.103e-08
 19.85470    -14.3 1.843e+04 1.007e-07
 19.87318    -15.7 1.847e+04 1.030e-07
 19.89322    -17.7 1.849e+04 1.055e-07
 19.91325    -19.8 1.813e+04 1.211e-07
 19.92870    -21.0 1.781e+04 1.252e-07
 19.93871    -20.9 1.830e+04 1.801e-07
 19.95332    -22.1 1.812e+04 1.376e-07
 19.97335    -23.0 1.792e+04 1.057e-07
 19.99339    -24.1 1.786e+04 8.590e-08
 20.01272    -25.7 1.774e+04 8.001e-08
 20.02273    -26.0 1.773e+04 8.584e-08
 20.03345    -27.1 1.740e+04 8.675e-08
 20.05349    -27.7 1.696e+04 7.488e-08
 20.07352    -28.2 1.641e+04 5.241e-08
 20.09355    -29.1 1.516e+04 3.236e-08
 20.10675    -30.3 1.376e+04 2.163e-08
 20.11677    -30.1 1.427e+04 2.868e-08
 20.13362    -31.0 1.354e+04 2.301e-08
 20.15365    -31.7 1.312e+04 1.962e-08
 20.17369    -32.0 1.266e+04 1.770e-08
 20.19077    -31.7 1.231e+04 1.642e-08
 20.20079    -31.4 1.279e+04 2.061e-08
 20.21375    -30.9 1.233e+04 1.742e-08
 20.23379    -30.1 1.199e+04 1.439e-08
 20.25382    -29.1 1.165e+04 1.208e-08
 20.27385    -28.4 1.134e+04 9.990e-09
 20.28480    -27.8 1.111e+04 9.494e-09
 20.29482    -27.7 1.098e+04 8.679e-09
 20.31392    -26.6 1.063e+04 8.125e-09
 20.33396    -25.4 1.051e+04 7.881e-09
 20.35399    -23.8 1.052e+04 8.178e-09
 20.36882    -22.8 1.056e+04 8.247e-09
 20.37884    -22.5 1.038e+04 6.911e-09
 20.40417    -20.5 1.035e+04 7.456e-09
 20.44302    -17.6 1.021e+04 7.484e-09
 20.46305    -16.5 9.868e+03 5.487e-09
 20.48440    -13.6 9.845e+03 5.576e-09
 20.52447    -10.6 9.633e+03 5.130e-09
 20.56454     -7.7 9.306e+03 4.252e-09
 20.60460     -4.9 9.004e+03 3.348e-09
 20.63109     -2.4 8.781e+03 2.702e-09
 20.65112     -0.6 8.785e+03 2.619e-09
 20.68474      1.7 8.635e+03 2.381e-09
 20.72481      4.0 8.655e+03 2.417e-09
 20.76487      6.1 8.714e+03 2.564e-09
 20.79913      8.2 8.811e+03 2.800e-09
 20.81916      9.6 8.837e+03 2.730e-09
 20.84501     11.4 8.943e+03 2.947e-09
 20.88507     13.0 9.037e+03 3.100e-09
 20.92514     14.5 9.104e+03 3.160e-09
 20.96521     15.8 9.153e+03 3.176e-09
 20.98720     16.8 9.266e+03 3.372e-09
 21.00723     18.4 9.265e+03 3.048e-09
 21.04534     19.3 9.444e+03 3.377e-09
 21.08541     19.8 9.908e+03 4.698e-09
 21.12548     19.9 1.067e+04 7.972e-09
 21.15523     20.0 1.126e+04 1.098e-08
 21.17527     22.9 1.104e+04 8.675e-09
 21.20561     22.5 1.149e+04 1.107e-08
 21.24568     21.9 1.143e+04 1.050e-08
 21.28574     21.2 1.098e+04 6.682e-09
 21.32327     19.7 1.038e+04 3.308e-09
 21.34330     23.3 1.118e+04 5.792e-09
 21.36588     20.8 1.081e+04 3.460e-09
 21.40595     19.4 1.048e+04 3.520e-09
 21.44601     19.6 1.049e+04 4.086e-09
 21.48608     20.6 1.059e+04 4.501e-09
 21.51124     21.1 1.065e+04 4.475e-09
 21.52116     21.9 1.062e+04 4.055e-09
 21.53597     22.3 1.045e+04 3.949e-09
 21.55600     22.9 1.029e+04 3.862e-09
 21.57604     23.4 1.011e+04 3.725e-09
 21.59516     24.1 9.952e+03 3.553e-09
 21.60518     24.8 9.801e+03 3.025e-09
 21.61610     25.1 9.705e+03 2.958e-09
 21.63614     25.5 9.643e+03 2.976e-09
 21.65617     25.8 9.640e+03 3.079e-09
 21.67620     25.9 9.687e+03 3.485e-09
 21.68920     26.1 9.803e+03 4.151e-09
 21.69921     26.5 9.624e+03 3.557e-09
 21.71627     26.7 9.754e+03 4.373e-09
 21.73630     27.0 9.883e+03 5.271e-09
 21.75634     27.4 9.989e+03 6.076e-09
 21.77322     27.8 1.006e+04 6.577e-09
 21.78323     28.5 9.874e+03 5.796e-09
 21.79640     28.8 9.912e+03 6.015e-09
 21.81644     28.9 9.953e+03 6.150e-09
 21.83647     29.0 1.000e+04 6.418e-09
 21.85651     29.0 1.012e+04 7.043e-09
 21.86725     28.8 1.038e+04 8.267e-09
 21.87727     29.6 1.033e+04 8.111e-09
 21.89657     29.4 1.074e+04 1.028e-08
 21.91661     29.0 1.128e+04 1.388e-08
 21.93664     28.4 1.196e+04 2.003e-08
 21.95127     27.2 1.305e+04 3.154e-08
 21.96129     27.8 1.299e+04 3.032e-08
 21.97671     25.5 1.482e+04 5.297e-08
 21.99674     22.6 1.669e+04 9.767e-08
 22.01677     20.1 1.765e+04 1.575e-07
 22.02890     18.6 1.815e+04 2.136e-07
 22.03386     20.3 1.822e+04 1.947e-07
 22.04020     18.9 1.854e+04 1.947e-07
 22.04521     19.1 1.851e+04 2.077e-07
 22.05173     17.2 1.916e+04 2.163e-07
 22.06175     15.5 1.967e+04 2.139e-07
 22.07177     13.6 2.021e+04 2.100e-07
 22.08178     12.3 2.035e+04 1.939e-07
 22.08722     11.2 2.031e+04 1.682e-07
 22.09222     11.3 2.045e+04 1.919e-07
 22.10182     10.5 2.011e+04 1.666e-07
 22.11689      8.7 1.888e+04 1.124e-07
 22.12932      7.3 1.755e+04 8.851e-08
 22.13934      7.7 1.781e+04 1.074e-07
 22.15701      7.2 1.690e+04 9.376e-08
 22.17704      7.3 1.655e+04 8.877e-08
 22.19708      8.1 1.626e+04 8.212e-08
 22.21334      9.1 1.606e+04 7.247e-08
 22.22336      9.5 1.589e+04 6.895e-08
 22.23714      9.0 1.620e+04 5.691e-08
 22.25718      5.3 1.778e+04 6.758e-08
 22.27721      2.1 1.708e+04 8.443e-08
 22.29724      1.9 1.543e+04 7.398e-08
 22.30738      1.3 1.544e+04 5.013e-08
 22.31234      2.4 1.564e+04 6.287e-08
 22.32219      1.4 1.603e+04 5.406e-08
 22.33220     -2.8 1.710e+04 3.515e-08
 22.34222     -6.0 1.593e+04 2.602e-08
 22.35729    -14.6 1.283e+04 1.843e-08
 22.37738    -18.1 1.211e+04 1.736e-08
 22.39139    -20.1 1.183e+04 1.554e-08
 22.40141    -21.1 1.207e+04 1.699e-08
 22.41744    -22.7 1.156e+04 1.306e-08
 22.43748    -24.3 1.111e+04 9.974e-09
 22.45751    -26.1 1.078e+04 8.135e-09
 22.47541    -27.9 1.062e+04 7.487e-09
 22.48543    -28.9 1.032e+04 6.343e-09
 22.49758    -30.3 1.035e+04 6.327e-09
 22.51761    -31.8 1.050e+04 7.291e-09
 22.53765    -33.0 1.072e+04 8.790e-09
 22.55768    -33.6 1.091e+04 1.029e-08
 22.56945    -34.0 1.108e+04 1.100e-08
 22.57946    -34.8 1.098e+04 1.031e-08
 22.59775    -35.2 1.113e+04 1.069e-08
 22.61778    -35.9 1.117e+04 1.045e-08
 22.63781    -36.7 1.112e+04 1.022e-08
 22.65347    -37.3 1.112e+04 1.052e-08
 22.66348    -37.4 1.126e+04 1.213e-08
 22.67788    -37.7 1.131e+04 1.273e-08
 22.69791    -37.9 1.149e+04 1.366e-08
 22.71795    -38.2 1.173e+04 1.467e-08
 22.73748    -38.5 1.197e+04 1.552e-08
 22.74750    -38.8 1.218e+04 1.704e-08
 22.75801    -39.2 1.234e+04 1.807e-08
 22.77805    -39.7 1.235e+04 1.845e-08
 22.79808    -40.0 1.208e+04 1.744e-08
 22.81812    -40.4 1.179e+04 1.548e-08
 22.83152    -41.4 1.168e+04 1.333e-08
 22.84154    -41.3 1.181e+04 1.421e-08
 22.85818    -42.7 1.174e+04 1.348e-08
 22.87822    -44.0 1.178e+04 1.336e-08
 22.89825    -45.3 1.178e+04 1.306e-08
 22.91554    -46.5 1.168e+04 1.229e-08
 22.92555    -46.7 1.177e+04 1.305e-08
 22.93832    -48.2 1.145e+04 1.067e-08
 22.95835    -49.8 1.101e+04 8.685e-09
 22.97838    -50.8 1.084e+04 7.932e-09
 22.99842    -51.4 1.086e+04 7.685e-09
 23.00957    -51.8 1.091e+04 7.546e-09
 23.01959    -51.6 1.095e+04 7.545e-09
 23.03848    -51.9 1.102e+04 7.435e-09
 23.05852    -52.1 1.118e+04 7.426e-09
 23.07855    -52.2 1.127e+04 7.764e-09
 23.09359    -52.2 1.136e+04 8.379e-09
 23.10361    -51.9 1.135e+04 8.706e-09
 23.11862    -51.7 1.136e+04 9.498e-09
 23.13865    -51.6 1.138e+04 1.046e-08
 23.15869    -51.5 1.141e+04 1.151e-08
 23.17761    -51.3 1.145e+04 1.249e-08
 23.18763    -50.8 1.130e+04 1.130e-08
 23.19875    -50.5 1.132e+04 1.193e-08
 23.21879    -50.1 1.132e+04 1.207e-08
 23.23882    -49.7 1.123e+04 1.113e-08
 23.25885    -49.2 1.103e+04 9.468e-09
 23.27164    -48.9 1.068e+04 7.266e-09
 23.28166    -48.4 1.037e+04 6.510e-09
 23.29892    -48.1 9.936e+03 4.863e-09
 23.31895    -47.8 9.491e+03 3.671e-09
 23.33899    -47.4 9.107e+03 2.880e-09
 23.35566    -47.0 8.864e+03 2.404e-09
 23.36568    -46.4 8.883e+03 2.239e-09
 23.37905    -46.1 8.783e+03 1.973e-09
 23.39909    -45.6 8.761e+03 1.844e-09
 23.41912    -45.1 8.762e+03 1.705e-09
 23.43916    -44.6 8.759e+03 1.648e-09
 23.44970    -44.1 8.822e+03 1.683e-09
 23.45972    -43.5 8.656e+03 1.553e-09
 23.48934    -43.0 8.692e+03 1.773e-09
 23.52950    -42.5 8.718e+03 2.361e-09
 23.56957    -41.5 8.917e+03 3.301e-09
 23.59952    -40.2 8.831e+03 3.187e-09
 23.61774    -39.8 8.830e+03 3.198e-09
 23.62785    -39.5 8.697e+03 2.976e-09
 23.64970    -38.6 8.683e+03 2.892e-09
 23.68977    -38.0 8.431e+03 2.123e-09
 23.72984    -37.8 8.217e+03 1.672e-09
 23.76990    -37.5 8.137e+03 1.618e-09
 23.79598    -36.8 8.214e+03 2.174e-09
 23.81602    -36.6 7.941e+03 1.740e-09
 23.85004    -35.4 7.974e+03 2.020e-09
 23.89011    -33.9 8.065e+03 2.262e-09
 23.93017    -32.7 8.368e+03 2.699e-09
 23.96013    -32.9 8.633e+03 3.287e-09
 23.97384    -32.8 8.759e+03 3.954e-09
 23.98386    -33.7 8.625e+03 3.610e-09
 24.00009    -33.4 9.303e+03 5.348e-09
 24.02013    -33.9 9.711e+03 6.925e-09
 24.04016    -33.7 1.032e+04 1.065e-08
 24.05786    -33.7 1.078e+04 1.387e-08
 24.06788    -33.1 9.648e+03 7.546e-09
 24.08023    -33.1 9.913e+03 7.558e-09
 24.10026    -33.8 1.060e+04 7.970e-09
 24.12030    -36.2 1.190e+04 1.022e-08
 24.14033    -38.8 1.355e+04 1.790e-08
 24.15185    -39.8 1.357e+04 1.700e-08
 24.16186    -38.8 1.217e+04 1.068e-08
 24.18040    -40.5 1.342e+04 1.965e-08
 24.20043    -40.8 1.420e+04 3.271e-08
 24.21541    -40.3 1.445e+04 4.122e-08
 24.22537    -40.2 1.466e+04 4.596e-08
 24.23539    -39.9 1.499e+04 5.369e-08
 24.24082    -39.7 1.520e+04 5.570e-08
 24.24588    -38.9 1.419e+04 4.105e-08
 24.25547    -38.4 1.452e+04 5.026e-08
 24.26544    -38.1 1.462e+04 5.085e-08
 24.28052    -37.6 1.485e+04 5.256e-08
 24.30060    -37.3 1.535e+04 5.231e-08
 24.31993    -36.8 1.573e+04 5.222e-08
 24.32995    -35.0 1.490e+04 5.381e-08
 24.34066    -34.4 1.530e+04 5.437e-08
 24.36070    -33.7 1.560e+04 5.324e-08
 24.38073    -33.0 1.553e+04 5.146e-08
 24.40077    -32.2 1.520e+04 4.859e-08
 24.41397    -31.3 1.466e+04 4.537e-08
 24.42398    -30.0 1.540e+04 5.356e-08
 24.44083    -29.2 1.520e+04 5.328e-08
 24.46087    -28.5 1.501e+04 5.708e-08
 24.48090    -28.0 1.514e+04 6.392e-08
 24.49799    -27.3 1.549e+04 7.384e-08
 24.50800    -25.9 1.575e+04 8.241e-08
 24.52097    -24.8 1.615e+04 9.601e-08
 24.54100    -23.7 1.633e+04 1.003e-07
 24.56103    -22.4 1.627e+04 8.758e-08
 24.58107    -21.3 1.611e+04 5.992e-08
 24.59202    -21.5 1.541e+04 3.797e-08
 24.60204    -19.3 1.609e+04 5.355e-08
 24.62113    -20.8 1.575e+04 3.700e-08
 24.64117    -23.1 1.414e+04 2.873e-08
 24.66120    -24.7 1.327e+04 2.666e-08
 24.67604    -25.0 1.379e+04 3.209e-08
 24.68606    -23.1 1.377e+04 3.854e-08
 24.70127    -23.2 1.435e+04 4.019e-08
 24.72130    -24.1 1.484e+04 3.639e-08
 24.74134    -26.2 1.413e+04 2.532e-08
 24.76006    -29.8 1.354e+04 2.273e-08
 24.77007    -28.9 1.439e+04 3.087e-08
 24.78140    -32.2 1.399e+04 3.541e-08
 24.80144    -33.8 1.434e+04 4.737e-08
 24.82147    -34.0 1.449e+04 5.145e-08
 24.84150    -33.9 1.435e+04 4.712e-08
 24.85409    -33.7 1.355e+04 2.736e-08
 24.86411    -33.5 1.323e+04 2.287e-08
 24.88157    -36.9 1.131e+04 9.845e-09
 24.90160    -40.5 9.496e+03 5.509e-09
 24.92164    -42.4 8.835e+03 4.469e-09
 24.93811    -43.6 8.765e+03 4.306e-09
 24.94813    -43.9 8.676e+03 3.999e-09
 24.96170    -45.6 8.987e+03 4.857e-09
 24.98174    -47.1 9.430e+03 6.477e-09
 25.00177    -48.6 9.904e+03 8.282e-09
 25.02181    -50.1 1.029e+04 9.733e-09
 25.03215    -51.7 1.047e+04 1.027e-08
 25.04216    -52.4 1.030e+04 9.543e-09
 25.06187    -54.1 1.043e+04 9.686e-09
 25.08191    -55.9 1.047e+04 9.659e-09
 25.10194    -56.7 1.030e+04 8.807e-09
 25.11616    -56.7 9.918e+03 7.512e-09
 25.12618    -57.4 9.799e+03 7.171e-09
 25.14201    -58.1 9.752e+03 6.515e-09
 25.17215    -58.7 9.812e+03 6.105e-09
 25.20038    -57.6 9.656e+03 5.439e-09
 25.22041    -58.7 9.907e+03 6.554e-09
 25.24046    -56.8 1.010e+04 6.636e-09
 25.26050    -55.4 9.699e+03 5.631e-09
 25.29245    -53.7 1.012e+04 7.251e-09
 25.33252    -51.7 1.046e+04 8.568e-09
 25.36841    -49.7 1.060e+04 8.876e-09
 25.38845    -50.6 1.130e+04 1.228e-08
 25.41265    -48.1 1.101e+04 9.700e-09
 25.45272    -45.5 1.065e+04 7.062e-09
 25.49279    -43.2 1.043e+04 4.899e-09
 25.53286    -41.2 1.034e+04 3.564e-09
 25.55648    -39.7 1.031e+04 2.826e-09
 25.57652    -39.9 1.052e+04 2.372e-09
 25.61299    -38.6 1.052e+04 2.271e-09
 25.65306    -38.3 1.067e+04 2.438e-09
 25.69312    -38.7 1.109e+04 3.412e-09
 25.72308    -41.2 1.194e+04 5.026e-09
 25.73434    -42.1 1.240e+04 6.599e-09
 25.74436    -44.3 1.273e+04 8.241e-09
 25.76305    -46.1 1.322e+04 1.285e-08
 25.78308    -47.1 1.365e+04 1.885e-08
 25.80311    -47.5 1.403e+04 2.351e-08
 25.81836    -48.0 1.422e+04 2.588e-08
 25.82838    -49.7 1.435e+04 2.502e-08
 25.84318    -49.8 1.420e+04 2.585e-08
 25.86321    -49.3 1.401e+04 2.701e-08
 25.88325    -48.6 1.385e+04 2.707e-08
 25.90238    -47.7 1.372e+04 2.537e-08
 25.91240    -48.2 1.323e+04 1.578e-08
 25.92331    -47.4 1.308e+04 1.408e-08
 25.94335    -46.8 1.290e+04 1.218e-08
 25.96338    -46.2 1.270e+04 1.057e-08
 25.98342    -45.6 1.254e+04 9.534e-09
 25.99641    -45.2 1.239e+04 9.098e-09
 26.00643    -45.4 1.215e+04 6.727e-09
 26.02348    -45.0 1.211e+04 6.831e-09
 26.04352    -44.7 1.210e+04 7.708e-09
 26.06355    -44.4 1.218e+04 9.050e-09
 26.08043    -44.1 1.229e+04 1.065e-08
 26.09045    -44.3 1.206e+04 8.952e-09
 26.10362    -44.0 1.216e+04 1.078e-08
 26.12365    -43.7 1.218e+04 1.206e-08
 26.14368    -43.3 1.214e+04 1.225e-08
 26.16372    -42.7 1.184e+04 1.118e-08
 26.17447    -41.9 1.153e+04 9.081e-09
 26.18448    -41.8 1.158e+04 1.002e-08
 26.20378    -40.9 1.129e+04 8.126e-09
 26.22382    -40.2 1.103e+04 6.264e-09
 26.24385    -39.4 1.082e+04 4.724e-09
 26.25849    -38.7 1.069e+04 3.611e-09
 26.26850    -38.3 1.079e+04 4.974e-09
 26.28392    -37.5 1.063e+04 3.982e-09
 26.30395    -36.7 1.048e+04 3.279e-09
 26.33410    -35.6 1.035e+04 2.862e-09
 26.37426    -33.7 1.007e+04 2.583e-09
 26.41433    -31.3 9.918e+03 2.318e-09
 26.43673    -29.0 9.907e+03 2.120e-09
 26.45677    -28.4 9.975e+03 1.907e-09
 26.49447    -26.3 9.904e+03 1.799e-09
 26.53453    -24.1 9.799e+03 1.831e-09
 26.57460    -21.8 9.739e+03 2.020e-09
 26.60477    -19.4 9.745e+03 2.243e-09
 26.62481    -19.1 1.017e+04 3.500e-09
 26.65473    -16.7 1.017e+04 4.039e-09
 26.69480    -14.5 1.020e+04 4.553e-09
 26.73487    -12.4 1.034e+04 5.003e-09
 26.77281    -10.4 1.052e+04 6.390e-09
 26.79284    -10.7 1.115e+04 9.016e-09
 26.81500     -9.1 1.139e+04 9.804e-09
 26.85507     -8.2 1.156e+04 1.009e-08
 26.89514     -7.9 1.184e+04 1.108e-08
 26.92509     -7.7 1.194e+04 1.478e-08
 26.94503     -6.8 1.224e+04 1.663e-08
 26.96068     -6.7 1.258e+04 1.777e-08
 26.97070     -7.2 1.243e+04 1.706e-08
 26.98509     -7.2 1.269e+04 1.935e-08
 27.00513     -7.1 1.286e+04 2.146e-08
 27.02516     -6.6 1.287e+04 2.312e-08
 27.04470     -6.0 1.264e+04 2.070e-08
 27.05472     -5.7 1.249e+04 1.685e-08
 27.06523     -5.4 1.236e+04 1.462e-08
 27.08526     -5.0 1.214e+04 1.112e-08
 27.10529     -4.9 1.205e+04 1.055e-08
 27.12882     -5.1 1.203e+04 9.780e-09
 27.14895     -3.6 1.172e+04 6.449e-09
 27.17561     -2.8 1.147e+04 8.169e-09
 27.21567     -1.3 1.134e+04 8.957e-09
 27.25574      0.7 1.117e+04 6.269e-09
 27.29581      1.9 1.108e+04 3.785e-09
 27.31699      3.2 1.059e+04 2.803e-09
 27.33702      5.0 1.095e+04 4.166e-09
 27.37594      6.4 1.057e+04 2.628e-09
 27.41601      7.9 1.009e+04 2.260e-09
 27.45608     10.1 9.811e+03 2.170e-09
 27.48502     12.8 9.622e+03 2.090e-09
 27.50506     13.7 9.568e+03 1.998e-09
 27.53621     16.1 9.519e+03 1.766e-09
 27.57628     18.5 9.543e+03 1.671e-09
 27.61634     20.9 9.592e+03 1.735e-09
 27.65306     23.4 9.739e+03 2.145e-09
 27.67309     23.8 9.598e+03 1.994e-09
 27.69648     25.6 9.938e+03 2.699e-09
 27.72643     26.6 1.007e+04 3.237e-09
 27.74637     27.5 1.016e+04 4.065e-09
 27.75692     28.5 1.031e+04 5.509e-09
 27.76693     28.6 1.023e+04 5.323e-09
 27.78643     29.3 1.058e+04 7.430e-09
 27.80647     29.8 1.106e+04 1.059e-08
 27.82650     30.4 1.163e+04 1.528e-08
 27.84093     31.2 1.212e+04 2.072e-08
 27.85095     31.0 1.185e+04 2.188e-08
 27.86657     31.9 1.224e+04 2.400e-08
 27.88660     32.5 1.223e+04 2.197e-08
 27.90664     32.9 1.204e+04 1.711e-08
 27.92495     32.7 1.178e+04 1.221e-08
 27.93497     31.6 1.169e+04 1.259e-08
 27.94670     30.4 1.174e+04 1.100e-08
 27.96674     29.1 1.187e+04 1.136e-08
 27.98677     26.5 1.239e+04 1.464e-08
 28.00680     24.6 1.296e+04 2.333e-08
 28.01899     22.7 1.301e+04 2.513e-08
 28.02900     22.4 1.348e+04 3.059e-08
 28.04687     19.6 1.368e+04 2.507e-08
 28.06690      9.5 1.780e+04 2.032e-08
 28.08694      1.7 1.597e+04 4.688e-08
 28.10301     -0.7 1.531e+04 5.219e-08
 28.11302     -0.8 1.579e+04 5.523e-08
 28.12700     -2.4 1.469e+04 3.552e-08
 28.14704     -3.4 1.362e+04 1.943e-08
 28.16707     -4.5 1.270e+04 9.252e-09
 28.18702     -5.5 1.221e+04 5.157e-09
 28.20706     -7.0 1.204e+04 4.529e-09
 28.22717     -7.9 1.219e+04 4.367e-09
 28.24721     -9.4 1.191e+04 6.104e-09
 28.26724     -9.6 1.179e+04 9.984e-09
 28.28106     -8.9 1.198e+04 1.388e-08
 28.29108     -8.2 1.210e+04 1.504e-08
 28.30731     -7.9 1.221e+04 1.518e-08
 28.32734     -8.4 1.225e+04 1.330e-08
 28.34737     -9.3 1.200e+04 1.142e-08
 28.36508    -10.0 1.176e+04 9.564e-09
 28.37509     -9.7 1.185e+04 1.020e-08
 28.38744    -10.1 1.183e+04 9.138e-09
 28.40747    -11.1 1.175e+04 8.053e-09
 28.42751    -11.9 1.163e+04 7.719e-09
 28.44754    -12.7 1.144e+04 7.620e-09
 28.45911    -13.0 1.122e+04 8.182e-09
 28.46315    -12.7 1.142e+04 9.271e-09
 28.47162    -12.3 1.154e+04 9.672e-09
 28.48761    -12.6 1.123e+04 9.469e-09
 28.50764    -12.5 1.107e+04 9.068e-09
 28.52768    -12.5 1.071e+04 7.697e-09
 28.54313    -12.3 1.062e+04 7.340e-09
 28.55315    -11.6 1.084e+04 8.532e-09
 28.57786    -11.3 1.040e+04 5.719e-09
 28.61802    -10.6 9.871e+03 3.578e-09
 28.65809     -9.8 9.776e+03 3.126e-09
 28.69816     -8.5 9.758e+03 3.556e-09
 28.72138     -6.9 9.667e+03 3.800e-09
 28.74141     -6.4 9.694e+03 3.577e-09
 28.77829     -4.1 9.407e+03 2.825e-09
 28.81836     -1.9 9.268e+03 1.496e-09
 28.85842     -0.5 9.190e+03 8.152e-10
 28.88942      0.6 9.015e+03 6.447e-10
 28.90945      1.5 9.125e+03 7.120e-10
 28.93856      3.4 9.008e+03 7.170e-10
 28.97863      5.3 8.953e+03 8.772e-10
 29.01869      7.7 8.855e+03 1.046e-09
 29.05745     10.1 8.879e+03 9.966e-10
 29.07749     10.9 8.922e+03 1.119e-09
 29.09883     13.0 8.988e+03 9.835e-10
 29.13889     14.9 9.059e+03 1.011e-09
 29.17896     16.5 9.139e+03 1.240e-09
 29.21903     18.5 9.184e+03 1.679e-09
 29.24552     20.6 9.285e+03 2.177e-09
 29.26556     21.3 9.386e+03 2.328e-09
 29.29916     23.5 9.548e+03 2.897e-09
 29.33923     25.4 9.825e+03 2.918e-09
 29.37930     27.0 9.891e+03 2.747e-09
 29.41356     28.4 9.992e+03 2.521e-09
 29.43359     29.2 1.006e+04 2.696e-09
 29.45943     30.2 1.021e+04 2.628e-09
 29.49950     30.8 1.052e+04 2.931e-09
 29.52945     30.5 1.077e+04 3.655e-09
 29.54939     30.0 1.109e+04 4.766e-09
 29.56942     27.8 1.233e+04 8.876e-09
 29.58945     25.4 1.330e+04 2.213e-08
 29.60143     25.0 1.406e+04 4.198e-08
 29.61145     25.0 1.403e+04 4.589e-08
 29.62952     26.2 1.365e+04 3.593e-08
 29.64955     26.1 1.337e+04 1.781e-08
 29.66959     23.2 1.331e+04 7.173e-09
 29.68545     19.8 1.212e+04 4.056e-09
 29.69547     19.3 1.196e+04 3.649e-09
 29.70965     19.1 1.180e+04 3.635e-09
 29.72969     18.6 1.207e+04 3.893e-09
 29.74972     18.0 1.224e+04 4.872e-09
 29.76947     17.2 1.237e+04 6.951e-09
 29.77949     17.1 1.228e+04 8.335e-09
 29.78979     17.4 1.239e+04 1.013e-08
 29.80982     18.5 1.222e+04 9.159e-09
 29.82986     19.9 1.214e+04 6.020e-09
 29.84989     19.3 1.308e+04 2.076e-09
 29.86351     18.7 1.308e+04 1.809e-09
 29.87352     18.5 1.305e+04 1.816e-09
 29.90007     18.6 1.311e+04 9.844e-10
 29.93770     19.1 1.278e+04 9.488e-10
 29.95774     19.3 1.270e+04 9.530e-10
 29.98030     20.4 1.263e+04 1.218e-09
 30.02037     21.3 1.278e+04 1.874e-09
 30.04166     21.3 1.255e+04 2.314e-09
 30.05158     20.8 1.262e+04 2.642e-09
 30.06726     20.8 1.236e+04 3.555e-09
 30.07728     21.4 1.239e+04 4.365e-09
 30.09029     21.8 1.241e+04 6.532e-09
 30.11033     22.4 1.243e+04 8.847e-09
 30.12558     22.9 1.251e+04 1.067e-08
 30.13559     23.1 1.273e+04 1.147e-08
 30.15039     23.5 1.271e+04 1.074e-08
 30.17043     23.7 1.269e+04 9.021e-09
 30.19046     23.3 1.275e+04 7.548e-09
 30.20960     23.3 1.262e+04 6.359e-09
 30.21961     23.2 1.244e+04 5.155e-09
 30.23053     23.3 1.233e+04 4.691e-09
 30.25056     23.6 1.225e+04 4.244e-09
 30.27059     23.9 1.231e+04 3.924e-09
 30.29063     23.9 1.242e+04 4.039e-09
 30.30363     23.8 1.249e+04 4.419e-09
 30.31365     24.2 1.235e+04 4.131e-09
 30.33069     24.1 1.257e+04 5.084e-09
 30.35073     24.5 1.263e+04 5.923e-09
 30.37076     24.7 1.268e+04 5.900e-09
 30.38765     24.7 1.267e+04 5.606e-09
 30.39767     25.2 1.259e+04 6.322e-09
 30.42094     26.2 1.217e+04 4.095e-09
 30.46111     27.5 1.209e+04 1.936e-09
 30.48188     28.1 1.198e+04 1.319e-09
 30.50191     28.8 1.203e+04 1.200e-09
 30.54124     30.1 1.175e+04 1.124e-09
 30.58131     31.9 1.166e+04 1.248e-09
 30.62138     34.1 1.159e+04 1.400e-09
 30.64992     36.2 1.158e+04 1.368e-09
 30.66995     36.7 1.165e+04 7.380e-10
 30.70151     38.9 1.168e+04 6.588e-10
 30.74158     41.0 1.176e+04 5.501e-10
 30.78165     42.9 1.170e+04 4.818e-10
 30.81795     45.0 1.156e+04 4.792e-10
 30.83799     45.6 1.147e+04 4.325e-10
 30.86178     47.8 1.138e+04 4.655e-10
 30.90185     50.0 1.129e+04 5.333e-10
 30.94191     52.3 1.122e+04 6.261e-10
 30.98198     54.6 1.119e+04 7.230e-10
 31.00602     56.9 1.116e+04 8.055e-10
 31.02606     57.5 1.101e+04 8.716e-10
 31.06211     59.7 1.103e+04 9.305e-10
 31.10218     61.8 1.105e+04 9.299e-10
 31.14225     63.9 1.106e+04 9.079e-10
 31.17406     65.9 1.106e+04 8.581e-10
 31.19409     66.6 1.094e+04 1.004e-09
 31.22238     68.6 1.093e+04 9.391e-10
 31.26245     70.8 1.099e+04 9.098e-10
 31.30252     72.8 1.103e+04 9.243e-10
 31.34210     74.8 1.110e+04 1.002e-09
 31.36213     75.5 1.103e+04 1.026e-09
 31.38265     77.4 1.112e+04 1.167e-09
 31.42272     79.2 1.116e+04 1.384e-09
 31.46279     81.0 1.125e+04 1.572e-09
 31.50285     82.7 1.132e+04 1.691e-09
 31.53017     84.3 1.155e+04 1.657e-09
 31.55020     85.1 1.149e+04 2.208e-09
 31.58299     86.6 1.165e+04 2.340e-09
 31.62305     88.3 1.180e+04 2.484e-09
 31.66309     89.8 1.205e+04 2.703e-09
 31.69818     90.4 1.218e+04 3.057e-09
 31.71824     90.8 1.262e+04 5.606e-09
 31.73314     91.3 1.273e+04 5.068e-09
 31.75308     91.7 1.279e+04 5.089e-09
 31.77311     92.0 1.302e+04 5.252e-09
 31.79204     92.2 1.326e+04 5.739e-09
 31.80206     91.3 1.367e+04 9.012e-09
 31.81318     91.1 1.389e+04 1.038e-08
 31.83321     90.9 1.410e+04 1.250e-08
 31.85324     90.6 1.429e+04 1.495e-08
 31.87328     90.5 1.438e+04 1.696e-08
 31.88608     90.5 1.435e+04 1.745e-08
 31.89610     89.0 1.449e+04 2.085e-08
 31.91335     88.9 1.425e+04 1.767e-08
 31.93338     88.8 1.403e+04 1.445e-08
 31.95341     88.5 1.389e+04 1.216e-08
 31.98356     87.6 1.358e+04 1.018e-08
 32.02372     88.4 1.324e+04 8.919e-09
 32.05431     89.8 1.319e+04 8.999e-09
 32.07434     87.2 1.318e+04 1.451e-08
 32.09374     88.1 1.330e+04 1.658e-08
 32.11368     88.7 1.352e+04 1.898e-08
 32.13371     89.4 1.368e+04 2.366e-08
 32.14815     90.1 1.372e+04 2.670e-08
 32.15817     89.1 1.353e+04 2.224e-08
 32.17378     89.9 1.337e+04 1.998e-08
 32.19381     90.6 1.318e+04 1.570e-08
 32.22225     91.7 1.302e+04 1.105e-08
 32.24238     88.2 1.267e+04 2.388e-09
 32.26413     88.9 1.169e+04 1.647e-09
 32.30419     90.0 1.102e+04 1.450e-09
 32.34426     91.5 1.070e+04 1.407e-09
 32.38433     93.2 1.067e+04 1.413e-09
 32.41042     94.9 1.065e+04 1.481e-09
 32.43045     93.5 1.068e+04 1.368e-09
 32.46446     94.9 1.082e+04 1.687e-09
 32.50453     95.3 1.103e+04 2.136e-09
 32.53448     94.2 1.127e+04 3.387e-09
 32.55442     93.7 1.140e+04 5.070e-09
 32.57445     93.3 1.162e+04 7.196e-09
 32.58828     92.6 1.194e+04 9.702e-09
 32.59829     90.6 1.203e+04 1.039e-08
 32.61452     89.5 1.215e+04 1.244e-08
 32.63455     88.3 1.211e+04 1.253e-08
 32.65459     87.4 1.195e+04 1.209e-08
 32.67229     86.6 1.169e+04 1.073e-08
 32.68231     85.1 1.147e+04 9.169e-09
 32.69465     84.3 1.121e+04 7.595e-09
 32.71469     83.7 1.093e+04 6.250e-09
 32.73472     83.2 1.064e+04 5.251e-09
 32.75475     83.0 1.047e+04 4.860e-09
 32.76633     82.8 1.049e+04 4.919e-09
 32.77635     81.5 1.049e+04 4.703e-09
 32.79482     80.8 1.073e+04 5.582e-09
 32.81485     79.5 1.130e+04 8.748e-09
 32.83489     78.1 1.236e+04 1.686e-08
 32.85035     77.0 1.358e+04 3.204e-08
 32.86036     75.9 1.373e+04 3.472e-08
 32.87496     74.5 1.446e+04 4.234e-08
 32.89499     72.5 1.451e+04 4.034e-08
 32.91502     70.1 1.409e+04 3.019e-08
 32.93437     67.2 1.323e+04 1.838e-08
 32.94438     65.3 1.239e+04 1.307e-08
 32.95509     62.7 1.164e+04 8.634e-09
 32.97512     59.9 1.135e+04 5.626e-09
 32.99516     59.1 1.135e+04 5.333e-09
 33.02530     52.3 1.054e+04 4.464e-09
 33.05535     51.1 1.020e+04 4.611e-09
 33.07529     49.5 1.019e+04 5.203e-09
 33.09532     44.2 1.178e+04 8.770e-09
 33.11242     33.7 1.562e+04 3.003e-08
 33.12244     28.9 1.683e+04 5.810e-08
 33.13539     21.5 1.708e+04 8.420e-08
 33.15542     16.3 1.613e+04 6.185e-08
 33.17546      9.9 1.435e+04 2.615e-08
 33.19549      1.2 1.134e+04 9.536e-09
 33.22564     -4.3 9.957e+03 5.940e-09
 33.26580     -8.7 9.836e+03 6.334e-09
 33.28869    -12.1 1.021e+04 7.882e-09
 33.29342    -12.8 1.002e+04 7.175e-09
 33.30049    -14.4 1.009e+04 6.583e-09
 33.31569    -18.6 1.123e+04 1.032e-08
 33.33573    -22.7 1.380e+04 1.825e-08
 33.35576    -27.0 1.512e+04 5.158e-08
 33.37449    -28.9 1.629e+04 9.956e-08
 33.38451    -30.6 1.653e+04 8.707e-08
 33.39583    -37.7 1.951e+04 1.122e-07
 33.41586    -51.6 1.893e+04 1.151e-07
 33.43589    -61.0 1.731e+04 1.279e-07
 33.45593    -68.1 1.788e+04 9.248e-08
 33.46853    -79.9 1.576e+04 2.500e-08
 33.47854    -83.1 1.435e+04 1.861e-08
 33.49600    -92.5 1.130e+04 9.180e-09
 33.51603    -96.3 1.080e+04 7.225e-09
 33.53606    -99.5 1.074e+04 6.935e-09
 33.55254   -102.6 1.077e+04 6.993e-09
 33.56256   -103.0 1.076e+04 7.103e-09
 33.57613   -105.9 1.078e+04 7.174e-09
 33.59616   -108.6 1.076e+04 7.176e-09
 33.61620   -110.9 1.060e+04 6.907e-09
 33.63623   -113.0 1.034e+04 6.156e-09
 33.64658   -114.7 1.006e+04 5.248e-09
 33.65660   -115.1 9.996e+03 5.189e-09
 33.67630   -116.6 9.779e+03 4.363e-09
 33.69633   -118.2 9.595e+03 3.647e-09
 33.71636   -119.8 9.502e+03 3.205e-09
 33.74651   -121.8 9.478e+03 3.027e-09
 33.78668   -124.1 9.464e+03 2.903e-09
 33.81481   -125.9 9.512e+03 2.936e-09
 33.83484   -127.9 9.662e+03 3.751e-09
 33.86681   -129.5 9.666e+03 3.968e-09
 33.90688   -130.4 9.606e+03 3.974e-09
 33.94695   -130.9 9.522e+03 3.690e-09
 33.98285   -131.1 9.480e+03 3.331e-09
 34.00288   -132.9 9.181e+03 3.223e-09
 34.02708   -132.2 9.056e+03 2.976e-09
 34.06715   -131.4 9.027e+03 2.930e-09
 34.10721   -130.6 9.124e+03 3.082e-09
 34.14728   -129.9 9.487e+03 3.782e-09
 34.17092   -129.7 9.723e+03 4.665e-09
 34.19095   -131.1 9.377e+03 3.513e-09
 34.22741   -131.0 9.627e+03 4.097e-09
 34.26748   -131.2 9.748e+03 4.352e-09
 34.30755   -131.2 9.774e+03 4.424e-09
 34.33895   -131.1 9.784e+03 4.067e-09
 34.35899   -132.2 9.639e+03 3.610e-09
 34.38768   -132.1 9.671e+03 3.395e-09
 34.42775   -132.2 9.702e+03 3.351e-09
 34.46782   -132.6 1.006e+04 3.618e-09
 34.50699   -133.9 1.071e+04 5.330e-09
 34.52703   -135.7 1.093e+04 6.048e-09
 34.54795   -138.5 1.172e+04 1.048e-08
 34.57790   -140.6 1.225e+04 1.481e-08
 34.59784   -142.3 1.263e+04 1.858e-08
 34.61085   -143.8 1.298e+04 2.220e-08
 34.62086   -145.0 1.312e+04 2.337e-08
 34.63791   -146.9 1.324e+04 2.443e-08
 34.65794   -148.8 1.321e+04 2.417e-08
 34.67797   -150.5 1.291e+04 1.996e-08
 34.69487   -152.3 1.252e+04 1.463e-08
 34.70488   -153.5 1.253e+04 1.453e-08
 34.71804   -155.2 1.215e+04 1.096e-08
 34.73807   -156.7 1.192e+04 9.110e-09
 34.75811   -157.9 1.188e+04 8.407e-09
 34.77814   -158.8 1.189e+04 8.242e-09
 34.78890   -159.7 1.195e+04 8.247e-09
 34.79892   -160.5 1.207e+04 8.800e-09
 34.81821   -161.4 1.219e+04 9.284e-09
 34.83824   -162.3 1.222e+04 9.462e-09
 34.85828   -163.1 1.220e+04 9.426e-09
 34.87292   -163.7 1.213e+04 8.745e-09
 34.88294   -164.3 1.221e+04 9.216e-09
 34.89425   -164.7 1.210e+04 7.829e-09
 34.90427   -165.0 1.223e+04 8.808e-09
 34.91838   -165.4 1.213e+04 7.563e-09
 34.93841   -165.7 1.208e+04 6.671e-09
 34.95694   -165.9 1.211e+04 6.115e-09
 34.96695   -166.5 1.228e+04 5.491e-09
 34.97848   -166.8 1.231e+04 5.423e-09
 34.99851   -167.2 1.244e+04 5.453e-09
 35.01854   -167.7 1.261e+04 5.904e-09
 35.03858   -168.3 1.272e+04 6.773e-09
 35.05097   -168.6 1.286e+04 7.828e-09
 35.06099   -169.8 1.335e+04 8.194e-09
 35.07865   -169.9 1.335e+04 9.536e-09
 35.09868   -170.0 1.336e+04 1.006e-08
 35.11871   -170.0 1.337e+04 9.963e-09
 35.13499   -169.9 1.341e+04 9.261e-09
 35.14501   -170.7 1.350e+04 9.975e-09
 35.15878   -170.4 1.362e+04 9.122e-09
 35.17881   -170.2 1.379e+04 8.661e-09
 35.19885   -170.0 1.387e+04 8.542e-09
 35.21888   -169.9 1.395e+04 8.525e-09
 35.22903   -169.9 1.398e+04 8.609e-09
 35.23904   -170.0 1.424e+04 9.046e-09
 35.25895   -170.0 1.423e+04 9.402e-09
 35.27898   -170.0 1.420e+04 9.835e-09
 35.29901   -170.2 1.414e+04 1.050e-08
 35.31304   -170.5 1.404e+04 1.098e-08
 35.32306   -170.6 1.426e+04 1.142e-08
 35.33908   -171.0 1.416e+04 1.189e-08
 35.35911   -171.2 1.405e+04 1.196e-08
 35.37915   -171.5 1.370e+04 1.187e-08
 35.39706   -171.6 1.349e+04 1.114e-08
 35.40708   -171.8 1.361e+04 1.171e-08
 35.41922   -171.9 1.335e+04 1.024e-08
 35.43925   -171.8 1.317e+04 8.854e-09
 35.45928   -171.3 1.291e+04 6.900e-09
 35.47932   -170.7 1.274e+04 5.643e-09
 35.49110   -169.7 1.250e+04 4.063e-09
 35.50112   -169.7 1.256e+04 4.302e-09
 35.51938   -168.9 1.243e+04 3.532e-09
 35.54953   -167.7 1.228e+04 2.699e-09
 35.57531   -165.9 1.207e+04 2.147e-09
 35.59535   -165.9 1.216e+04 2.188e-09
 35.62976   -163.4 1.192e+04 1.898e-09
 35.66983   -161.2 1.189e+04 1.847e-09
 35.70990   -159.4 1.190e+04 1.838e-09
 35.74335   -158.1 1.204e+04 1.909e-09
 35.76338   -158.3 1.214e+04 1.903e-09
 35.79003   -157.9 1.229e+04 2.712e-09
 35.83010   -157.8 1.252e+04 4.322e-09
 35.87017   -157.9 1.277e+04 6.794e-09
 35.91023   -158.3 1.302e+04 9.948e-09
 35.93142   -159.0 1.322e+04 1.282e-08
 35.95145   -160.2 1.289e+04 1.117e-08
 35.99037   -160.9 1.287e+04 1.183e-08
 36.03043   -161.4 1.275e+04 1.116e-08
 36.06039   -162.0 1.247e+04 8.795e-09
 36.08032   -162.2 1.246e+04 8.542e-09
 36.09926   -162.7 1.245e+04 7.970e-09
 36.10928   -163.0 1.214e+04 6.265e-09
 36.12039   -163.4 1.216e+04 6.107e-09
 36.14042   -163.9 1.218e+04 6.057e-09
 36.16046   -164.5 1.224e+04 6.106e-09
 36.18049   -165.0 1.234e+04 6.475e-09
 36.19330   -165.5 1.242e+04 6.942e-09
 36.20331   -165.2 1.224e+04 5.781e-09
 36.22056   -165.4 1.229e+04 5.963e-09
 36.24059   -165.4 1.231e+04 6.025e-09
 36.26062   -165.3 1.234e+04 6.038e-09
 36.27731   -165.1 1.237e+04 6.085e-09
 36.28733   -164.6 1.214e+04 4.822e-09
 36.30069   -164.2 1.216e+04 4.830e-09
 36.32073   -163.8 1.216e+04 4.952e-09
 36.34076   -163.5 1.218e+04 5.242e-09
 36.36079   -163.0 1.221e+04 5.638e-09
 36.37135   -162.5 1.223e+04 6.033e-09
 36.38137   -161.9 1.213e+04 5.036e-09
 36.40086   -161.4 1.215e+04 5.507e-09
 36.42089   -160.8 1.215e+04 5.851e-09
 36.44093   -160.2 1.214e+04 5.999e-09
 36.45537   -159.6 1.207e+04 6.021e-09
 36.46538   -159.0 1.206e+04 5.774e-09
 36.48099   -158.4 1.198e+04 5.740e-09
 36.51114   -157.6 1.190e+04 5.558e-09
 36.55131   -156.6 1.188e+04 5.737e-09
 36.59137   -155.8 1.186e+04 5.847e-09
 36.62360   -154.9 1.189e+04 5.500e-09
 36.64363   -154.0 1.177e+04 5.153e-09
 36.67151   -153.0 1.167e+04 4.388e-09
 36.71157   -151.6 1.159e+04 3.814e-09
 36.75164   -150.1 1.157e+04 3.644e-09
 36.79164   -148.4 1.159e+04 3.636e-09
 36.83170   -146.1 1.168e+04 3.665e-09
 36.87184   -145.0 1.193e+04 4.599e-09
 36.91191   -144.2 1.216e+04 5.601e-09
 36.95198   -143.8 1.230e+04 5.908e-09
 36.97971   -143.5 1.230e+04 5.878e-09
 36.99974   -142.5 1.230e+04 5.968e-09
 37.03211   -142.2 1.229e+04 5.072e-09
 37.07218   -141.8 1.224e+04 3.309e-09
 37.11225   -141.0 1.221e+04 1.979e-09
 37.14774   -139.9 1.230e+04 1.303e-09
 37.16778   -139.3 1.236e+04 1.458e-09
 37.19238   -138.1 1.247e+04 1.092e-09
 37.23245   -136.8 1.256e+04 9.660e-10
 37.27251   -135.5 1.262e+04 9.080e-10
 37.31258   -134.1 1.271e+04 8.629e-10
 37.33581   -132.7 1.281e+04 8.409e-10
 37.35585   -132.2 1.285e+04 7.819e-10
 37.39272   -130.9 1.292e+04 7.792e-10
 37.43278   -129.8 1.316e+04 8.080e-10
 37.47285   -128.7 1.328e+04 8.827e-10
 37.50385   -127.6 1.336e+04 9.412e-10
 37.52388   -126.9 1.343e+04 8.203e-10
 37.55298   -125.8 1.348e+04 8.340e-10
 37.59305   -124.6 1.347e+04 8.293e-10
 37.63312   -123.3 1.342e+04 7.612e-10
 37.67189   -121.9 1.340e+04 6.776e-10
 37.69192   -121.3 1.356e+04 6.272e-10
 37.71325   -119.9 1.354e+04 5.894e-10
 37.75332   -118.5 1.354e+04 5.819e-10
 37.79339   -117.1 1.354e+04 5.846e-10
 37.83345   -115.8 1.353e+04 6.010e-10
 37.85996   -114.5 1.354e+04 6.220e-10
 37.87999   -114.0 1.357e+04 6.175e-10
 37.91359   -112.8 1.358e+04 6.596e-10
 37.95365   -111.8 1.364e+04 7.468e-10
 37.99372   -110.8 1.370e+04 9.144e-10
 38.02799   -109.9 1.372e+04 1.185e-09
 38.04803   -109.7 1.374e+04 1.179e-09
 38.07386   -109.2 1.379e+04 1.525e-09
 38.10576   -108.8 1.399e+04 1.860e-09
 38.12579   -108.6 1.406e+04 1.924e-09
 38.15399   -108.4 1.428e+04 2.228e-09
 38.19406   -108.3 1.455e+04 2.384e-09
 38.21606   -108.3 1.464e+04 2.431e-09
 38.23610   -108.6 1.471e+04 2.605e-09
 38.27419   -108.2 1.476e+04 2.334e-09
 38.31426   -107.4 1.470e+04 2.015e-09
 38.35433   -106.2 1.469e+04 1.928e-09
 38.38410   -105.0 1.468e+04 1.988e-09
 38.40413   -105.0 1.462e+04 1.885e-09
 38.43446   -104.0 1.460e+04 2.329e-09
 38.47453   -103.3 1.467e+04 3.214e-09
 38.50448   -102.7 1.477e+04 4.237e-09
 38.52442   -102.8 1.478e+04 4.488e-09
 38.54445   -103.0 1.475e+04 5.746e-09
 38.56196   -103.0 1.479e+04 6.662e-09
 38.57197   -102.9 1.471e+04 6.758e-09
 38.58452   -102.9 1.482e+04 7.729e-09
 38.60455   -102.9 1.486e+04 8.502e-09
 38.62458   -103.1 1.484e+04 9.047e-09
 38.64462   -103.3 1.479e+04 9.491e-09
 38.67476   -103.6 1.473e+04 1.037e-08
 38.71493   -104.3 1.482e+04 1.107e-08
 38.74021   -105.9 1.511e+04 1.172e-08
 38.76024   -106.2 1.511e+04 1.308e-08
 38.79506   -108.2 1.520e+04 1.325e-08
 38.82413   -109.5 1.530e+04 1.351e-08
 38.83405   -109.6 1.530e+04 1.358e-08
 38.84495   -110.0 1.532e+04 1.314e-08
 38.86499   -110.9 1.527e+04 1.028e-08
 38.88502   -111.4 1.521e+04 7.674e-09
 38.90505   -111.9 1.524e+04 5.946e-09
 38.91806   -112.1 1.530e+04 5.093e-09
 38.92808   -111.9 1.531e+04 5.041e-09
 38.94512   -112.0 1.534e+04 4.713e-09
 38.96515   -112.1 1.535e+04 4.646e-09
 38.98519   -112.5 1.549e+04 4.678e-09
 39.00208   -113.1 1.552e+04 5.045e-09
 39.01210   -112.7 1.552e+04 5.021e-09
 39.02525   -113.5 1.543e+04 5.797e-09
 39.04529   -114.4 1.531e+04 7.034e-09
 39.06532   -115.2 1.523e+04 8.723e-09
 39.08535   -115.9 1.525e+04 1.008e-08
 39.09612   -116.7 1.523e+04 1.071e-08
 39.10614   -116.4 1.525e+04 1.062e-08
 39.12542   -117.1 1.524e+04 1.076e-08
 39.14546   -117.6 1.517e+04 9.919e-09
 39.16549   -117.9 1.508e+04 8.193e-09
 39.18014   -118.1 1.506e+04 6.664e-09
 39.19015   -117.9 1.508e+04 6.620e-09
 39.20556   -117.9 1.499e+04 5.780e-09
 39.22559   -117.9 1.489e+04 5.586e-09
 39.24562   -117.5 1.486e+04 5.628e-09
 39.26425   -117.4 1.478e+04 6.550e-09
 39.27427   -117.2 1.485e+04 6.240e-09
 39.28569   -117.2 1.483e+04 7.597e-09
 39.30572   -117.3 1.482e+04 9.371e-09
 39.32576   -117.6 1.493e+04 1.135e-08
 39.35590   -118.2 1.511e+04 1.617e-08
 39.39607   -119.9 1.511e+04 1.943e-08
 39.43239   -121.1 1.458e+04 1.742e-08
 39.45232   -122.1 1.443e+04 1.623e-08
 39.47611   -122.5 1.407e+04 1.149e-08
 39.51627   -122.0 1.370e+04 5.828e-09
 39.55634   -121.1 1.349e+04 3.338e-09
 39.59641   -119.7 1.337e+04 2.823e-09
 39.62046   -118.3 1.333e+04 2.755e-09
 39.64049   -118.5 1.338e+04 2.323e-09
 39.67654   -117.2 1.333e+04 2.358e-09
 39.71661   -115.9 1.329e+04 2.412e-09
 39.75667   -114.7 1.321e+04 2.385e-09
 39.78849   -113.2 1.317e+04 2.095e-09
 39.80853   -113.1 1.326e+04 1.785e-09
 39.83681   -111.6 1.333e+04 1.515e-09
 39.87687   -110.1 1.328e+04 1.379e-09
 39.91694   -108.5 1.324e+04 1.339e-09
 39.95653   -107.0 1.324e+04 1.332e-09
 39.97656   -106.8 1.332e+04 1.279e-09
 39.99708   -105.2 1.340e+04 1.326e-09
 40.03714   -103.7 1.348e+04 1.407e-09
 40.07721   -102.3 1.352e+04 1.519e-09
 40.11728   -100.9 1.349e+04 1.734e-09
 40.14460    -99.7 1.350e+04 2.102e-09
 40.16463    -99.8 1.359e+04 2.139e-09
 40.19741    -98.7 1.362e+04 2.772e-09
 40.23748    -97.7 1.366e+04 3.497e-09
 40.27755    -96.8 1.369e+04 4.038e-09
 40.31264    -96.0 1.376e+04 4.213e-09
 40.33267    -96.1 1.378e+04 4.808e-09
 40.35768    -95.1 1.379e+04 4.925e-09
 40.39775    -94.0 1.381e+04 4.916e-09
 40.43781    -93.2 1.399e+04 4.995e-09
 40.47788    -92.9 1.420e+04 6.651e-09
 40.50071    -93.0 1.436e+04 1.013e-08
 40.51063    -94.1 1.455e+04 1.169e-08
 40.52777    -94.5 1.467e+04 1.464e-08
 40.54780    -94.6 1.477e+04 1.803e-08
 40.56784    -95.1 1.493e+04 2.111e-08
 40.58453    -95.5 1.502e+04 2.221e-08
 40.59455    -96.6 1.522e+04 2.477e-08
 40.60790    -97.2 1.498e+04 2.196e-08
 40.62794    -97.6 1.466e+04 1.714e-08
 40.64797    -97.9 1.434e+04 1.305e-08
 40.66865    -97.5 1.422e+04 1.126e-08
 40.68878    -99.5 1.399e+04 7.496e-09
 40.71828    -98.6 1.356e+04 4.585e-09
 40.75835    -97.9 1.348e+04 3.863e-09
 40.79842    -97.1 1.346e+04 3.796e-09
 40.83678    -96.4 1.337e+04 4.399e-09
 40.85681    -97.4 1.344e+04 3.749e-09
 40.87855    -96.9 1.338e+04 4.605e-09
 40.91862    -96.7 1.333e+04 5.165e-09
 40.95869    -96.6 1.332e+04 5.285e-09
 40.99875    -96.3 1.317e+04 4.807e-09
 41.02485    -96.0 1.309e+04 3.726e-09
 41.04488    -96.7 1.303e+04 2.942e-09
 41.07889    -96.1 1.302e+04 2.046e-09
 41.11895    -95.5 1.295e+04 1.639e-09
 41.15902    -94.8 1.294e+04 1.553e-09
 41.19289    -94.5 1.308e+04 1.647e-09
 41.21292    -95.0 1.289e+04 1.096e-09
 41.23916    -95.2 1.284e+04 1.759e-09
 41.27922    -95.5 1.286e+04 3.193e-09
 41.31708    -95.9 1.306e+04 4.831e-09
 41.33711    -95.6 1.284e+04 4.743e-09
 41.35936    -96.7 1.299e+04 5.376e-09
 41.38096    -98.1 1.293e+04 5.167e-09
 41.40099    -98.1 1.278e+04 4.633e-09
 41.43949    -99.0 1.276e+04 3.792e-09
 41.46488    -99.2 1.298e+04 3.451e-09
 41.47480    -99.3 1.292e+04 3.317e-09
 41.48938    -99.4 1.298e+04 3.292e-09
 41.50941    -99.7 1.317e+04 3.037e-09
 41.52945   -100.0 1.319e+04 2.879e-09
 41.54890   -100.4 1.326e+04 2.638e-09
 41.56903   -100.1 1.322e+04 2.684e-09
 41.59976   -100.5 1.316e+04 2.244e-09
 41.63983   -100.5 1.308e+04 2.080e-09
 41.67989   -100.3 1.311e+04 2.092e-09
 41.70985   -100.3 1.309e+04 2.436e-09
 41.72685   -101.1 1.310e+04 3.749e-09
 41.73687   -100.5 1.301e+04 3.167e-09
 41.74982   -101.1 1.309e+04 5.563e-09
 41.76985   -101.6 1.343e+04 9.802e-09
 41.78988   -102.2 1.390e+04 1.551e-08
 41.80992   -103.2 1.420e+04 1.921e-08
 41.82089   -104.5 1.423e+04 1.977e-08
 41.83090   -103.6 1.401e+04 1.671e-08
 41.84998   -104.5 1.382e+04 1.551e-08
 41.87002   -105.0 1.356e+04 1.021e-08
 41.89005   -105.3 1.334e+04 6.225e-09
 41.90491   -105.6 1.321e+04 3.727e-09
 41.91492   -104.6 1.319e+04 4.145e-09
 41.93012   -104.8 1.303e+04 2.793e-09
 41.96027   -104.3 1.288e+04 1.999e-09
 42.00043   -103.7 1.269e+04 1.041e-09
 42.04050   -102.4 1.260e+04 6.719e-10
 42.07314   -100.9 1.260e+04 5.958e-10
 42.09317    -99.7 1.264e+04 6.381e-10
 42.12063    -98.0 1.265e+04 6.018e-10
 42.16070    -96.3 1.267e+04 5.956e-10
 42.20077    -94.6 1.277e+04 6.220e-10
 42.24083    -93.1 1.280e+04 6.976e-10
 42.26121    -91.6 1.287e+04 7.734e-10
 42.28124    -90.7 1.283e+04 8.602e-10
 42.32097    -89.3 1.295e+04 9.014e-10
 42.36103    -87.9 1.301e+04 9.094e-10
 42.40110    -86.5 1.306e+04 9.018e-10
 42.42924    -85.2 1.307e+04 9.547e-10
 42.44928    -84.3 1.309e+04 8.518e-10
 42.48124    -83.0 1.312e+04 9.358e-10
 42.52130    -81.9 1.307e+04 1.351e-09
 42.56137    -80.8 1.302e+04 2.185e-09
 42.59728    -79.7 1.305e+04 3.309e-09
 42.61732    -78.5 1.307e+04 2.322e-09
 42.64150    -77.3 1.311e+04 3.412e-09
 42.68157    -76.4 1.319e+04 4.358e-09
 42.72164    -76.0 1.321e+04 5.027e-09
 42.76171    -75.8 1.326e+04 5.565e-09
 42.78535    -75.9 1.329e+04 6.214e-09
 42.80539    -74.6 1.349e+04 7.643e-09
 42.84184    -75.1 1.358e+04 8.920e-09
 42.88191    -75.8 1.359e+04 9.228e-09
 42.92197    -76.1 1.348e+04 8.130e-09
 42.95339    -76.1 1.339e+04 5.832e-09
 42.97342    -75.6 1.346e+04 5.988e-09
 43.00211    -75.3 1.330e+04 4.016e-09
 43.04217    -74.3 1.326e+04 2.991e-09
 43.08224    -73.0 1.336e+04 2.566e-09
 43.12143    -71.7 1.345e+04 2.411e-09
 43.14146    -71.0 1.351e+04 2.342e-09
 43.16238    -69.6 1.354e+04 2.314e-09
 43.20244    -68.3 1.370e+04 2.502e-09
 43.24251    -67.3 1.378e+04 3.196e-09
 43.28258    -66.3 1.391e+04 4.178e-09
 43.30950    -65.4 1.400e+04 4.769e-09
 43.32953    -65.0 1.415e+04 5.152e-09
 43.36271    -64.3 1.422e+04 5.144e-09
 43.40278    -63.6 1.423e+04 4.497e-09
 43.44285    -63.5 1.439e+04 4.186e-09
 43.47753    -64.9 1.491e+04 6.127e-09
 43.49757    -66.4 1.509e+04 9.187e-09
 43.52298    -68.4 1.512e+04 1.467e-08
 43.56305    -70.5 1.483e+04 1.240e-08
 43.60311    -71.6 1.425e+04 6.166e-09
 43.63307    -71.4 1.402e+04 3.598e-09
 43.65300    -70.7 1.401e+04 3.059e-09
 43.66541    -69.9 1.402e+04 2.381e-09
 43.68554    -69.7 1.402e+04 2.020e-09
 43.72332    -67.7 1.379e+04 1.667e-09
 43.76338    -65.7 1.361e+04 1.562e-09
 43.80345    -63.8 1.354e+04 1.583e-09
 43.83364    -62.1 1.339e+04 1.956e-09
 43.85367    -61.5 1.351e+04 1.492e-09
 43.88358    -59.5 1.342e+04 1.881e-09
 43.92365    -57.6 1.339e+04 2.038e-09
 43.96372    -55.6 1.331e+04 1.834e-09
 44.00168    -53.4 1.337e+04 1.360e-09
 44.02171    -52.8 1.339e+04 1.364e-09
 44.04385    -50.7 1.351e+04 1.060e-09
 44.08392    -48.8 1.356e+04 9.227e-10
 44.12399    -46.8 1.364e+04 9.059e-10
 44.16405    -45.5 1.368e+04 1.146e-09
 44.18975    -44.2 1.338e+04 2.172e-09
 44.20978    -43.9 1.346e+04 2.928e-09
 44.24419    -42.3 1.357e+04 5.473e-09
 44.28425    -41.9 1.379e+04 8.251e-09
 44.32432    -42.4 1.395e+04 1.116e-08
 44.35778    -43.4 1.420e+04 1.468e-08
 44.37782    -44.9 1.470e+04 1.782e-08
 44.40446    -47.4 1.484e+04 1.739e-08
 44.44452    -50.3 1.475e+04 1.377e-08
 44.48459    -53.7 1.470e+04 1.247e-08
 44.51454    -55.9 1.464e+04 1.222e-08
 44.53448    -56.8 1.507e+04 1.277e-08
 44.54566    -60.6 1.559e+04 1.490e-08
 44.54939    -61.4 1.552e+04 1.507e-08
 44.55825    -61.8 1.564e+04 1.667e-08
 44.57455    -64.3 1.541e+04 2.089e-08
 44.59458    -66.7 1.489e+04 2.167e-08
 44.61461    -68.2 1.401e+04 1.341e-08
 44.62968    -70.3 1.363e+04 4.592e-09
 44.63969    -70.5 1.372e+04 3.732e-09
 44.65468    -73.1 1.344e+04 1.962e-09
 44.68483    -74.6 1.320e+04 1.707e-09
 44.71389    -75.5 1.305e+04 1.800e-09
 44.73392    -74.7 1.309e+04 1.576e-09
 44.76506    -75.9 1.289e+04 2.412e-09
 44.79501    -76.9 1.275e+04 3.816e-09
 44.80773    -77.8 1.259e+04 4.867e-09
 44.81775    -77.5 1.271e+04 4.636e-09
 44.83498    -78.4 1.256e+04 5.422e-09
 44.85502    -79.5 1.246e+04 5.670e-09
 44.87505    -80.7 1.240e+04 5.740e-09
 44.89175    -81.7 1.230e+04 5.736e-09
 44.90176    -81.4 1.238e+04 5.855e-09
 44.91512    -82.1 1.231e+04 5.868e-09
 44.93515    -82.6 1.230e+04 5.851e-09
 44.96530    -84.3 1.188e+04 5.373e-09
 44.98588    -85.1 1.166e+04 5.111e-09
 44.99580    -84.9 1.170e+04 4.926e-09
 45.01528    -85.3 1.161e+04 4.655e-09
 45.03532    -85.8 1.145e+04 4.256e-09
 45.05535    -86.0 1.135e+04 3.847e-09
 45.06990    -86.6 1.113e+04 3.393e-09
 45.09003    -86.1 1.118e+04 2.823e-09
 45.12566    -85.9 1.089e+04 2.276e-09
 45.16573    -85.9 1.077e+04 1.958e-09
 45.20580    -86.0 1.078e+04 1.869e-09
 45.23803    -86.2 1.060e+04 2.546e-09
 45.25807    -85.7 1.074e+04 2.499e-09
 45.28593    -85.7 1.095e+04 3.667e-09
 45.32600    -85.9 1.117e+04 4.456e-09
 45.35595    -86.4 1.130e+04 5.066e-09
 45.37589    -86.4 1.127e+04 4.966e-09
 45.39592    -86.5 1.118e+04 4.351e-09
 45.41589    -86.5 1.111e+04 3.927e-09
 45.44604    -86.4 1.125e+04 3.289e-09
 45.48627    -85.9 1.118e+04 2.878e-09
 45.52633    -85.2 1.117e+04 2.708e-09
 45.56640    -84.2 1.125e+04 2.564e-09
 45.59414    -82.9 1.131e+04 2.323e-09
 45.61417    -83.0 1.149e+04 2.486e-09
 45.64654    -81.5 1.152e+04 2.108e-09
 45.68660    -79.7 1.153e+04 1.665e-09
 45.72667    -78.0 1.150e+04 1.332e-09
 45.76218    -76.2 1.160e+04 1.072e-09
 45.78221    -76.2 1.176e+04 1.015e-09
 45.80680    -74.7 1.189e+04 9.112e-10
 45.84687    -73.2 1.197e+04 8.761e-10
 45.88694    -71.8 1.208e+04 9.147e-10
 45.92701    -70.4 1.210e+04 9.496e-10
 45.95025    -68.7 1.219e+04 8.474e-10
 45.97028    -68.8 1.236e+04 7.806e-10
 46.00714    -66.8 1.256e+04 5.623e-10
 46.04721    -65.0 1.276e+04 3.960e-10
 46.08727    -63.1 1.285e+04 3.174e-10
 46.11828    -61.2 1.287e+04 3.011e-10
 46.13832    -61.0 1.286e+04 2.875e-10
 46.16741    -59.1 1.294e+04 2.930e-10
 46.20748    -57.5 1.290e+04 3.738e-10
 46.24754    -55.6 1.282e+04 5.233e-10
 46.28632    -53.5 1.286e+04 6.835e-10
 46.30635    -53.5 1.286e+04 6.814e-10
 46.32768    -51.6 1.302e+04 8.400e-10
 46.36774    -49.8 1.317e+04 9.871e-10
 46.40781    -48.1 1.329e+04 1.142e-09
 46.44788    -46.5 1.343e+04 1.275e-09
 46.47439    -45.0 1.359e+04 1.376e-09
 46.49442    -45.7 1.356e+04 1.474e-09
 46.52801    -44.6 1.374e+04 1.492e-09
 46.56808    -43.6 1.360e+04 1.772e-09
 46.60815    -42.4 1.342e+04 2.311e-09
 46.64243    -41.3 1.345e+04 2.718e-09
 46.66246    -41.7 1.345e+04 1.944e-09
 46.67817    -40.3 1.375e+04 2.824e-09
 46.69810    -40.4 1.367e+04 3.104e-09
 46.71814    -39.8 1.355e+04 3.878e-09
 46.73627    -39.6 1.355e+04 4.048e-09
 46.74628    -39.5 1.352e+04 3.917e-09
 46.75820    -39.1 1.345e+04 4.186e-09
 46.77824    -38.6 1.346e+04 3.978e-09
 46.79827    -38.1 1.354e+04 3.669e-09
 46.81830    -37.9 1.384e+04 3.180e-09
 46.83030    -37.8 1.423e+04 2.850e-09
 46.85043    -37.5 1.424e+04 2.936e-09
 46.88862    -38.1 1.432e+04 4.337e-09
 46.92868    -38.7 1.451e+04 9.051e-09
 46.95864    -40.2 1.479e+04 1.218e-08
 46.97857    -40.3 1.482e+04 1.208e-08
 46.99834    -42.3 1.455e+04 9.451e-09
 47.01847    -43.4 1.451e+04 1.063e-08
 47.04888    -45.4 1.395e+04 7.950e-09
 47.08895    -46.1 1.362e+04 6.019e-09
 47.11890    -46.0 1.338e+04 4.292e-09
 47.13884    -45.9 1.334e+04 4.174e-09
 47.15887    -45.4 1.313e+04 3.840e-09
 47.17639    -45.3 1.305e+04 3.781e-09
 47.18641    -45.0 1.310e+04 3.548e-09
 47.19894    -44.8 1.302e+04 3.756e-09
 47.21897    -44.7 1.287e+04 4.163e-09
 47.23901    -44.4 1.286e+04 4.837e-09
 47.25904    -44.4 1.286e+04 5.587e-09
 47.27043    -44.4 1.299e+04 6.694e-09
 47.28044    -43.9 1.315e+04 7.683e-09
 47.29911    -44.7 1.327e+04 9.704e-09
 47.31914    -45.2 1.338e+04 1.201e-08
 47.33918    -46.1 1.341e+04 1.260e-08
 47.35445    -46.8 1.307e+04 1.187e-08
 47.36446    -46.9 1.338e+04 1.601e-08
 47.37924    -47.3 1.310e+04 1.244e-08
 47.39928    -47.8 1.287e+04 8.296e-09
 47.41931    -48.3 1.265e+04 5.532e-09
 47.43846    -48.6 1.238e+04 4.281e-09
 47.44848    -48.9 1.246e+04 4.991e-09
 47.45938    -48.7 1.226e+04 4.113e-09
 47.47941    -48.3 1.212e+04 3.672e-09
 47.49944    -47.7 1.196e+04 3.532e-09
 47.51948    -46.7 1.197e+04 3.631e-09
 47.53250    -46.1 1.220e+04 4.082e-09
 47.54252    -46.6 1.233e+04 4.636e-09
 47.55954    -46.3 1.249e+04 5.432e-09
 47.57958    -46.1 1.266e+04 7.429e-09
 47.59961    -45.8 1.287e+04 1.062e-08
 47.61652    -45.5 1.305e+04 1.425e-08
 47.62653    -46.1 1.297e+04 1.411e-08
 47.63968    -45.5 1.309e+04 1.598e-08
 47.65971    -45.4 1.312e+04 1.596e-08
 47.67975    -45.4 1.317e+04 1.510e-08
 47.69978    -45.7 1.327e+04 1.414e-08
 47.71055    -46.2 1.328e+04 1.390e-08
 47.72057    -47.2 1.318e+04 1.265e-08
 47.73985    -47.5 1.308e+04 1.349e-08
 47.75955    -47.5 1.314e+04 1.453e-08
 47.76956    -47.9 1.289e+04 1.269e-08
 47.77991    -48.2 1.279e+04 1.275e-08
 47.79457    -48.5 1.274e+04 1.317e-08
 47.80459    -49.4 1.265e+04 1.342e-08
 47.81998    -49.4 1.261e+04 1.331e-08
 47.85013    -49.2 1.244e+04 1.320e-08
 47.87878    -49.0 1.234e+04 1.245e-08
 47.89882    -51.0 1.209e+04 1.234e-08
 47.93036    -50.6 1.182e+04 1.082e-08
 47.97043    -50.1 1.158e+04 9.353e-09
 48.01049    -49.7 1.128e+04 8.274e-09
 48.04682    -48.7 1.114e+04 8.075e-09
 48.06685    -49.5 1.088e+04 6.687e-09
 48.09063    -48.2 1.088e+04 7.246e-09
 48.13070    -46.9 1.085e+04 7.319e-09
 48.17076    -45.7 1.087e+04 7.176e-09
 48.21083    -44.5 1.116e+04 7.929e-09
 48.23479    -43.2 1.113e+04 8.664e-09
 48.24471    -43.6 1.126e+04 9.082e-09
 48.26072    -43.0 1.134e+04 9.275e-09
 48.28075    -42.2 1.133e+04 9.207e-09
 48.30079    -41.5 1.131e+04 8.778e-09
 48.31871    -40.8 1.132e+04 8.619e-09
 48.32873    -41.0 1.125e+04 7.758e-09
 48.34085    -40.3 1.130e+04 7.262e-09
 48.36089    -39.7 1.139e+04 6.805e-09
 48.38092    -39.2 1.143e+04 6.375e-09
 48.40095    -38.6 1.153e+04 6.399e-09
 48.41275    -38.0 1.160e+04 6.020e-09
 48.42277    -38.7 1.150e+04 5.050e-09
 48.45113    -37.9 1.146e+04 4.440e-09
 48.49130    -36.7 1.165e+04 3.968e-09
 48.53137    -35.3 1.165e+04 4.058e-09
 48.56132    -34.4 1.203e+04 3.995e-09
 48.58079    -33.4 1.180e+04 4.745e-09
 48.59080    -34.1 1.179e+04 4.819e-09
 48.60129    -33.4 1.239e+04 4.441e-09
 48.62132    -33.3 1.240e+04 5.415e-09
 48.64136    -32.9 1.231e+04 7.021e-09
 48.66139    -32.3 1.259e+04 9.538e-09
 48.67482    -33.4 1.356e+04 1.379e-08
 48.68484    -34.5 1.360e+04 1.389e-08
 48.70146    -35.7 1.403e+04 2.934e-08
 48.72149    -35.7 1.477e+04 5.527e-08
 48.74152    -36.8 1.613e+04 8.370e-08
 48.75884    -39.3 1.684e+04 1.129e-07
 48.76886    -39.6 1.675e+04 9.517e-08
 48.78159    -40.1 1.673e+04 1.572e-07
 48.80162    -40.4 1.643e+04 1.075e-07
 48.82166    -40.3 1.592e+04 3.477e-08
 48.84169    -42.6 1.482e+04 1.219e-08
 48.85287    -43.5 1.364e+04 7.270e-09
 48.86289    -42.5 1.377e+04 8.618e-09
 48.88176    -42.1 1.320e+04 6.589e-09
 48.90179    -41.3 1.311e+04 5.972e-09
 48.92183    -40.0 1.273e+04 7.290e-09
 48.93689    -39.1 1.306e+04 6.612e-09
 48.94691    -38.4 1.300e+04 6.642e-09
 48.96189    -37.2 1.275e+04 7.261e-09
 48.98193    -35.9 1.268e+04 7.918e-09
 49.00196    -34.9 1.305e+04 7.028e-09
 49.02091    -34.2 1.278e+04 8.245e-09
 49.03093    -33.7 1.271e+04 7.791e-09
 49.04203    -32.7 1.289e+04 8.055e-09
 49.06206    -31.6 1.275e+04 8.785e-09
 49.08209    -30.2 1.308e+04 8.487e-09
 49.10213    -29.6 1.320e+04 9.260e-09
 49.11495    -28.4 1.335e+04 9.304e-09
 49.12496    -28.1 1.326e+04 8.801e-09
 49.14219    -27.3 1.347e+04 9.160e-09
 49.16223    -26.7 1.378e+04 1.014e-08
 49.18226    -27.6 1.441e+04 1.533e-08
 49.19896    -27.9 1.496e+04 3.323e-08
 49.20898    -27.5 1.464e+04 2.615e-08
 49.22233    -26.9 1.505e+04 5.099e-08
 49.24236    -26.8 1.546e+04 5.645e-08
 49.26240    -26.6 1.521e+04 4.254e-08
 49.28243    -26.7 1.480e+04 2.627e-08
 49.29300    -27.4 1.433e+04 1.780e-08
 49.30302    -27.2 1.434e+04 1.813e-08
 49.33261    -26.8 1.383e+04 1.123e-08
 49.37278    -25.7 1.344e+04 6.714e-09
 49.41284    -24.3 1.319e+04 6.144e-09
 49.45121    -22.9 1.313e+04 6.314e-09
 49.47125    -23.4 1.309e+04 6.218e-09
 49.49298    -22.0 1.302e+04 5.637e-09
 49.53304    -20.3 1.285e+04 4.666e-09
 49.57311    -18.7 1.295e+04 3.880e-09
 49.60306    -17.2 1.286e+04 3.044e-09
 49.62300    -16.9 1.297e+04 3.035e-09
 49.63909    -15.7 1.288e+04 3.050e-09
 49.65922    -15.8 1.291e+04 3.044e-09
 49.69331    -13.7 1.282e+04 3.044e-09
 49.73338    -11.6 1.260e+04 2.820e-09
 49.77345     -9.3 1.245e+04 2.323e-09
 49.80732     -7.0 1.240e+04 1.824e-09
 49.82735     -6.5 1.246e+04 1.677e-09
 49.85358     -4.3 1.243e+04 1.431e-09
 49.89365     -1.7 1.231e+04 1.411e-09
 49.93371      0.9 1.226e+04 1.489e-09
 49.97378      3.5 1.224e+04 1.732e-09
 49.99539      6.0 1.239e+04 2.292e-09
 50.01543      6.4 1.236e+04 2.133e-09
 50.05392      8.6 1.253e+04 2.938e-09
 50.07931     10.2 1.252e+04 3.195e-09
 50.08923     10.7 1.251e+04 3.002e-09
 50.10380     11.8 1.257e+04 3.296e-09
 50.12384     12.7 1.261e+04 3.627e-09
 50.14387     13.7 1.264e+04 3.891e-09
 50.16323     14.8 1.270e+04 4.058e-09
 50.17325     15.2 1.269e+04 3.712e-09
 50.18394     16.2 1.276e+04 3.834e-09
 50.20397     17.2 1.282e+04 3.898e-09
 50.22401     18.2 1.283e+04 4.003e-09
 50.24404     19.1 1.282e+04 4.229e-09
 50.25727     19.8 1.283e+04 4.616e-09
 50.26728     20.1 1.281e+04 4.536e-09
 50.28411     20.7 1.283e+04 5.136e-09
 50.30414     21.2 1.290e+04 5.996e-09
 50.32417     21.5 1.293e+04 7.103e-09
 50.34129     21.9 1.290e+04 8.316e-09
 50.35130     22.3 1.280e+04 7.038e-09
 50.36424     22.7 1.270e+04 7.636e-09
 50.38427     23.0 1.264e+04 7.732e-09
 50.40431     23.5 1.257e+04 7.639e-09
 50.42434     24.0 1.242e+04 7.183e-09
 50.43532     24.6 1.215e+04 6.773e-09
 50.44534     25.0 1.211e+04 6.446e-09
 50.46441     25.6 1.202e+04 6.539e-09
 50.48444     25.8 1.198e+04 6.835e-09
 50.50448     25.5 1.231e+04 7.759e-09
 50.51934     25.0 1.279e+04 1.162e-08
 50.52936     25.6 1.271e+04 1.069e-08
 50.54454     25.1 1.316e+04 1.761e-08
 50.56458     24.7 1.344e+04 2.537e-08
 50.58461     24.1 1.342e+04 2.934e-08
 50.60336     23.1 1.320e+04 2.954e-08
 50.61337     23.3 1.330e+04 2.880e-08
 50.62468     21.9 1.295e+04 2.765e-08
 50.64471     20.1 1.291e+04 2.895e-08
 50.66474     18.4 1.288e+04 3.297e-08
 50.68478     16.8 1.279e+04 3.446e-08
 50.69739     15.4 1.265e+04 3.278e-08
 50.70741     15.5 1.320e+04 3.689e-08
 50.72484     13.2 1.336e+04 3.713e-08
 50.74488      9.1 1.408e+04 4.127e-08
 50.76491      4.1 1.630e+04 6.034e-08
 50.78141      0.2 1.721e+04 1.184e-07
 50.79138     -0.1 1.785e+04 1.814e-07
 50.79987     -1.6 1.814e+04 2.430e-07
 50.80989     -3.4 1.847e+04 2.900e-07
 50.81991     -5.4 1.863e+04 3.125e-07
 50.82833     -7.7 1.858e+04 3.462e-07
 50.83334     -8.0 1.875e+04 6.119e-07
 50.83994    -10.0 1.866e+04 5.038e-07
 50.84996    -11.8 1.842e+04 3.731e-07
 50.85997    -12.6 1.778e+04 2.538e-07
 50.86999    -13.1 1.721e+04 1.749e-07
 50.87535    -13.3 1.643e+04 1.123e-07
 50.88036    -13.9 1.646e+04 1.143e-07
 50.89002    -15.3 1.592e+04 7.950e-08
 50.90004    -16.5 1.475e+04 5.326e-08
 50.91006    -17.8 1.410e+04 4.590e-08
 50.92513    -18.2 1.365e+04 4.076e-08
 50.94521    -18.3 1.338e+04 3.761e-08
 50.95946    -18.1 1.319e+04 3.455e-08
 50.96948    -17.6 1.323e+04 3.562e-08
 50.98088    -17.2 1.300e+04 3.159e-08
 50.99090    -18.3 1.268e+04 2.797e-08
 51.00531    -18.3 1.245e+04 2.264e-08
 51.02535    -18.7 1.221e+04 1.885e-08
 51.04348    -19.1 1.188e+04 1.659e-08
 51.05350    -18.0 1.179e+04 1.592e-08
 51.06541    -18.1 1.159e+04 1.514e-08
 51.08545    -17.8 1.159e+04 1.617e-08
 51.10548    -17.2 1.173e+04 1.764e-08
 51.12552    -15.9 1.176e+04 1.750e-08
 51.13752    -15.7 1.192e+04 1.729e-08
 51.14754    -15.1 1.157e+04 1.482e-08
 51.17570    -15.0 1.176e+04 1.456e-08
 51.21172    -13.0 1.119e+04 1.110e-08
 51.23175    -11.5 1.086e+04 1.037e-08
 51.24581    -10.0 1.081e+04 8.802e-09
 51.26575     -9.3 1.099e+04 8.781e-09
 51.28578     -8.5 1.100e+04 8.671e-09
 51.30555     -7.7 1.104e+04 8.702e-09
 51.31557     -7.1 1.090e+04 8.532e-09
 51.32585     -6.7 1.107e+04 9.128e-09
 51.34588     -6.3 1.125e+04 1.031e-08
 51.36592     -5.8 1.140e+04 1.188e-08
 51.38595     -5.2 1.152e+04 1.332e-08
 51.39959     -4.6 1.169e+04 1.408e-08
 51.40961     -4.1 1.168e+04 1.415e-08
 51.42602     -3.9 1.173e+04 1.410e-08
 51.44605     -3.6 1.172e+04 1.347e-08
 51.46609     -3.3 1.168e+04 1.211e-08
 51.48361     -3.0 1.163e+04 1.055e-08
 51.49363     -2.7 1.156e+04 1.095e-08
 51.50615     -2.6 1.156e+04 9.996e-09
 51.52619     -2.4 1.158e+04 9.807e-09
 51.54622     -2.2 1.162e+04 9.981e-09
 51.56625     -2.0 1.173e+04 1.048e-08
 51.57764     -1.8 1.182e+04 1.125e-08
 51.58766     -1.7 1.173e+04 1.110e-08
 51.60632     -1.5 1.170e+04 1.071e-08
 51.62635     -1.4 1.160e+04 9.956e-09
 51.64639     -1.4 1.153e+04 9.021e-09
 51.66166     -1.6 1.151e+04 8.221e-09
 51.67168     -1.5 1.125e+04 6.755e-09
 51.68645     -1.8 1.127e+04 6.778e-09
 51.70649     -2.5 1.146e+04 7.365e-09
 51.72652     -3.5 1.179e+04 9.458e-09
 51.74568     -4.4 1.213e+04 1.321e-08
 51.75570     -4.4 1.200e+04 1.269e-08
 51.76659     -4.8 1.237e+04 1.732e-08
 51.78662     -5.3 1.272e+04 1.861e-08
 51.80666     -6.1 1.282e+04 1.793e-08
 51.82669     -7.0 1.293e+04 1.665e-08
 51.83972     -7.7 1.296e+04 1.523e-08
 51.84973     -7.9 1.273e+04 1.439e-08
 51.86676     -8.5 1.272e+04 1.359e-08
 51.88679     -8.5 1.270e+04 1.247e-08
 51.90682     -8.4 1.278e+04 1.120e-08
 51.92373     -8.1 1.269e+04 9.724e-09
 51.93375     -8.1 1.254e+04 8.165e-09
 51.94689     -7.5 1.257e+04 6.824e-09
 51.96692     -6.9 1.264e+04 5.652e-09
 51.98696     -6.3 1.270e+04 4.707e-09
 52.00699     -5.7 1.274e+04 4.068e-09
 52.01777     -5.0 1.280e+04 3.777e-09
 52.02779     -4.7 1.271e+04 3.138e-09
 52.04706     -3.7 1.264e+04 2.935e-09
 52.06709     -3.2 1.266e+04 2.951e-09
 52.08713     -2.1 1.267e+04 3.040e-09
 52.10179     -1.6 1.274e+04 3.158e-09
 52.11190     -1.5 1.263e+04 2.640e-09
 52.13740      0.4 1.260e+04 2.752e-09
 52.16736      1.7 1.258e+04 3.076e-09
 52.18581      2.2 1.266e+04 3.235e-09
 52.19582      2.6 1.265e+04 2.796e-09
 52.20733      3.9 1.266e+04 2.980e-09
 52.22736      4.2 1.271e+04 3.053e-09
 52.24739      5.3 1.266e+04 3.115e-09
 52.26743      5.6 1.269e+04 3.137e-09
 52.27994      6.5 1.267e+04 3.155e-09
 52.30007      7.3 1.259e+04 2.862e-09
 52.33774      8.7 1.244e+04 2.616e-09
 52.37781     10.1 1.229e+04 2.509e-09
 52.41787     11.8 1.224e+04 2.639e-09
 52.44807     13.5 1.223e+04 2.992e-09
 52.46811     14.5 1.199e+04 2.415e-09
 52.49801     15.9 1.203e+04 2.904e-09
 52.53808     17.3 1.200e+04 3.366e-09
 52.57814     18.7 1.193e+04 3.554e-09
 52.61611     19.9 1.189e+04 3.445e-09
 52.63614     20.6 1.180e+04 2.983e-09
 52.65828     21.5 1.182e+04 2.849e-09
 52.69834     22.3 1.185e+04 2.778e-09
 52.73841     22.9 1.189e+04 2.816e-09
 52.77848     23.4 1.197e+04 2.783e-09
 52.80418     24.2 1.203e+04 2.709e-09
 52.82421     25.4 1.188e+04 2.535e-09
 52.85861     26.1 1.204e+04 2.581e-09
 52.89868     26.9 1.209e+04 2.751e-09
 52.92863     27.2 1.227e+04 3.354e-09
 52.94857     27.2 1.245e+04 4.422e-09
 52.96860     27.3 1.266e+04 6.070e-09
 52.98204     27.5 1.292e+04 8.190e-09
 52.99205     28.2 1.284e+04 6.928e-09
 53.00867     28.3 1.310e+04 8.627e-09
 53.02870     28.3 1.335e+04 1.011e-08
 53.04874     27.9 1.369e+04 1.252e-08
 53.06606     27.0 1.419e+04 1.822e-08
 53.07607     28.1 1.399e+04 1.616e-08
 53.08880     27.2 1.455e+04 2.705e-08
 53.10884     26.4 1.532e+04 4.429e-08
 53.12887     25.4 1.619e+04 5.489e-08
 53.14890     24.0 1.626e+04 5.350e-08
 53.16009     23.0 1.603e+04 4.570e-08
 53.17011     24.3 1.601e+04 4.679e-08
 53.18897     23.4 1.563e+04 3.802e-08
 53.20900     22.5 1.525e+04 3.260e-08
 53.22904     22.0 1.498e+04 3.000e-08
 53.24411     22.0 1.480e+04 2.825e-08
 53.25413     22.7 1.497e+04 3.115e-08
 53.26910     22.7 1.483e+04 2.977e-08
 53.28914     22.8 1.472e+04 2.814e-08
 53.30917     23.0 1.462e+04 2.646e-08
 53.32813     23.1 1.455e+04 2.531e-08
 53.33814     23.2 1.468e+04 3.013e-08
 53.34924     23.3 1.459e+04 2.938e-08
 53.36927     23.5 1.446e+04 2.834e-08
 53.38931     23.8 1.429e+04 2.557e-08
 53.40934     24.0 1.411e+04 2.146e-08
 53.42216     24.2 1.388e+04 1.694e-08
 53.43218     24.3 1.399e+04 1.768e-08
 53.44941     24.2 1.367e+04 1.372e-08
 53.46944     24.1 1.342e+04 1.216e-08
 53.48947     24.2 1.337e+04 1.139e-08
 53.50618     24.4 1.325e+04 1.129e-08
 53.51620     24.4 1.317e+04 1.108e-08
 53.52954     24.8 1.308e+04 1.120e-08
 53.54957     25.4 1.307e+04 1.118e-08
 53.56961     25.8 1.311e+04 1.086e-08
 53.58964     26.3 1.329e+04 1.050e-08
 53.60022     26.6 1.347e+04 1.056e-08
 53.61023     26.5 1.339e+04 9.733e-09
 53.62971     26.6 1.342e+04 9.805e-09
 53.65986     27.7 1.345e+04 9.764e-09
 53.68443     28.9 1.345e+04 1.019e-08
 53.70446     28.8 1.307e+04 8.115e-09
 53.74009     30.3 1.289e+04 6.796e-09
 53.78016     32.0 1.276e+04 5.221e-09
 53.82022     33.9 1.269e+04 4.140e-09
 53.85247     36.1 1.266e+04 3.789e-09
 53.87250     36.2 1.242e+04 2.021e-09
 53.90036     38.8 1.243e+04 2.065e-09
 53.94042     41.5 1.248e+04 2.255e-09
 53.98049     44.2 1.254e+04 2.628e-09
 54.02050     47.0 1.258e+04 3.148e-09
 54.06057     49.9 1.251e+04 2.370e-09
 54.10069     52.6 1.253e+04 2.812e-09
 54.14076     55.2 1.257e+04 3.102e-09
 54.18083     57.8 1.260e+04 3.235e-09
 54.20241     60.4 1.263e+04 3.350e-09
 54.21012     60.6 1.250e+04 3.019e-09
 54.22861     60.8 1.244e+04 2.140e-09
 54.26096     63.5 1.246e+04 2.540e-09
 54.30103     66.2 1.254e+04 3.179e-09
 54.34109     69.6 1.279e+04 4.092e-09
 54.37105     71.0 1.288e+04 4.503e-09
 54.38643     72.1 1.297e+04 4.869e-09
 54.39645     72.1 1.292e+04 4.530e-09
 54.41102     73.3 1.300e+04 4.907e-09
 54.43105     74.4 1.299e+04 4.919e-09
 54.45108     75.7 1.292e+04 4.834e-09
 54.47045     76.8 1.271e+04 4.678e-09
 54.48047     76.7 1.255e+04 4.030e-09
 54.49115     78.0 1.219e+04 3.819e-09
 54.51118     78.9 1.192e+04 3.606e-09
 54.53122     80.4 1.154e+04 3.371e-09
 54.55125     81.0 1.139e+04 3.250e-09
 54.56458     83.2 1.109e+04 3.298e-09
 54.58471     83.2 1.089e+04 2.772e-09
 54.62156     85.9 1.052e+04 2.442e-09
 54.66163     88.6 1.017e+04 2.216e-09
 54.70170     91.4 9.857e+03 2.097e-09
 54.73272     94.3 9.543e+03 2.084e-09
 54.75275     94.4 9.251e+03 1.767e-09
 54.78183     97.4 9.126e+03 1.822e-09
 54.82190    100.4 9.001e+03 1.970e-09
 54.86197    103.5 8.985e+03 2.284e-09
 54.90075    106.1 9.059e+03 2.699e-09
 54.92079    105.6 9.282e+03 2.864e-09
 54.93199    106.7 9.346e+03 3.374e-09
 54.95192    107.8 9.527e+03 4.301e-09
 54.97196    109.0 9.860e+03 5.758e-09
 54.99199    110.0 1.025e+04 7.478e-09
 55.00461    110.8 1.058e+04 9.210e-09
 55.01463    110.4 1.084e+04 1.065e-08
 55.03206    110.9 1.103e+04 1.194e-08
 55.05209    111.1 1.106e+04 1.210e-08
 55.07212    111.3 1.104e+04 1.201e-08
 55.08863    111.4 1.096e+04 1.156e-08
 55.09865    110.5 1.100e+04 1.184e-08
 55.11219    110.5 1.082e+04 1.070e-08
 55.13222    110.5 1.066e+04 9.522e-09
 55.15226    110.3 1.070e+04 9.346e-09
 55.17229    109.7 1.093e+04 9.826e-09
 55.18266    108.7 1.188e+04 1.284e-08
 55.19268    107.0 1.232e+04 1.665e-08
 55.20730    107.1 1.272e+04 1.905e-08
 55.21727    106.9 1.309e+04 2.254e-08
 55.22457    106.5 1.350e+04 2.778e-08
 55.22958    105.4 1.385e+04 3.169e-08
 55.23730    103.9 1.480e+04 4.318e-08
 55.24732    102.0 1.586e+04 6.446e-08
 55.25734    100.1 1.705e+04 1.028e-07
 55.26658     97.9 1.828e+04 1.617e-07
 55.27159     95.1 1.931e+04 2.230e-07
 55.27737     91.3 2.071e+04 3.248e-07
 55.28486     88.5 2.147e+04 3.529e-07
 55.28984     85.4 2.214e+04 4.028e-07
 55.29255     79.3 2.251e+04 6.908e-07
 55.29505     77.0 2.213e+04 9.527e-07
 55.29986     72.2 2.057e+04 2.140e-06
 55.30487     66.5 1.821e+04 6.243e-06
 55.30988     63.3 1.698e+04 1.279e-05
 55.31355     58.7 1.633e+04 2.402e-05
 55.31859     57.9 1.630e+04 1.977e-05
 55.32745     54.0 1.648e+04 1.682e-05
 55.33747     51.1 1.738e+04 8.940e-06
 55.34749     48.7 1.915e+04 3.555e-06
 55.35561     46.6 2.162e+04 1.214e-06
 55.36062     47.8 2.234e+04 7.989e-07
 55.36752     46.6 2.262e+04 3.789e-07
 55.37754     46.7 2.124e+04 2.464e-07
 55.38755     47.2 1.991e+04 2.004e-07
 55.39757     47.4 1.942e+04 1.783e-07
 55.40759     48.8 1.908e+04 1.337e-07
 55.41760     49.0 1.864e+04 1.197e-07
 55.42762     49.3 1.832e+04 1.117e-07
 55.43764     49.7 1.826e+04 1.110e-07
 55.44464     50.4 1.780e+04 1.112e-07
 55.45470     51.4 1.710e+04 9.180e-08
 55.47279     52.7 1.707e+04 9.295e-08
 55.49283     53.7 1.730e+04 9.736e-08
 55.51286     54.4 1.771e+04 1.004e-07
 55.52875     55.0 1.783e+04 9.614e-08
 55.53877     56.0 1.730e+04 7.457e-08
 55.55293     56.3 1.743e+04 6.997e-08
 55.57296     56.3 1.736e+04 5.920e-08
 55.59300     55.7 1.696e+04 4.796e-08
 55.61277     54.8 1.637e+04 3.867e-08
 55.62279     55.4 1.643e+04 4.353e-08
 55.63306     54.6 1.577e+04 3.636e-08
 55.65310     54.1 1.518e+04 3.027e-08
 55.67313     53.9 1.477e+04 2.562e-08
 55.69316     54.0 1.449e+04 2.254e-08
 55.70681     54.2 1.427e+04 2.040e-08
 55.71682     54.9 1.424e+04 1.972e-08
 55.73323     55.2 1.406e+04 1.782e-08
 55.75326     55.5 1.391e+04 1.640e-08
 55.77330     55.9 1.373e+04 1.472e-08
 55.79083     56.2 1.351e+04 1.256e-08
 55.80084     57.0 1.359e+04 1.328e-08
 55.80787     57.4 1.340e+04 1.134e-08
 55.81789     56.9 1.345e+04 1.218e-08
 55.83340     57.4 1.326e+04 1.022e-08
 55.85343     57.9 1.304e+04 8.432e-09
 55.87347     58.3 1.286e+04 7.684e-09
 55.90361     59.5 1.261e+04 7.672e-09
 55.94378     60.8 1.245e+04 8.371e-09
 55.96907     61.6 1.244e+04 1.036e-08
 55.98911     63.3 1.257e+04 1.135e-08
 56.02391     63.4 1.260e+04 1.345e-08
 56.05299     63.0 1.264e+04 1.471e-08
 56.06291     63.4 1.257e+04 1.436e-08
 56.07380     63.4 1.256e+04 1.445e-08
 56.09383     63.4 1.242e+04 1.376e-08
 56.11387     63.4 1.233e+04 1.314e-08
 56.13390     63.4 1.220e+04 1.092e-08
 56.14693     63.3 1.214e+04 9.689e-09
 56.15705     64.4 1.191e+04 8.885e-09
 56.18418     64.4 1.171e+04 5.991e-09
 56.21413     63.9 1.205e+04 7.614e-09
 56.23095     64.0 1.213e+04 8.088e-09
 56.24097     64.3 1.211e+04 8.139e-09
 56.25410     64.9 1.206e+04 7.458e-09
 56.27414     65.2 1.229e+04 9.077e-09
 56.29417     65.8 1.261e+04 1.207e-08
 56.31420     66.5 1.298e+04 1.653e-08
 56.32499     67.2 1.341e+04 2.307e-08
 56.33500     67.4 1.335e+04 2.243e-08
 56.35427     68.3 1.373e+04 2.967e-08
 56.37430     69.3 1.411e+04 3.720e-08
 56.39434     70.3 1.443e+04 4.392e-08
 56.40900     71.3 1.466e+04 4.916e-08
 56.41902     71.6 1.479e+04 5.355e-08
 56.43440     72.7 1.519e+04 6.203e-08
 56.45444     73.6 1.564e+04 7.134e-08
 56.47447     73.9 1.605e+04 8.300e-08
 56.49302     74.1 1.644e+04 9.630e-08
 56.50304     74.5 1.666e+04 1.100e-07
 56.51454     74.6 1.689e+04 1.177e-07
 56.53457     74.4 1.711e+04 1.191e-07
 56.55461     73.9 1.701e+04 1.079e-07
 56.57464     73.3 1.669e+04 8.638e-08
 56.58706     72.7 1.608e+04 6.173e-08
 56.59707     73.4 1.556e+04 4.521e-08
 56.61471     72.6 1.500e+04 3.424e-08
 56.63474     71.9 1.450e+04 2.707e-08
 56.65477     71.2 1.404e+04 2.199e-08
 56.67108     70.7 1.364e+04 1.883e-08
 56.68109     71.3 1.370e+04 1.980e-08
 56.69484     71.0 1.338e+04 1.811e-08
 56.71487     70.7 1.305e+04 1.555e-08
 56.73491     70.3 1.275e+04 1.277e-08
 56.75494     69.7 1.262e+04 1.058e-08
 56.76511     69.0 1.256e+04 9.250e-09
 56.77513     67.3 1.329e+04 1.550e-08
 56.79501     66.9 1.325e+04 1.530e-08
 56.81504     66.8 1.308e+04 1.489e-08
 56.83508     67.0 1.285e+04 1.405e-08
 56.84913     67.6 1.261e+04 1.294e-08
 56.85915     66.2 1.289e+04 1.601e-08
 56.87514     66.9 1.258e+04 1.344e-08
 56.89518     67.8 1.229e+04 1.151e-08
 56.91521     68.9 1.205e+04 1.017e-08
 56.93315     70.1 1.187e+04 9.405e-09
 56.94316     68.9 1.173e+04 9.032e-09
 56.95528     70.0 1.160e+04 8.382e-09
 56.97531     71.0 1.150e+04 7.943e-09
 56.99534     72.0 1.152e+04 7.773e-09
 57.01538     72.8 1.157e+04 7.940e-09
 57.02718     73.3 1.168e+04 8.468e-09
 57.03720     72.2 1.145e+04 7.326e-09
 57.05544     72.6 1.154e+04 8.153e-09
 57.07548     72.8 1.166e+04 9.501e-09
 57.09551     72.9 1.182e+04 1.124e-08
 57.11120     73.1 1.206e+04 1.273e-08
 57.12122     72.2 1.177e+04 1.124e-08
 57.13558     72.2 1.187e+04 1.139e-08
 57.15561     72.1 1.185e+04 1.112e-08
 57.17565     71.9 1.174e+04 1.008e-08
 57.19522     71.7 1.153e+04 8.454e-09
 57.20524     71.3 1.151e+04 8.404e-09
 57.21571     70.9 1.130e+04 7.010e-09
 57.23575     70.2 1.107e+04 5.986e-09
 57.25578     69.4 1.087e+04 5.756e-09
 57.27581     68.7 1.084e+04 5.797e-09
 57.28925     68.2 1.078e+04 6.014e-09
 57.29927     67.5 1.088e+04 6.526e-09
 57.31588     67.0 1.076e+04 6.819e-09
 57.33591     66.6 1.065e+04 6.961e-09
 57.35595     66.4 1.056e+04 6.938e-09
 57.37327     66.3 1.045e+04 6.784e-09
 57.38329     65.7 1.050e+04 7.225e-09
 57.39602     65.7 1.040e+04 6.755e-09
 57.41353     65.6 1.030e+04 6.272e-09
 57.42354     66.1 1.027e+04 5.896e-09
 57.43608     66.1 1.022e+04 5.552e-09
 57.45612     66.1 1.017e+04 5.285e-09
 57.46731     66.0 1.013e+04 5.112e-09
 57.47732     65.4 1.015e+04 5.233e-09
 57.49618     65.4 1.006e+04 5.276e-09
 57.51622     65.6 1.004e+04 5.312e-09
 57.53625     65.7 1.004e+04 5.363e-09
 57.55133     65.7 1.012e+04 5.497e-09
 57.56134     65.0 1.029e+04 6.082e-09
 57.57632     64.7 1.049e+04 6.454e-09
 57.59635     64.4 1.058e+04 6.617e-09
 57.61638     64.1 1.055e+04 6.536e-09
 57.63534     64.1 1.041e+04 6.066e-09
 57.64536     63.4 1.041e+04 6.175e-09
 57.65645     63.6 1.017e+04 4.959e-09
 57.67648     63.4 9.971e+03 3.756e-09
 57.70663     63.9 9.902e+03 3.078e-09
 57.72957     64.4 9.872e+03 2.866e-09
 57.74961     62.8 9.743e+03 2.472e-09
 57.78686     63.5 9.821e+03 2.484e-09
 57.82693     64.0 9.992e+03 2.596e-09
 57.85688     63.4 1.009e+04 2.699e-09
 57.87682     63.2 1.010e+04 2.808e-09
 57.89685     63.1 1.019e+04 3.406e-09
 57.90743     63.0 1.046e+04 4.401e-09
 57.91745     62.4 1.034e+04 3.628e-09
 57.93692     62.1 1.066e+04 4.612e-09
 57.95695     61.6 1.097e+04 5.664e-09
 57.97699     61.0 1.118e+04 6.732e-09
 57.99145     60.2 1.126e+04 7.699e-09
 58.00147     60.0 1.114e+04 7.217e-09
 58.01706     59.3 1.110e+04 7.478e-09
 58.03709     58.5 1.104e+04 7.391e-09
 58.05712     57.8 1.090e+04 7.021e-09
 58.07547     57.1 1.072e+04 6.325e-09
 58.08549     57.4 1.052e+04 5.497e-09
 58.10730     57.4 1.040e+04 4.756e-09
 58.14747     56.8 1.025e+04 4.738e-09
 58.18754     56.5 1.026e+04 5.143e-09
 58.22760     56.4 1.028e+04 5.603e-09
 58.25372     56.6 1.022e+04 5.368e-09
 58.27375     58.0 1.026e+04 5.691e-09
 58.30774     58.4 1.013e+04 5.117e-09
 58.34780     59.0 9.808e+03 3.604e-09
 58.38787     60.1 9.447e+03 2.091e-09
 58.42175     61.2 9.043e+03 1.212e-09
 58.44179     62.5 9.107e+03 1.584e-09
 58.46801     64.0 8.770e+03 1.376e-09
 58.50807     66.1 8.751e+03 1.399e-09
 58.54814     68.2 8.772e+03 1.575e-09
 58.58821     70.1 8.879e+03 1.930e-09
 58.60983     71.9 8.959e+03 2.276e-09
 58.62986     72.8 9.108e+03 2.733e-09
 58.66834     74.2 9.183e+03 2.759e-09
 58.70841     75.5 9.181e+03 2.725e-09
 58.73836     75.7 9.051e+03 2.603e-09
 58.75830     76.5 8.932e+03 2.547e-09
 58.77767     77.7 8.956e+03 2.624e-09
 58.78768     77.0 9.249e+03 2.972e-09
 58.79836     76.5 1.006e+04 4.480e-09
 58.81840     76.0 1.136e+04 9.251e-09
 58.83843     76.2 1.301e+04 2.240e-08
 58.85846     77.7 1.507e+04 5.212e-08
 58.87165     78.4 1.594e+04 7.703e-08
 58.87661     78.2 1.620e+04 8.945e-08
 58.88341     78.9 1.686e+04 1.135e-07
 58.89343     79.5 1.758e+04 1.454e-07
 58.90344     80.0 1.817e+04 1.785e-07
 58.91346     80.4 1.871e+04 2.027e-07
 58.91862     80.4 1.928e+04 2.242e-07
 58.92363     80.2 1.882e+04 2.113e-07
 58.93349     79.3 2.017e+04 2.538e-07
 58.94351     72.9 2.248e+04 5.955e-07
 58.95353     59.5 2.019e+04 3.046e-06
 58.96063     46.3 1.906e+04 6.174e-06
 58.96311     48.4 1.774e+04 1.094e-05
 58.96600     42.5 1.664e+04 1.913e-05
 58.97101     31.1 1.679e+04 2.273e-05
 58.97601     23.4 1.665e+04 1.846e-05
 58.98355      7.4 2.223e+04 3.366e-06
 58.99359    -13.3 2.729e+04 3.422e-07
 59.00264    -23.3 1.853e+04 1.737e-07
 59.00765    -24.2 1.822e+04 1.904e-07
 59.01868    -21.2 1.754e+04 1.263e-07
 59.02920    -19.8 1.644e+04 9.140e-08
 59.03922    -23.0 1.606e+04 8.795e-08
 59.04975    -21.0 1.505e+04 6.283e-08
 59.05977    -20.0 1.451e+04 5.077e-08
 59.07883    -18.8 1.355e+04 3.789e-08
 59.09887    -17.5 1.286e+04 3.153e-08
 59.11890    -16.2 1.246e+04 2.843e-08
 59.13377    -14.9 1.226e+04 2.688e-08
 59.14379    -14.5 1.176e+04 2.174e-08
 59.15897    -13.4 1.185e+04 2.417e-08
 59.17900    -12.3 1.206e+04 2.685e-08
 59.19903    -11.2 1.229e+04 2.892e-08
 59.21779    -10.2 1.245e+04 3.073e-08
 59.22781     -9.8 1.220e+04 2.996e-08
 59.23910     -8.8 1.261e+04 3.314e-08
 59.25913     -8.1 1.286e+04 3.487e-08
 59.27917     -8.0 1.315e+04 3.640e-08
 59.29920     -8.5 1.350e+04 3.875e-08
 59.31183     -9.2 1.362e+04 4.073e-08
 59.32184     -8.7 1.431e+04 5.280e-08
 59.33927     -9.5 1.421e+04 5.371e-08
 59.35930     -9.0 1.360e+04 4.519e-08
 59.37934     -8.4 1.268e+04 3.047e-08
 59.39585     -8.7 1.171e+04 1.955e-08
 59.40586     -7.7 1.202e+04 2.201e-08
 59.41940     -8.6 1.077e+04 1.259e-08
 59.43944     -9.7 9.812e+03 8.198e-09
 59.45947     -9.6 9.053e+03 5.553e-09
 59.47950     -9.9 8.975e+03 5.150e-09
 59.48988     -8.3 8.396e+03 3.828e-09
 59.49990     -8.2 8.386e+03 3.633e-09
 59.51957     -8.3 8.288e+03 3.076e-09
 59.54972     -8.2 7.966e+03 2.588e-09
 59.58988     -7.1 7.817e+03 2.460e-09
 59.62995     -5.8 7.983e+03 2.688e-09
 59.65811     -4.6 8.101e+03 2.924e-09
 59.67815     -4.0 8.009e+03 2.653e-09
 59.69997     -3.3 8.235e+03 3.027e-09
 59.71991     -2.8 8.430e+03 3.541e-09
 59.73994     -2.5 8.867e+03 4.641e-09
 59.75195     -1.9 9.165e+03 5.725e-09
 59.76197     -2.2 9.279e+03 5.956e-09
 59.78001     -2.0 9.881e+03 8.038e-09
 59.80004     -1.3 1.010e+04 8.980e-09
 59.82605     -1.3 1.042e+04 9.814e-09
 59.84608     -2.3 1.092e+04 1.305e-08
 59.86014     -2.0 1.116e+04 1.426e-08
 59.88017     -1.8 1.153e+04 1.619e-08
 59.90021     -1.7 1.196e+04 1.875e-08
 59.91999     -1.6 1.248e+04 2.340e-08
 59.93001     -2.9 1.294e+04 3.073e-08
 59.94028     -2.6 1.319e+04 3.588e-08
 59.96031     -1.8 1.339e+04 4.037e-08
 59.98034     -0.8 1.345e+04 4.272e-08
 60.00038      0.3 1.323e+04 4.031e-08
 60.01402      1.5 1.282e+04 3.522e-08
 60.02404     -0.1 1.189e+04 2.286e-08
 60.04044      0.1 1.142e+04 1.843e-08
 60.06048      0.1 1.102e+04 1.556e-08
 60.08051      0.1 1.095e+04 1.480e-08
 60.09804     -0.1 1.115e+04 1.598e-08
 60.10806     -2.8 1.107e+04 1.522e-08
 60.12058     -2.8 1.140e+04 1.832e-08
 60.14061     -2.7 1.179e+04 2.244e-08
 60.16064     -2.5 1.213e+04 2.654e-08
 60.18068     -2.1 1.237e+04 2.865e-08
 60.19208     -1.6 1.239e+04 2.740e-08
 60.20209     -3.8 1.203e+04 2.301e-08
 60.22075     -4.2 1.179e+04 2.088e-08
 60.24078     -4.9 1.146e+04 1.851e-08
 60.26081     -5.6 1.106e+04 1.606e-08
 60.27610     -5.7 1.068e+04 1.444e-08
 60.28611     -6.2 1.065e+04 1.556e-08
 60.30088     -6.0 1.052e+04 1.445e-08
 60.32091     -6.0 1.054e+04 1.372e-08
 60.34095     -6.1 1.060e+04 1.366e-08
 60.36011     -6.2 1.090e+04 1.381e-08
 60.37013     -6.7 1.083e+04 1.257e-08
 60.38101     -7.2 1.110e+04 1.267e-08
 60.40105     -7.7 1.125e+04 1.294e-08
 60.42108     -8.2 1.137e+04 1.327e-08
 60.44111     -8.6 1.145e+04 1.315e-08
 60.45415     -8.6 1.152e+04 1.307e-08
 60.46417     -8.3 1.153e+04 1.250e-08
 60.48118     -8.1 1.169e+04 1.165e-08
 60.50121     -7.9 1.190e+04 1.101e-08
 60.52125     -7.7 1.202e+04 1.036e-08
 60.53817     -7.0 1.216e+04 9.554e-09
 60.54818     -6.8 1.176e+04 7.820e-09
 60.56132     -5.9 1.190e+04 7.843e-09
 60.58135     -4.9 1.217e+04 8.040e-09
 60.60138     -3.8 1.237e+04 8.263e-09
 60.62142     -2.5 1.262e+04 8.729e-09
 60.63220     -1.3 1.290e+04 9.430e-09
 60.63563     -1.0 1.252e+04 7.714e-09
 60.64488     -1.0 1.267e+04 9.289e-09
 60.66148      0.2 1.277e+04 9.944e-09
 60.68152      1.3 1.280e+04 1.030e-08
 60.70155      2.7 1.274e+04 1.019e-08
 60.71622      4.1 1.263e+04 9.733e-09
 60.72624      4.7 1.256e+04 8.761e-09
 60.74162      6.1 1.252e+04 8.430e-09
 60.76165      7.4 1.242e+04 7.848e-09
 60.78168      9.0 1.224e+04 6.917e-09
 60.80024     10.7 1.210e+04 5.929e-09
 60.81026     11.2 1.223e+04 6.305e-09
 60.82175     12.8 1.223e+04 5.552e-09
 60.84178     14.3 1.223e+04 4.811e-09
 60.86182     16.0 1.217e+04 4.057e-09
 60.88185     17.8 1.210e+04 3.392e-09
 60.89427     19.5 1.207e+04 2.884e-09
 60.90429     20.1 1.227e+04 3.291e-09
 60.92192     21.7 1.232e+04 2.767e-09
 60.94195     23.1 1.227e+04 2.486e-09
 60.96199     24.8 1.217e+04 2.392e-09
 60.97829     26.6 1.211e+04 2.347e-09
 60.98831     27.3 1.237e+04 2.894e-09
 61.00205     29.0 1.238e+04 2.665e-09
 61.02209     30.5 1.238e+04 2.409e-09
 61.04212     32.0 1.216e+04 2.281e-09
 61.06215     33.5 1.207e+04 2.288e-09
 61.07233     34.8 1.207e+04 2.346e-09
 61.08234     34.9 1.290e+04 3.439e-09
 61.10222     36.2 1.290e+04 3.757e-09
 61.12225     37.6 1.290e+04 4.075e-09
 61.14229     39.1 1.292e+04 4.354e-09
 61.15635     40.5 1.288e+04 4.526e-09
 61.16636     41.0 1.365e+04 8.674e-09
 61.18236     42.4 1.364e+04 8.414e-09
 61.20239     43.8 1.358e+04 7.923e-09
 61.22242     45.1 1.346e+04 7.363e-09
 61.24036     46.4 1.331e+04 6.850e-09
 61.25038     46.5 1.446e+04 1.158e-08
 61.26249     47.8 1.438e+04 1.079e-08
 61.28252     49.1 1.436e+04 1.058e-08
 61.30256     50.4 1.441e+04 1.074e-08
 61.32259     51.8 1.453e+04 1.130e-08
 61.33440     53.2 1.480e+04 1.266e-08
 61.34442     52.6 1.566e+04 1.835e-08
 61.36266     53.5 1.611e+04 2.334e-08
 61.38269     54.2 1.656e+04 3.371e-08
 61.40272     55.1 1.693e+04 5.003e-08
 61.41842     55.8 1.726e+04 6.905e-08
 61.42843     55.1 1.739e+04 1.022e-07
 61.44279     55.6 1.768e+04 1.280e-07
 61.46282     55.9 1.755e+04 1.336e-07
 61.48286     56.5 1.750e+04 1.346e-07
 61.50244     56.9 1.755e+04 1.382e-07
 61.51245     56.3 1.737e+04 1.440e-07
 61.52293     56.6 1.749e+04 1.529e-07
 61.54296     56.9 1.775e+04 1.755e-07
 61.55441     56.9 1.808e+04 1.987e-07
 61.55937     57.0 1.767e+04 1.813e-07
 61.56790     57.0 1.773e+04 1.878e-07
 61.57792     57.0 1.788e+04 1.940e-07
 61.58794     56.8 1.803e+04 1.977e-07
 61.59637     56.4 1.800e+04 1.907e-07
 61.60644     56.9 1.721e+04 1.291e-07
 61.62309     57.1 1.731e+04 1.277e-07
 61.64313     57.4 1.750e+04 1.165e-07
 61.66316     57.6 1.770e+04 9.977e-08
 61.68049     57.8 1.779e+04 9.319e-08
 61.69051     58.7 1.777e+04 9.587e-08
 61.70323     59.1 1.808e+04 1.292e-07
 61.72326     59.4 1.839e+04 1.741e-07
 61.73824     59.4 1.861e+04 2.311e-07
 61.74821     59.5 1.881e+04 2.502e-07
 61.75822     59.3 1.884e+04 2.432e-07
 61.76824     58.9 1.873e+04 2.200e-07
 61.77443     58.4 1.849e+04 1.817e-07
 61.77944     58.7 1.889e+04 2.240e-07
 61.78827     58.0 1.851e+04 1.720e-07
 61.79829     57.4 1.805e+04 1.306e-07
 61.80831     56.5 1.749e+04 9.879e-08
 61.82338     55.9 1.710e+04 8.598e-08
 61.84346     55.0 1.578e+04 6.377e-08
 61.85854     55.1 1.503e+04 5.563e-08
 61.86856     55.4 1.412e+04 3.759e-08
 61.88353     55.8 1.370e+04 3.222e-08
 61.90356     56.7 1.354e+04 2.810e-08
 61.92360     57.5 1.348e+04 2.393e-08
 61.94256     58.1 1.350e+04 2.018e-08
 61.95258     58.3 1.314e+04 1.781e-08
 61.96366     58.6 1.318e+04 1.560e-08
 61.98370     58.6 1.312e+04 1.293e-08
 62.00373     58.3 1.294e+04 1.065e-08
 62.02376     58.0 1.268e+04 9.003e-09
 62.03660     57.9 1.247e+04 7.862e-09
 62.04661     57.9 1.239e+04 7.896e-09
 62.06383     58.0 1.228e+04 7.020e-09
 62.08386     58.2 1.217e+04 6.749e-09
 62.10390     58.6 1.215e+04 6.820e-09
 62.12061     59.2 1.212e+04 7.197e-09
 62.13063     59.0 1.207e+04 6.485e-09
 62.14397     59.5 1.208e+04 7.121e-09
 62.16400     59.8 1.216e+04 8.509e-09
 62.18403     59.9 1.234e+04 1.116e-08
 62.20407     59.8 1.261e+04 1.570e-08
 62.21465     59.8 1.295e+04 2.257e-08
 62.22467     59.2 1.262e+04 2.009e-08
 62.24052     59.0 1.293e+04 2.598e-08
 62.25053     58.1 1.291e+04 2.410e-08
 62.26417     57.4 1.294e+04 2.429e-08
 62.28420     56.4 1.284e+04 2.345e-08
 62.29867     55.3 1.243e+04 2.006e-08
 62.30868     54.2 1.193e+04 1.523e-08
 62.32427     53.3 1.137e+04 1.164e-08
 62.34430     52.6 1.079e+04 8.283e-09
 62.36433     52.0 1.032e+04 5.793e-09
 62.38269     51.6 9.994e+03 4.228e-09
 62.39270     50.9 9.935e+03 3.764e-09
 62.40440     50.7 9.713e+03 3.058e-09
 62.43455     51.3 9.411e+03 2.733e-09
 62.46690     53.0 9.192e+03 2.731e-09
 62.48684     52.7 9.169e+03 2.717e-09
 62.51468     54.2 9.124e+03 2.839e-09
 62.54473     55.8 9.134e+03 3.249e-09
 62.56074     57.1 9.182e+03 3.712e-09
 62.57076     56.7 9.210e+03 3.774e-09
 62.58470     58.0 9.285e+03 4.196e-09
 62.60474     59.0 9.407e+03 4.703e-09
 62.62477     60.0 9.547e+03 5.341e-09
 62.64476     61.0 9.713e+03 6.209e-09
 62.66479     61.4 1.006e+04 7.696e-09
 62.68487     62.2 1.034e+04 9.304e-09
 62.70490     62.9 1.065e+04 1.094e-08
 62.72494     63.3 1.089e+04 1.244e-08
 62.73879     63.3 1.101e+04 1.342e-08
 62.74881     62.5 1.131e+04 1.555e-08
 62.76501     62.3 1.127e+04 1.558e-08
 62.78504     62.1 1.112e+04 1.516e-08
 62.80507     61.9 1.087e+04 1.415e-08
 62.82281     61.7 1.050e+04 1.262e-08
 62.83283     61.4 1.027e+04 1.105e-08
 62.84514     61.2 9.748e+03 8.364e-09
 62.86517     60.9 9.288e+03 6.314e-09
 62.88521     60.1 8.913e+03 5.072e-09
 62.90524     59.4 8.677e+03 4.734e-09
 62.91685     58.9 8.666e+03 4.749e-09
 62.92686     58.5 8.404e+03 3.885e-09
 62.94531     58.2 8.407e+03 3.958e-09
 62.96534     58.0 8.418e+03 4.058e-09
 62.98537     57.6 8.415e+03 4.032e-09
 63.00086     57.4 8.393e+03 3.990e-09
 63.01098     57.5 8.201e+03 3.249e-09
 63.03565     57.0 8.102e+03 3.149e-09
 63.07572     56.5 8.015e+03 3.076e-09
 63.11579     56.3 8.027e+03 3.135e-09
 63.15585     56.5 8.118e+03 3.418e-09
 63.17902     56.6 8.235e+03 3.767e-09
 63.18894     56.6 8.278e+03 3.777e-09
 63.20574     56.7 8.461e+03 4.362e-09
 63.22578     56.9 8.615e+03 4.885e-09
 63.24581     57.2 8.742e+03 5.325e-09
 63.26294     57.6 8.872e+03 5.772e-09
 63.27295     57.5 9.009e+03 6.150e-09
 63.28588     57.9 9.170e+03 6.782e-09
 63.30591     58.2 9.345e+03 7.556e-09
 63.32594     58.6 9.488e+03 8.209e-09
 63.34598     59.1 9.582e+03 8.505e-09
 63.35697     59.5 9.611e+03 8.466e-09
 63.36699     59.5 9.768e+03 9.278e-09
 63.38605     59.9 9.810e+03 8.977e-09
 63.40608     60.2 9.828e+03 8.578e-09
 63.42611     60.5 9.836e+03 7.927e-09
 63.44099     60.6 9.805e+03 7.403e-09
 63.45101     60.5 1.022e+04 9.152e-09
 63.46618     60.7 1.015e+04 8.262e-09
 63.48621     60.8 1.003e+04 7.481e-09
 63.50625     61.0 9.847e+03 6.319e-09
 63.52501     61.1 9.663e+03 5.449e-09
 63.53503     61.1 1.000e+04 6.899e-09
 63.54631     61.4 9.767e+03 5.516e-09
 63.56635     61.6 9.572e+03 4.516e-09
 63.58638     61.8 9.419e+03 3.640e-09
 63.60641     61.8 9.386e+03 3.315e-09
 63.61904     62.1 9.396e+03 3.309e-09
 63.62906     61.8 9.672e+03 4.059e-09
 63.64648     61.9 9.767e+03 4.244e-09
 63.66651     62.1 9.974e+03 4.856e-09
 63.68655     62.2 1.021e+04 5.844e-09
 63.70306     62.5 1.043e+04 7.055e-09
 63.71308     62.2 1.078e+04 9.377e-09
 63.72662     62.7 1.095e+04 1.069e-08
 63.74665     63.2 1.111e+04 1.136e-08
 63.76668     63.7 1.122e+04 1.142e-08
 63.78672     64.3 1.120e+04 1.097e-08
 63.79710     64.8 1.117e+04 1.019e-08
 63.80711     64.7 1.118e+04 1.016e-08
 63.82678     65.2 1.111e+04 9.195e-09
 63.84618     65.7 1.103e+04 8.220e-09
 63.85619     66.5 1.112e+04 9.172e-09
 63.86685     67.0 1.107e+04 8.579e-09
 63.88112     67.6 1.105e+04 8.084e-09
 63.89113     67.8 1.107e+04 8.060e-09
 63.90692     68.4 1.110e+04 7.752e-09
 63.92695     69.0 1.120e+04 7.559e-09
 63.94698     69.6 1.130e+04 7.574e-09
 63.96513     70.0 1.144e+04 7.782e-09
 63.97515     70.1 1.155e+04 7.914e-09
 63.98705     70.4 1.177e+04 8.601e-09
 64.00709     70.6 1.199e+04 9.575e-09
 64.02712     70.7 1.218e+04 1.065e-08
 64.04715     70.7 1.237e+04 1.180e-08
 64.05917     70.5 1.259e+04 1.340e-08
 64.06919     70.7 1.272e+04 1.421e-08
 64.08722     70.3 1.296e+04 1.690e-08
 64.10725     69.5 1.332e+04 2.068e-08
 64.12729     68.4 1.378e+04 2.615e-08
 64.14319     66.9 1.424e+04 3.247e-08
 64.15320     67.2 1.375e+04 2.211e-08
 64.16735     65.4 1.390e+04 2.389e-08
 64.18739     63.4 1.390e+04 2.376e-08
 64.20742     61.3 1.380e+04 2.272e-08
 64.22721     59.5 1.357e+04 2.076e-08
 64.23722     60.3 1.332e+04 1.706e-08
 64.24749     58.6 1.317e+04 1.643e-08
 64.26752     57.5 1.295e+04 1.504e-08
 64.28755     56.7 1.281e+04 1.387e-08
 64.31770     56.9 1.255e+04 1.123e-08
 64.35787     56.7 1.218e+04 8.186e-09
 64.39544     57.1 1.178e+04 5.559e-09
 64.41547     58.7 1.168e+04 5.261e-09
 64.43800     59.1 1.143e+04 4.081e-09
 64.47807     60.0 1.118e+04 3.590e-09
 64.51814     61.7 1.112e+04 3.377e-09
 64.54809     62.7 1.115e+04 3.507e-09
 64.56802     63.4 1.112e+04 3.445e-09
 64.58331     64.1 1.107e+04 3.272e-09
 64.59333     64.4 1.124e+04 3.818e-09
 64.60809     65.2 1.115e+04 3.510e-09
 64.62813     66.0 1.102e+04 3.138e-09
 64.64816     66.8 1.087e+04 2.818e-09
 64.66733     67.5 1.072e+04 2.637e-09
 64.67735     67.8 1.089e+04 2.752e-09
 64.68823     68.4 1.078e+04 2.529e-09
 64.70826     68.8 1.076e+04 2.524e-09
 64.72829     69.2 1.081e+04 2.561e-09
 64.74833     69.2 1.099e+04 2.720e-09
 64.76137     69.0 1.125e+04 3.225e-09
 64.77138     68.5 1.143e+04 3.631e-09
 64.78839     68.2 1.148e+04 4.626e-09
 64.80843     68.2 1.154e+04 5.882e-09
 64.82846     68.2 1.162e+04 7.179e-09
 64.84538     68.2 1.157e+04 7.824e-09
 64.85540     67.4 1.154e+04 7.201e-09
 64.86853     67.3 1.152e+04 7.238e-09
 64.88856     67.3 1.147e+04 7.163e-09
 64.90859     67.3 1.137e+04 6.961e-09
 64.92863     67.4 1.125e+04 6.612e-09
 64.93942     67.6 1.116e+04 6.241e-09
 64.94944     66.9 1.122e+04 6.544e-09
 64.96870     67.2 1.119e+04 6.617e-09
 64.98873     67.6 1.118e+04 6.816e-09
 65.00876     68.0 1.122e+04 7.179e-09
 65.02344     68.5 1.125e+04 7.601e-09
 65.03345     68.3 1.138e+04 9.457e-09
 65.04883     68.9 1.134e+04 9.782e-09
 65.06886     69.5 1.126e+04 9.888e-09
 65.08890     70.1 1.117e+04 9.925e-09
 65.10746     70.8 1.110e+04 9.996e-09
 65.11747     70.7 1.124e+04 1.162e-08
 65.12896     71.4 1.119e+04 1.159e-08
 65.14900     72.2 1.117e+04 1.155e-08
 65.16903     72.9 1.114e+04 1.131e-08
 65.18906     73.7 1.110e+04 1.077e-08
 65.20149     74.4 1.102e+04 1.013e-08
 65.21151     74.3 1.105e+04 9.700e-09
 65.22913     74.9 1.101e+04 8.755e-09
 65.24917     75.5 1.105e+04 8.558e-09
 65.26920     76.0 1.110e+04 8.618e-09
 65.28551     76.4 1.127e+04 8.988e-09
 65.29553     76.0 1.123e+04 8.260e-09
 65.30927     76.3 1.141e+04 8.896e-09
 65.32930     76.5 1.159e+04 9.619e-09
 65.34933     76.4 1.172e+04 1.025e-08
 65.36937     76.2 1.183e+04 1.085e-08
 65.37954     75.8 1.194e+04 1.156e-08
 65.38956     75.9 1.161e+04 8.952e-09
 65.40943     75.5 1.167e+04 9.536e-09
 65.42947     74.9 1.182e+04 1.108e-08
 65.44950     74.3 1.214e+04 1.454e-08
 65.46185     73.6 1.272e+04 2.131e-08
 65.46590     73.5 1.228e+04 1.726e-08
 65.47358     74.1 1.211e+04 1.526e-08
 65.48957     73.7 1.290e+04 2.403e-08
 65.50960     73.4 1.372e+04 3.561e-08
 65.52963     72.7 1.433e+04 4.162e-08
 65.54758     71.4 1.440e+04 4.069e-08
 65.55760     72.0 1.411e+04 3.599e-08
 65.56970     70.8 1.399e+04 3.150e-08
 65.58974     69.4 1.349e+04 2.323e-08
 65.60977     67.8 1.270e+04 1.640e-08
 65.62980     66.7 1.188e+04 1.281e-08
 65.64162     66.7 1.140e+04 1.136e-08
 65.65163     67.3 1.156e+04 1.148e-08
 65.66987     67.5 1.164e+04 1.132e-08
 65.68990     67.9 1.188e+04 1.183e-08
 65.70994     68.3 1.249e+04 1.356e-08
 65.72563     68.6 1.338e+04 1.830e-08
 65.73565     67.8 1.433e+04 3.646e-08
 65.75000     68.9 1.566e+04 7.158e-08
 65.77004     70.1 1.676e+04 1.206e-07
 65.78501     69.5 1.780e+04 1.948e-07
 65.79498     69.3 1.834e+04 3.735e-07
 65.80500     69.9 1.844e+04 7.813e-07
 65.81456     72.2 1.798e+04 2.029e-06
 65.81957     72.5 1.792e+04 2.728e-06
 65.82250     73.9 1.770e+04 4.268e-06
 65.82749     74.6 1.726e+04 7.240e-06
 65.83250     74.4 1.658e+04 1.521e-05
 65.83750     73.8 1.501e+04 5.672e-05
 65.84053     72.3 1.170e+04 1.445e-03
 65.84303     68.9 1.338e+04 2.789e-04
 65.84752     64.4 1.300e+04 4.964e-04
 65.85253     58.6 1.370e+04 1.979e-04
 65.85754     53.6 1.620e+04 2.475e-05
 65.86153     50.9 1.749e+04 8.389e-06
 65.86656     50.5 1.859e+04 1.902e-06
 65.87512     50.3 1.945e+04 6.523e-07
 65.88513     48.8 2.001e+04 2.140e-07
 65.89515     47.2 1.821e+04 1.913e-07
 65.90359     47.3 1.782e+04 1.985e-07
 65.90860     48.1 1.730e+04 1.461e-07
 65.91518     48.8 1.690e+04 1.582e-07
 65.92520     49.5 1.670e+04 1.674e-07
 65.93522     50.1 1.669e+04 1.687e-07
 65.94523     50.5 1.666e+04 1.656e-07
 65.95061     50.7 1.664e+04 1.616e-07
 65.95562     50.9 1.631e+04 1.302e-07
 65.97032     51.4 1.632e+04 1.453e-07
 65.98771     52.5 1.619e+04 1.421e-07
 65.99772     53.4 1.573e+04 1.179e-07
 66.01044     54.5 1.574e+04 1.178e-07
 66.03047     55.3 1.564e+04 1.095e-07
 66.04545     55.7 1.552e+04 1.119e-07
 66.05542     56.0 1.532e+04 1.084e-07
 66.06543     56.3 1.514e+04 1.009e-07
 66.07545     56.6 1.509e+04 9.373e-08
 66.08164     56.7 1.512e+04 8.819e-08
 66.08665     56.9 1.525e+04 9.117e-08
 66.09548     57.1 1.523e+04 8.596e-08
 66.10550     57.4 1.529e+04 8.508e-08
 66.11552     57.8 1.542e+04 8.593e-08
 66.12365     57.8 1.573e+04 8.935e-08
 66.12866     57.8 1.585e+04 9.129e-08
 66.13555     57.7 1.608e+04 9.505e-08
 66.14557     57.6 1.621e+04 9.903e-08
 66.15559     57.7 1.636e+04 1.054e-07
 66.16560     57.8 1.660e+04 1.163e-07
 66.17067     57.8 1.692e+04 1.296e-07
 66.17568     57.8 1.699e+04 1.287e-07
 66.18564     57.7 1.738e+04 1.358e-07
 66.19565     57.4 1.754e+04 1.349e-07
 66.20567     57.1 1.762e+04 1.269e-07
 66.21268     57.1 1.741e+04 1.090e-07
 66.21769     56.9 1.724e+04 9.578e-08
 66.22570     56.7 1.652e+04 7.461e-08
 66.23572     56.4 1.545e+04 5.508e-08
 66.24574     55.5 1.397e+04 3.623e-08
 66.25469     54.8 1.315e+04 3.009e-08
 66.25975     54.6 1.309e+04 2.955e-08
 66.27088     54.4 1.182e+04 1.929e-08
 66.29091     53.5 1.076e+04 1.230e-08
 66.31094     52.0 9.897e+03 8.496e-09
 66.33098     50.8 9.320e+03 6.676e-09
 66.34381     50.0 8.976e+03 5.815e-09
 66.35383     50.0 8.861e+03 5.388e-09
 66.37104     49.5 8.685e+03 5.062e-09
 66.39108     49.0 8.548e+03 4.878e-09
 66.41111     48.3 8.422e+03 4.761e-09
 66.42783     47.2 8.263e+03 4.654e-09
 66.43785     47.1 8.288e+03 4.475e-09
 66.45118     45.8 8.252e+03 4.471e-09
 66.47121     44.0 8.350e+03 4.680e-09
 66.49124     39.7 9.198e+03 6.234e-09
 66.51128     32.7 1.167e+04 1.525e-08
 66.52187     27.2 1.375e+04 3.665e-08
 66.53188     27.6 1.400e+04 3.619e-08
 66.55135     23.7 1.484e+04 4.671e-08
 66.57138     20.5 1.463e+04 3.968e-08
 66.59141     17.0 1.361e+04 2.203e-08
 66.60588     12.5 1.156e+04 1.169e-08
 66.61590     14.1 1.168e+04 1.095e-08
 66.63148     10.9 1.015e+04 8.339e-09
 66.65151     10.7 1.011e+04 8.456e-09
 66.67155     10.7 1.039e+04 9.583e-09
 66.68990     11.0 1.059e+04 1.061e-08
 66.69992     11.7 1.030e+04 8.708e-09
 66.72173     13.2 1.050e+04 1.065e-08
 66.76189     15.1 1.077e+04 1.284e-08
 66.80196     16.8 1.085e+04 1.261e-08
 66.84203     18.5 1.072e+04 1.057e-08
 66.86815     20.1 1.043e+04 8.016e-09
 66.88819     21.0 1.043e+04 8.153e-09
 66.92216     22.5 1.016e+04 6.061e-09
 66.96223     24.1 9.944e+03 4.680e-09
 67.00230     25.8 9.896e+03 3.772e-09
 67.03619     28.1 9.933e+03 3.797e-09
 67.05622     28.1 9.888e+03 3.686e-09
 67.06761     29.6 9.812e+03 3.425e-09
 67.08764     30.9 9.724e+03 3.030e-09
 67.11238     31.8 9.787e+03 2.854e-09
 67.13003     32.1 1.002e+04 3.029e-09
 67.14005     31.4 1.027e+04 3.825e-09
 67.15235     31.5 1.065e+04 4.706e-09
 67.17239     31.6 1.097e+04 5.944e-09
 67.19242     31.7 1.122e+04 7.288e-09
 67.21245     31.9 1.137e+04 8.348e-09
 67.22406     32.1 1.137e+04 8.580e-09
 67.23408     31.6 1.133e+04 8.566e-09
 67.25252     31.9 1.132e+04 8.084e-09
 67.27255     32.2 1.130e+04 7.193e-09
 67.29259     32.4 1.126e+04 6.251e-09
 67.30808     32.8 1.126e+04 5.595e-09
 67.31810     32.7 1.133e+04 5.636e-09
 67.33265     33.3 1.136e+04 5.607e-09
 67.35269     34.0 1.142e+04 5.717e-09
 67.37272     34.7 1.162e+04 6.229e-09
 67.39210     35.5 1.191e+04 7.460e-09
 67.40212     35.7 1.200e+04 8.538e-09
 67.41279     36.5 1.229e+04 1.052e-08
 67.43282     37.4 1.263e+04 1.330e-08
 67.45286     38.4 1.301e+04 1.683e-08
 67.47289     39.3 1.338e+04 2.098e-08
 67.48614     40.3 1.372e+04 2.572e-08
 67.49615     40.7 1.377e+04 2.695e-08
 67.51296     41.6 1.404e+04 3.209e-08
 67.53299     42.6 1.433e+04 3.736e-08
 67.55302     43.4 1.465e+04 4.301e-08
 67.57015     44.1 1.494e+04 4.799e-08
 67.58017     44.5 1.480e+04 4.792e-08
 67.59309     45.0 1.506e+04 5.150e-08
 67.61312     45.4 1.526e+04 5.310e-08
 67.63316     45.8 1.537e+04 5.287e-08
 67.65319     46.3 1.546e+04 5.114e-08
 67.66419     46.9 1.551e+04 4.965e-08
 67.67421     46.8 1.528e+04 4.672e-08
 67.69326     47.3 1.541e+04 4.724e-08
 67.71329     47.9 1.550e+04 4.886e-08
 67.73332     48.3 1.558e+04 5.157e-08
 67.74821     48.2 1.563e+04 5.394e-08
 67.75822     48.0 1.525e+04 3.909e-08
 67.77339     47.8 1.534e+04 4.069e-08
 67.79343     47.2 1.567e+04 4.549e-08
 67.81346     45.1 1.678e+04 6.715e-08
 67.82844     42.9 1.764e+04 9.027e-08
 67.83714     42.1 1.797e+04 1.013e-07
 67.84219     43.5 1.713e+04 6.284e-08
 67.84847     40.2 1.843e+04 1.218e-07
 67.85844     39.1 1.857e+04 1.601e-07
 67.86845     37.6 1.891e+04 2.119e-07
 67.87525     36.1 1.922e+04 2.631e-07
 67.88026     37.5 1.898e+04 2.263e-07
 67.88415     36.0 1.921e+04 2.801e-07
 67.88916     37.0 1.882e+04 2.510e-07
 67.89850     35.9 1.895e+04 3.083e-07
 67.90852     35.0 1.894e+04 3.360e-07
 67.91854     34.1 1.898e+04 3.149e-07
 67.92616     33.2 1.897e+04 2.428e-07
 67.93117     34.1 1.907e+04 3.812e-07
 67.93857     33.1 1.910e+04 2.723e-07
 67.94859     32.1 1.895e+04 1.714e-07
 67.95860     31.0 1.868e+04 1.025e-07
 67.96817     30.0 1.826e+04 8.384e-08
 67.97318     30.0 1.871e+04 1.185e-07
 67.97864     28.7 1.835e+04 9.239e-08
 67.99371     24.8 1.686e+04 5.281e-08
 68.01028     22.4 1.609e+04 5.194e-08
 68.02030     22.1 1.702e+04 9.488e-08
 68.03383     21.1 1.643e+04 8.627e-08
 68.05386     21.2 1.595e+04 7.177e-08
 68.07389     21.4 1.547e+04 5.716e-08
 68.09393     21.6 1.507e+04 4.552e-08
 68.10431     21.7 1.471e+04 3.873e-08
 68.11433     21.5 1.407e+04 3.121e-08
 68.13400     21.6 1.361e+04 2.444e-08
 68.15403     21.9 1.320e+04 2.049e-08
 68.17406     22.5 1.314e+04 1.970e-08
 68.18833     22.6 1.320e+04 2.018e-08
 68.19835     22.4 1.234e+04 1.123e-08
 68.21413     22.3 1.259e+04 1.412e-08
 68.23416     22.3 1.296e+04 2.034e-08
 68.25420     22.5 1.350e+04 2.991e-08
 68.27235     22.6 1.386e+04 3.419e-08
 68.28237     23.3 1.329e+04 2.629e-08
 68.29426     23.4 1.329e+04 2.553e-08
 68.31430     23.5 1.306e+04 2.044e-08
 68.33433     23.3 1.272e+04 1.374e-08
 68.35436     22.5 1.237e+04 8.974e-09
 68.36639     22.0 1.212e+04 7.363e-09
 68.37640     22.8 1.217e+04 7.359e-09
 68.39443     22.3 1.217e+04 6.944e-09
 68.41447     22.1 1.216e+04 7.052e-09
 68.43450     21.8 1.221e+04 7.828e-09
 68.45040     21.4 1.237e+04 9.170e-09
 68.46042     22.2 1.238e+04 1.024e-08
 68.47457     21.7 1.260e+04 1.208e-08
 68.49460     21.1 1.267e+04 1.193e-08
 68.51463     20.5 1.263e+04 1.074e-08
 68.53442     19.5 1.245e+04 8.966e-09
 68.54444     20.2 1.263e+04 1.118e-08
 68.55470     19.2 1.232e+04 8.670e-09
 68.57473     17.9 1.194e+04 7.075e-09
 68.60488     17.8 1.167e+04 6.505e-09
 68.62865     18.6 1.119e+04 4.974e-09
 68.64869     19.6 1.118e+04 5.372e-09
 68.68511     20.6 1.087e+04 4.044e-09
 68.72518     22.3 1.067e+04 3.442e-09
 68.76525     24.1 1.066e+04 3.215e-09
 68.79669     26.0 1.067e+04 3.155e-09
 68.81672     27.0 1.046e+04 2.824e-09
 68.84538     29.2 1.039e+04 2.598e-09
 68.88545     31.6 1.027e+04 2.279e-09
 68.92552     34.1 1.021e+04 2.064e-09
 68.96473     36.6 1.026e+04 2.097e-09
 68.98476     37.6 1.019e+04 1.875e-09
 69.00565     40.1 1.030e+04 2.027e-09
 69.04572     42.2 1.044e+04 2.389e-09
 69.06868     43.0 1.056e+04 2.919e-09
 69.07860     43.5 1.049e+04 2.761e-09
 69.09561     44.6 1.064e+04 3.448e-09
 69.11564     45.8 1.086e+04 4.430e-09
 69.13567     47.0 1.109e+04 5.455e-09
 69.15260     48.1 1.129e+04 6.091e-09
 69.16262     48.6 1.134e+04 7.027e-09
 69.17574     49.4 1.154e+04 7.654e-09
 69.19577     50.1 1.165e+04 7.741e-09
 69.21581     50.6 1.166e+04 7.621e-09
 69.23584     51.1 1.167e+04 7.257e-09
 69.24664     51.6 1.171e+04 6.982e-09
 69.25665     51.7 1.206e+04 9.544e-09
 69.27591     52.1 1.213e+04 9.161e-09
 69.29594     52.5 1.220e+04 9.124e-09
 69.31597     52.7 1.242e+04 9.470e-09
 69.33065     52.9 1.277e+04 1.060e-08
 69.34067     52.5 1.340e+04 1.529e-08
 69.35604     52.6 1.397e+04 2.007e-08
 69.37608     52.7 1.466e+04 2.972e-08
 69.39611     52.8 1.541e+04 4.729e-08
 69.41467     53.2 1.628e+04 8.643e-08
 69.42469     53.3 1.633e+04 1.066e-07
 69.43618     54.1 1.711e+04 1.637e-07
 69.45115     54.6 1.760e+04 2.024e-07
 69.46112     54.8 1.796e+04 2.459e-07
 69.46660     55.1 1.828e+04 3.233e-07
 69.47161     54.8 1.822e+04 3.238e-07
 69.48091     55.0 1.854e+04 4.338e-07
 69.48591     54.0 1.818e+04 2.572e-07
 69.49117     53.9 1.832e+04 2.302e-07
 69.50119     53.7 1.850e+04 1.839e-07
 69.50861     53.2 1.876e+04 1.257e-07
 69.51868     52.3 1.862e+04 9.815e-08
 69.53634     48.7 1.816e+04 4.540e-08
 69.55638     45.0 1.635e+04 3.179e-08
 69.57641     43.5 1.518e+04 2.771e-08
 69.59273     43.5 1.465e+04 2.305e-08
 69.60274     42.5 1.381e+04 1.339e-08
 69.61648     42.5 1.358e+04 1.117e-08
 69.63651     42.6 1.342e+04 1.055e-08
 69.65655     43.0 1.337e+04 1.100e-08
 69.67658     43.5 1.337e+04 1.291e-08
 69.68676     44.0 1.355e+04 1.678e-08
 69.69678     43.2 1.354e+04 1.669e-08
 69.71665     43.4 1.397e+04 2.360e-08
 69.73668     43.5 1.445e+04 3.556e-08
 69.75671     43.6 1.488e+04 5.018e-08
 69.77078     43.6 1.518e+04 6.169e-08
 69.78080     42.5 1.501e+04 5.781e-08
 69.79678     42.2 1.493e+04 5.573e-08
 69.81681     41.7 1.491e+04 5.203e-08
 69.83685     40.7 1.496e+04 5.152e-08
 69.85480     39.4 1.508e+04 5.191e-08
 69.86481     38.5 1.447e+04 3.943e-08
 69.87691     37.3 1.444e+04 3.883e-08
 69.89695     36.9 1.416e+04 3.423e-08
 69.91698     36.8 1.375e+04 2.372e-08
 69.93701     36.3 1.346e+04 1.380e-08
 69.94883     34.7 1.333e+04 9.219e-09
 69.95885     34.6 1.319e+04 8.531e-09
 69.97708     33.0 1.321e+04 8.464e-09
 69.99712     30.6 1.344e+04 1.059e-08
 70.01715     27.8 1.398e+04 1.912e-08
 70.03285     25.5 1.451e+04 3.269e-08
 70.04287     24.6 1.453e+04 3.175e-08
 70.05722     22.6 1.466e+04 3.972e-08
 70.07725     20.8 1.448e+04 3.608e-08
 70.09728     19.0 1.399e+04 2.633e-08
 70.11687     17.2 1.339e+04 1.757e-08
 70.12689     16.4 1.330e+04 1.589e-08
 70.13735     14.8 1.270e+04 1.059e-08
 70.15738     14.3 1.227e+04 7.917e-09
 70.17742     14.3 1.196e+04 6.138e-09
 70.19745     14.8 1.173e+04 4.600e-09
 70.21090     15.2 1.161e+04 3.382e-09
 70.22092     14.6 1.164e+04 3.195e-09
 70.23752     14.8 1.158e+04 2.548e-09
 70.25755     15.0 1.130e+04 2.288e-09
 70.27759     15.6 1.103e+04 2.308e-09
 70.28884     16.1 1.107e+04 2.376e-09
 70.29616     16.6 1.140e+04 3.260e-09
 70.30494     15.9 1.155e+04 3.563e-09
 70.31765     16.2 1.153e+04 4.322e-09
 70.33769     16.6 1.153e+04 5.547e-09
 70.35772     16.9 1.159e+04 7.213e-09
 70.37775     17.2 1.172e+04 9.492e-09
 70.38896     17.6 1.195e+04 1.164e-08
 70.39897     17.1 1.189e+04 9.704e-09
 70.41782     16.9 1.208e+04 1.056e-08
 70.43785     16.4 1.233e+04 1.180e-08
 70.45789     15.5 1.260e+04 1.370e-08
 70.47298     14.4 1.290e+04 1.577e-08
 70.48299     14.0 1.270e+04 1.377e-08
 70.49795     12.6 1.307e+04 1.528e-08
 70.51799     10.5 1.352e+04 1.725e-08
 70.53802      8.1 1.381e+04 1.987e-08
 70.55699      6.2 1.362e+04 1.918e-08
 70.56701      6.0 1.327e+04 1.427e-08
 70.57809      4.4 1.285e+04 1.263e-08
 70.60824      3.6 1.199e+04 8.359e-09
 70.64840      3.0 1.120e+04 4.711e-09
 70.68847      2.5 1.068e+04 3.046e-09
 70.72523      2.7 1.044e+04 2.751e-09
 70.74526      3.2 1.058e+04 2.108e-09
 70.76860      3.9 1.045e+04 2.048e-09
 70.80867      4.8 1.048e+04 2.057e-09
 70.84874      5.6 1.061e+04 2.363e-09
 70.88880      5.7 1.079e+04 2.980e-09
 70.91320      5.6 1.085e+04 3.601e-09
 70.92312      5.8 1.096e+04 3.528e-09
 70.93869      5.7 1.098e+04 4.141e-09
 70.95873      5.6 1.103e+04 4.766e-09
 70.97876      5.5 1.108e+04 5.130e-09
 70.99712      5.4 1.112e+04 5.320e-09
 71.00714      5.6 1.118e+04 4.905e-09
 71.01883      5.6 1.126e+04 4.871e-09
 71.03886      5.6 1.140e+04 4.801e-09
 71.05889      5.7 1.154e+04 4.878e-09
 71.07893      5.6 1.169e+04 5.267e-09
 71.09116      5.4 1.185e+04 6.536e-09
 71.10117      5.6 1.177e+04 6.160e-09
 71.11899      5.3 1.207e+04 8.266e-09
 71.13903      4.9 1.247e+04 1.207e-08
 71.15906      4.4 1.296e+04 1.888e-08
 71.17517      4.3 1.352e+04 2.846e-08
 71.18519      4.4 1.323e+04 2.593e-08
 71.19913      4.3 1.360e+04 3.261e-08
 71.21916      3.1 1.489e+04 4.234e-08
 71.23414     -0.3 1.745e+04 6.403e-08
 71.24411    -10.3 2.156e+04 1.846e-07
 71.25412    -13.7 1.835e+04 7.772e-07
 71.26410    -13.1 1.742e+04 1.359e-06
 71.27412     -9.7 1.727e+04 8.378e-07
 71.28417     -8.1 1.750e+04 5.019e-07
 71.29925     -8.6 1.724e+04 1.722e-07
 71.31933    -12.7 1.777e+04 3.519e-08
 71.33936    -24.5 1.596e+04 1.120e-08
 71.35323    -34.1 1.319e+04 1.484e-08
 71.36324    -33.6 1.318e+04 1.579e-08
 71.37943    -37.1 1.266e+04 2.831e-08
 71.39946    -36.9 1.330e+04 3.879e-08
 71.41950    -38.0 1.286e+04 2.797e-08
 71.43725    -41.8 1.132e+04 9.155e-09
 71.44726    -40.7 1.135e+04 9.932e-09
 71.45956    -48.3 9.347e+03 3.608e-09
 71.47960    -51.4 8.583e+03 2.801e-09
 71.49963    -52.4 8.518e+03 2.799e-09
 71.51966    -53.4 8.822e+03 3.230e-09
 71.53128    -54.2 9.402e+03 3.983e-09
 71.54130    -52.9 9.069e+03 3.276e-09
 71.55973    -53.8 9.679e+03 4.063e-09
 71.57977    -54.7 1.029e+04 5.632e-09
 71.59980    -55.4 1.075e+04 8.368e-09
 71.61530    -55.6 1.110e+04 1.214e-08
 71.62532    -54.6 1.075e+04 9.104e-09
 71.63987    -54.5 1.103e+04 1.249e-08
 71.65990    -54.2 1.121e+04 1.484e-08
 71.67993    -54.0 1.131e+04 1.553e-08
 71.69932    -54.1 1.123e+04 1.560e-08
 71.70933    -52.8 1.113e+04 1.409e-08
 71.72000    -53.0 1.094e+04 1.354e-08
 71.74003    -53.4 1.084e+04 1.186e-08
 71.76007    -54.1 1.068e+04 1.002e-08
 71.78010    -55.1 1.040e+04 8.296e-09
 71.79335    -56.3 1.029e+04 7.174e-09
 71.80337    -54.3 1.045e+04 8.027e-09
 71.82017    -55.3 1.050e+04 7.483e-09
 71.84020    -56.8 1.037e+04 6.946e-09
 71.86024    -58.6 1.044e+04 7.533e-09
 71.87737    -59.5 1.046e+04 9.820e-09
 71.88739    -58.1 1.046e+04 8.864e-09
 71.89450    -58.3 1.074e+04 1.203e-08
 71.90452    -58.6 1.107e+04 1.433e-08
 71.92034    -58.4 1.124e+04 1.450e-08
 71.94037    -58.0 1.122e+04 1.274e-08
 71.96040    -57.8 1.099e+04 8.975e-09
 71.97141    -58.2 1.074e+04 6.063e-09
 71.98142    -56.9 1.087e+04 7.062e-09
 72.00047    -57.4 1.060e+04 5.106e-09
 72.02050    -57.6 1.057e+04 4.300e-09
 72.04054    -57.6 1.060e+04 4.052e-09
 72.05542    -57.7 1.083e+04 4.232e-09
 72.06544    -56.2 1.059e+04 3.775e-09
 72.08060    -56.2 1.084e+04 3.947e-09
 72.10064    -56.4 1.110e+04 4.605e-09
 72.12067    -56.7 1.139e+04 5.941e-09
 72.13944    -57.1 1.175e+04 8.043e-09
 72.14946    -55.2 1.150e+04 5.922e-09
 72.16074    -55.9 1.190e+04 8.566e-09
 72.18077    -56.6 1.237e+04 1.217e-08
 72.20081    -57.4 1.292e+04 1.473e-08
 72.22084    -58.5 1.317e+04 1.496e-08
 72.23348    -60.2 1.329e+04 1.100e-08
 72.24349    -58.2 1.366e+04 1.644e-08
 72.26091    -60.5 1.326e+04 8.994e-09
 72.28094    -63.2 1.225e+04 5.610e-09
 72.30097    -64.1 1.206e+04 5.063e-09
 72.31750    -64.2 1.205e+04 5.042e-09
 72.32751    -63.6 1.210e+04 4.368e-09
 72.34104    -63.6 1.219e+04 4.457e-09
 72.36107    -63.6 1.235e+04 5.113e-09
 72.38111    -63.5 1.240e+04 6.145e-09
 72.40114    -63.1 1.250e+04 7.235e-09
 72.41153    -62.6 1.256e+04 8.232e-09
 72.42155    -62.0 1.260e+04 7.113e-09
 72.44121    -61.5 1.265e+04 8.121e-09
 72.46124    -60.9 1.265e+04 8.690e-09
 72.48128    -60.4 1.266e+04 8.828e-09
 72.49555    -59.9 1.264e+04 8.793e-09
 72.50557    -59.2 1.268e+04 8.581e-09
 72.52134    -58.6 1.267e+04 8.675e-09
 72.54138    -57.9 1.265e+04 8.202e-09
 72.56141    -57.2 1.258e+04 7.587e-09
 72.57957    -56.5 1.248e+04 6.671e-09
 72.58958    -56.1 1.263e+04 7.308e-09
 72.60148    -55.4 1.256e+04 6.461e-09
 72.62151    -54.7 1.251e+04 5.574e-09
 72.64154    -54.0 1.252e+04 4.664e-09
 72.66158    -53.4 1.253e+04 3.915e-09
 72.67360    -52.8 1.252e+04 3.406e-09
 72.68362    -52.5 1.267e+04 4.181e-09
 72.70164    -52.0 1.261e+04 3.711e-09
 72.73179    -51.1 1.256e+04 3.444e-09
 72.77196    -50.3 1.251e+04 2.142e-09
 72.81202    -50.1 1.249e+04 1.293e-09
 72.84183    -49.8 1.245e+04 1.107e-09
 72.86187    -49.6 1.235e+04 1.959e-09
 72.89216    -48.9 1.233e+04 1.964e-09
 72.93223    -48.2 1.236e+04 2.581e-09
 72.97229    -47.4 1.232e+04 4.531e-09
 73.00987    -46.2 1.241e+04 7.112e-09
 73.02990    -45.1 1.243e+04 8.542e-09
 73.05243    -44.0 1.252e+04 9.924e-09
 73.09249    -43.2 1.223e+04 9.304e-09
 73.13256    -42.5 1.162e+04 6.663e-09
 73.17263    -42.0 1.104e+04 4.776e-09
 73.19794    -41.7 1.058e+04 4.069e-09
 73.21797    -40.1 1.055e+04 3.848e-09
 73.25276    -39.8 1.035e+04 3.729e-09
 73.29283    -39.7 1.017e+04 4.048e-09
 73.33290    -40.3 1.013e+04 5.163e-09
 73.36598    -41.2 1.015e+04 6.360e-09
 73.38601    -39.6 1.020e+04 7.044e-09
 73.41303    -40.5 1.017e+04 7.372e-09
 73.44298    -41.5 9.950e+03 7.593e-09
 73.45982    -41.7 9.606e+03 6.833e-09
 73.46983    -40.9 9.362e+03 5.662e-09
 73.48295    -41.1 8.931e+03 4.460e-09
 73.50016    -41.2 8.696e+03 3.679e-09
 73.51017    -41.1 8.821e+03 3.887e-09
 73.52302    -41.2 8.604e+03 3.249e-09
 73.54305    -41.2 8.501e+03 2.989e-09
 73.55385    -41.0 8.471e+03 2.888e-09
 73.57398    -40.4 8.214e+03 2.215e-09
 73.61337    -39.5 8.246e+03 2.332e-09
 73.63797    -38.6 8.288e+03 2.729e-09
 73.64789    -38.4 8.117e+03 2.354e-09
 73.66325    -38.2 8.207e+03 2.598e-09
 73.68329    -37.4 8.426e+03 3.261e-09
 73.70332    -37.1 8.625e+03 3.897e-09
 73.72189    -36.5 8.869e+03 5.072e-09
 73.74202    -35.3 8.274e+03 2.891e-09
 73.76352    -33.9 8.437e+03 3.803e-09
 73.78346    -33.5 8.442e+03 4.051e-09
 73.81360    -32.1 8.461e+03 4.506e-09
 73.85377    -30.1 8.278e+03 4.259e-09
 73.89012    -28.0 7.964e+03 3.473e-09
 73.91015    -27.0 7.596e+03 2.803e-09
 73.93390    -24.9 7.445e+03 2.548e-09
 73.97397    -22.7 7.305e+03 2.152e-09
 74.01404    -20.7 7.210e+03 2.014e-09
 74.05410    -18.5 7.187e+03 2.068e-09
 74.07819    -16.7 7.354e+03 2.607e-09
 74.09823    -15.0 7.125e+03 2.273e-09
 74.13424    -13.0 7.460e+03 3.049e-09
 74.17430    -11.2 7.867e+03 4.371e-09
 74.21437     -9.5 8.413e+03 5.965e-09
 74.24623     -8.0 8.921e+03 7.993e-09
 74.26626     -6.6 8.754e+03 7.195e-09
 74.29451     -5.1 9.519e+03 1.099e-08
 74.33457     -3.1 1.018e+04 1.349e-08
 74.37464     -2.0 1.027e+04 9.676e-09
 74.41426     -2.2 8.910e+03 5.298e-09
 74.43420     -0.2 1.000e+04 9.636e-09
 74.44456     -1.1 8.727e+03 6.679e-09
 74.46460     -1.0 8.322e+03 5.677e-09
 74.48463     -0.2 8.175e+03 5.283e-09
 74.50466      0.3 8.089e+03 5.043e-09
 74.51812      1.2 8.144e+03 4.942e-09
 74.52814      1.6 8.081e+03 4.692e-09
 74.54473      1.9 8.082e+03 4.703e-09
 74.57488      3.1 8.280e+03 5.039e-09
 74.60234      4.2 8.483e+03 5.081e-09
 74.61225      4.5 8.485e+03 5.296e-09
 74.62486      4.5 8.678e+03 6.193e-09
 74.64490      5.0 9.143e+03 7.999e-09
 74.66493      5.3 9.932e+03 9.762e-09
 74.68497      6.0 1.091e+04 1.262e-08
 74.69617      6.5 1.207e+04 1.648e-08
 74.70619      5.8 1.342e+04 3.290e-08
 74.72503      6.2 1.439e+04 4.659e-08
 74.74507      6.4 1.540e+04 6.993e-08
 74.76510      5.6 1.696e+04 1.206e-07
 74.78008      3.8 1.795e+04 2.064e-07
 74.78510      1.6 1.840e+04 3.477e-07
 74.79011      2.3 1.850e+04 3.674e-07
 74.80006      1.1 1.849e+04 6.656e-07
 74.81008      0.7 1.827e+04 1.006e-06
 74.82009      0.8 1.815e+04 1.009e-06
 74.82711      1.7 1.869e+04 6.098e-07
 74.83212      1.8 1.943e+04 3.123e-07
 74.84013     -0.2 1.967e+04 1.440e-07
 74.85014     -3.9 1.765e+04 7.278e-08
 74.86416     -6.9 1.571e+04 4.603e-08
 74.87423     -7.0 1.528e+04 3.267e-08
 74.88530     -9.5 1.321e+04 1.589e-08
 74.90533    -10.1 1.243e+04 1.225e-08
 74.92537     -9.9 1.208e+04 1.146e-08
 74.94540     -9.7 1.169e+04 1.167e-08
 74.95825     -9.4 1.162e+04 1.335e-08
 74.96826     -9.0 1.189e+04 1.275e-08
 74.98547     -8.5 1.191e+04 1.622e-08
 75.00550     -7.7 1.229e+04 2.053e-08
 75.02554     -6.9 1.282e+04 2.598e-08
 75.04226     -6.2 1.333e+04 3.157e-08
 75.05228     -5.7 1.335e+04 3.556e-08
 75.06560     -5.0 1.397e+04 4.627e-08
 75.08564     -4.5 1.457e+04 5.794e-08
 75.10567     -4.6 1.506e+04 6.942e-08
 75.11583     -5.0 1.559e+04 8.529e-08
 75.12585     -4.9 1.629e+04 1.071e-07
 75.13630     -5.7 1.683e+04 1.412e-07
 75.14632     -5.6 1.659e+04 1.227e-07
 75.16577     -6.2 1.696e+04 1.493e-07
 75.18580     -6.5 1.715e+04 1.565e-07
 75.20584     -6.9 1.704e+04 1.252e-07
 75.22032     -7.9 1.652e+04 8.267e-08
 75.23034     -7.8 1.633e+04 6.744e-08
 75.24590     -9.0 1.581e+04 4.741e-08
 75.26594     -9.8 1.522e+04 3.768e-08
 75.28597     -9.9 1.489e+04 2.905e-08
 75.30434     -9.9 1.475e+04 1.797e-08
 75.31435     -9.2 1.474e+04 2.590e-08
 75.32604     -9.3 1.475e+04 1.440e-08
 75.34607    -10.1 1.430e+04 9.731e-09
 75.37622     -9.4 1.404e+04 9.307e-09
 75.41638     -7.9 1.381e+04 7.304e-09
 75.45645     -6.5 1.370e+04 5.413e-09
 75.48259     -5.4 1.356e+04 3.835e-09
 75.50262     -4.5 1.362e+04 6.943e-09
 75.53659     -3.4 1.349e+04 6.085e-09
 75.57665     -2.4 1.338e+04 4.912e-09
 75.61672     -1.4 1.325e+04 4.114e-09
 75.65062     -0.3 1.323e+04 3.226e-09
 75.67066     -0.5 1.335e+04 4.326e-09
 75.69685      0.6 1.325e+04 3.483e-09
 75.73692      1.7 1.319e+04 3.169e-09
 75.77699      2.9 1.312e+04 3.246e-09
 75.81706      3.5 1.319e+04 3.276e-09
 75.83869      2.7 1.342e+04 3.691e-09
 75.85873      3.2 1.307e+04 2.301e-09
 75.89719      0.6 1.424e+04 2.820e-09
 75.92261     -1.0 1.419e+04 5.673e-09
 75.93253     -1.6 1.444e+04 3.518e-09
 75.94708     -3.9 1.448e+04 8.065e-09
 75.96711     -4.4 1.468e+04 1.797e-08
 75.98715     -5.7 1.493e+04 2.811e-08
 76.00653     -6.7 1.521e+04 2.776e-08
 76.01655     -6.0 1.491e+04 2.589e-08
 76.02721     -8.2 1.560e+04 1.248e-08
 76.04725    -12.0 1.478e+04 5.316e-09
 76.06728    -14.5 1.365e+04 3.968e-09
 76.09743    -15.7 1.334e+04 3.615e-09
 76.13759    -16.2 1.285e+04 3.365e-09
 76.17477    -16.3 1.240e+04 3.180e-09
 76.19480    -15.2 1.247e+04 3.189e-09
 76.21773    -14.6 1.216e+04 2.578e-09
 76.25779    -14.3 1.186e+04 1.745e-09
 76.29786    -13.9 1.160e+04 1.243e-09
 76.33793    -13.3 1.146e+04 1.036e-09
 76.36284    -12.5 1.137e+04 9.286e-10
 76.38287    -12.0 1.131e+04 9.026e-10
 76.41806    -11.0 1.124e+04 8.251e-10
 76.45813     -9.9 1.123e+04 7.695e-10
 76.49820     -8.7 1.123e+04 7.249e-10
 76.53087     -7.5 1.125e+04 6.855e-10
 76.55091     -6.8 1.119e+04 6.778e-10
 76.57833     -5.5 1.121e+04 6.304e-10
 76.61840     -4.3 1.126e+04 6.136e-10
 76.65846     -3.5 1.142e+04 6.978e-10
 76.69853     -3.2 1.135e+04 1.153e-09
 76.71894     -2.9 1.151e+04 2.028e-09
 76.72206     -1.6 1.144e+04 1.961e-09
 76.74172     -0.5 1.160e+04 2.198e-09
 76.76855     -1.1 1.194e+04 3.395e-09
 76.78849     -2.2 1.193e+04 4.293e-09
 76.80277     -2.3 1.217e+04 5.850e-09
 76.81278     -1.7 1.223e+04 6.584e-09
 76.82855     -2.3 1.246e+04 7.444e-09
 76.84859     -3.1 1.261e+04 7.658e-09
 76.86862     -4.0 1.274e+04 6.739e-09
 76.88678     -4.6 1.274e+04 5.136e-09
 76.89680     -4.3 1.283e+04 7.107e-09
 76.90869     -4.8 1.262e+04 4.684e-09
 76.92872     -5.6 1.248e+04 2.856e-09
 76.94876     -6.2 1.232e+04 2.149e-09
 76.97890     -6.4 1.209e+04 1.599e-09
 77.01907     -4.8 1.195e+04 1.237e-09
 77.05502     -4.0 1.189e+04 1.119e-09
 77.07505     -3.4 1.180e+04 1.111e-09
 77.09920     -2.3 1.176e+04 1.178e-09
 77.13927     -1.2 1.166e+04 1.404e-09
 77.17934      0.1 1.160e+04 1.558e-09
 77.21940      1.1 1.153e+04 1.574e-09
 77.24309      2.1 1.146e+04 1.431e-09
 77.26312      3.3 1.151e+04 1.291e-09
 77.29954      4.3 1.142e+04 1.271e-09
 77.33961      5.4 1.138e+04 1.200e-09
 77.37967      6.2 1.140e+04 1.063e-09
 77.41112      6.8 1.134e+04 1.023e-09
 77.43116      8.9 1.136e+04 1.271e-09
 77.45981      9.8 1.134e+04 1.256e-09
 77.49987     10.5 1.131e+04 1.209e-09
 77.53994     11.5 1.104e+04 1.246e-09
 77.57916     13.0 1.094e+04 1.148e-09
 77.59919     15.0 1.095e+04 1.560e-09
 77.62007     16.9 1.093e+04 1.297e-09
 77.66014     18.3 1.089e+04 9.908e-10
 77.70021     20.0 1.086e+04 9.092e-10
 77.74028     22.4 1.069e+04 1.557e-09
 77.76713     24.4 1.107e+04 1.698e-09
 77.77705     25.5 1.108e+04 1.723e-09
 77.79016     25.3 1.102e+04 2.230e-09
 77.81020     25.9 1.105e+04 2.657e-09
 77.83023     25.6 1.156e+04 3.756e-09
 77.85027     22.7 1.369e+04 9.109e-09
 77.86107     18.8 1.587e+04 3.914e-08
 77.87109     19.9 1.554e+04 2.399e-08
 77.88528     17.3 1.630e+04 8.205e-08
 77.89524     15.4 1.755e+04 1.132e-07
 77.90298     13.4 1.790e+04 2.818e-07
 77.90799     14.8 1.747e+04 2.293e-07
 77.91528     13.5 1.889e+04 3.484e-07
 77.92529     10.3 1.978e+04 4.090e-07
 77.93531      4.9 1.923e+04 3.466e-07
 77.94499      0.8 1.799e+04 3.026e-07
 77.95000      0.2 1.870e+04 2.989e-07
 77.95534     -1.7 1.827e+04 3.333e-07
 77.96536     -3.3 1.849e+04 2.766e-07
 77.97538     -5.6 1.846e+04 2.117e-07
 77.98539     -8.2 1.833e+04 1.566e-07
 77.99201    -10.9 1.806e+04 1.327e-07
 77.99702    -11.2 1.844e+04 1.921e-07
 78.00543    -13.6 1.824e+04 1.819e-07
 78.01544    -15.5 1.816e+04 1.950e-07
 78.02546    -17.0 1.846e+04 2.361e-07
 78.03402    -18.5 1.874e+04 2.682e-07
 78.03903    -19.2 1.883e+04 3.184e-07
 78.04549    -21.3 1.872e+04 3.218e-07
 78.05551    -22.7 1.834e+04 2.835e-07
 78.06553    -23.9 1.793e+04 2.329e-07
 78.07555    -25.4 1.772e+04 1.849e-07
 78.08103    -27.1 1.743e+04 1.504e-07
 78.08604    -27.4 1.727e+04 1.296e-07
 78.09558    -29.2 1.681e+04 1.059e-07
 78.10560    -30.6 1.638e+04 9.182e-08
 78.11561    -31.8 1.606e+04 8.217e-08
 78.12304    -32.5 1.576e+04 7.330e-08
 78.12805    -33.0 1.502e+04 4.885e-08
 78.13565    -33.5 1.469e+04 4.418e-08
 78.15072    -34.5 1.364e+04 3.131e-08
 78.17080    -35.0 1.346e+04 2.822e-08
 78.19084    -35.1 1.294e+04 2.036e-08
 78.20716    -35.3 1.234e+04 1.376e-08
 78.21718    -35.1 1.160e+04 7.195e-09
 78.23090    -35.5 1.116e+04 5.902e-09
 78.25094    -35.4 1.098e+04 5.672e-09
 78.27097    -35.0 1.089e+04 5.606e-09
 78.29100    -34.7 1.087e+04 5.595e-09
 78.30119    -34.4 1.087e+04 5.514e-09
 78.31121    -33.7 1.070e+04 4.609e-09
 78.32715    -33.5 1.074e+04 4.695e-09
 78.33716    -33.2 1.082e+04 5.136e-09
 78.35110    -33.0 1.084e+04 5.126e-09
 78.37114    -32.7 1.087e+04 4.921e-09
 78.38521    -32.6 1.089e+04 4.480e-09
 78.39523    -31.8 1.080e+04 4.503e-09
 78.41120    -31.7 1.084e+04 4.078e-09
 78.43124    -31.7 1.088e+04 3.600e-09
 78.45127    -31.8 1.091e+04 3.279e-09
 78.46923    -32.1 1.093e+04 3.207e-09
 78.47925    -31.4 1.094e+04 3.356e-09
 78.49134    -32.2 1.106e+04 3.340e-09
 78.51137    -33.6 1.159e+04 3.865e-09
 78.53141    -35.3 1.188e+04 5.737e-09
 78.55144    -36.9 1.229e+04 8.723e-09
 78.56327    -38.5 1.273e+04 1.172e-08
 78.57328    -37.5 1.251e+04 9.936e-09
 78.59151    -39.2 1.278e+04 1.115e-08
 78.61154    -41.0 1.282e+04 1.130e-08
 78.63157    -42.6 1.277e+04 9.730e-09
 78.64728    -44.0 1.270e+04 7.216e-09
 78.65730    -42.9 1.275e+04 7.939e-09
 78.67164    -44.3 1.281e+04 6.559e-09
 78.69167    -45.6 1.285e+04 6.273e-09
 78.71171    -47.1 1.313e+04 6.409e-09
 78.73130    -48.8 1.343e+04 8.220e-09
 78.74132    -48.9 1.354e+04 9.265e-09
 78.75177    -50.7 1.366e+04 1.253e-08
 78.77181    -52.3 1.380e+04 1.518e-08
 78.79184    -53.8 1.385e+04 1.598e-08
 78.81188    -55.2 1.380e+04 1.565e-08
 78.82534    -56.4 1.365e+04 1.360e-08
 78.83536    -57.2 1.353e+04 1.216e-08
 78.85194    -58.4 1.341e+04 1.096e-08
 78.87198    -59.3 1.338e+04 1.074e-08
 78.89201    -59.9 1.340e+04 1.083e-08
 78.90936    -60.5 1.351e+04 1.131e-08
 78.91937    -61.4 1.342e+04 1.089e-08
 78.93208    -62.0 1.344e+04 1.098e-08
 78.95211    -62.4 1.342e+04 1.062e-08
 78.97214    -62.8 1.335e+04 9.813e-09
 78.99218    -63.1 1.329e+04 8.670e-09
 79.00339    -63.3 1.320e+04 7.642e-09
 79.01341    -63.8 1.299e+04 6.294e-09
 79.03224    -63.8 1.282e+04 5.552e-09
 79.05228    -63.6 1.266e+04 4.961e-09
 79.07231    -63.3 1.257e+04 4.501e-09
 79.08741    -62.9 1.255e+04 4.190e-09
 79.09743    -63.0 1.242e+04 3.743e-09
 79.11238    -62.5 1.247e+04 3.598e-09
 79.13241    -62.0 1.250e+04 3.568e-09
 79.15245    -61.6 1.256e+04 3.575e-09
 79.17143    -61.2 1.262e+04 3.693e-09
 79.18145    -61.2 1.248e+04 3.309e-09
 79.19251    -60.9 1.260e+04 3.492e-09
 79.21255    -60.7 1.264e+04 3.820e-09
 79.23258    -60.4 1.260e+04 4.213e-09
 79.25261    -60.1 1.260e+04 4.602e-09
 79.26546    -59.9 1.261e+04 4.930e-09
 79.27548    -59.6 1.249e+04 4.623e-09
 79.29268    -59.3 1.253e+04 4.881e-09
 79.31271    -59.0 1.256e+04 4.969e-09
 79.33275    -58.8 1.255e+04 4.966e-09
 79.34948    -58.5 1.253e+04 4.661e-09
 79.35950    -58.2 1.254e+04 4.904e-09
 79.37281    -57.9 1.253e+04 4.521e-09
 79.39285    -57.6 1.251e+04 4.062e-09
 79.41288    -57.4 1.246e+04 3.621e-09
 79.43292    -57.1 1.239e+04 3.221e-09
 79.44352    -56.7 1.232e+04 2.884e-09
 79.45353    -56.4 1.236e+04 3.024e-09
 79.47298    -56.0 1.234e+04 2.711e-09
 79.50313    -55.4 1.245e+04 2.476e-09
 79.52773    -54.2 1.252e+04 2.333e-09
 79.53765    -54.2 1.245e+04 2.393e-09
 79.55312    -53.8 1.245e+04 2.373e-09
 79.57315    -52.9 1.250e+04 2.347e-09
 79.59318    -52.5 1.252e+04 2.357e-09
 79.61155    -51.6 1.258e+04 2.435e-09
 79.62157    -51.3 1.259e+04 2.833e-09
 79.63325    -50.7 1.267e+04 3.096e-09
 79.65328    -50.0 1.285e+04 3.450e-09
 79.67332    -49.7 1.306e+04 3.953e-09
 79.69335    -50.0 1.328e+04 5.020e-09
 79.70559    -50.9 1.361e+04 7.600e-09
 79.71561    -51.9 1.447e+04 1.679e-08
 79.73342    -53.1 1.534e+04 3.218e-08
 79.75345    -54.2 1.594e+04 4.875e-08
 79.77349    -55.6 1.605e+04 5.497e-08
 79.78961    -56.8 1.567e+04 4.306e-08
 79.79962    -58.3 1.595e+04 4.143e-08
 79.81355    -59.5 1.487e+04 1.522e-08
 79.83359    -60.8 1.408e+04 6.623e-09
 79.85362    -61.6 1.354e+04 4.393e-09
 79.87363    -61.1 1.328e+04 3.781e-09
 79.90377    -60.4 1.301e+04 3.291e-09
 79.93300    -57.5 1.277e+04 2.544e-09
 79.95303    -57.7 1.269e+04 2.186e-09
 79.98403    -55.3 1.259e+04 1.812e-09
 80.02410    -53.3 1.256e+04 1.663e-09
 80.05187    -51.2 1.256e+04 1.621e-09
 80.07191    -50.7 1.241e+04 1.448e-09
 80.10423    -48.5 1.241e+04 1.490e-09
 80.14430    -46.6 1.246e+04 1.721e-09
 80.18437    -45.2 1.255e+04 2.143e-09
 80.21991    -44.1 1.268e+04 2.655e-09
 80.23994    -43.0 1.262e+04 2.628e-09
 80.26450    -42.3 1.277e+04 3.536e-09
 80.30457    -41.9 1.294e+04 4.041e-09
 80.34464    -42.2 1.315e+04 4.184e-09
 80.38470    -45.2 1.354e+04 4.347e-09
 80.40798    -51.6 1.402e+04 6.890e-09
 80.41790    -48.2 1.388e+04 6.318e-09
 80.43459    -51.7 1.412e+04 8.057e-09
 80.45463    -57.0 1.453e+04 1.400e-08
 80.47466    -61.3 1.502e+04 2.314e-08
 80.49180    -65.4 1.514e+04 2.777e-08
 80.50182    -65.9 1.537e+04 3.079e-08
 80.51473    -70.1 1.510e+04 2.933e-08
 80.53476    -73.8 1.450e+04 2.037e-08
 80.55479    -76.8 1.394e+04 1.309e-08
 80.57483    -78.9 1.357e+04 9.417e-09
 80.58584    -80.3 1.341e+04 7.421e-09
 80.59586    -80.8 1.351e+04 8.143e-09
 80.61489    -81.8 1.343e+04 6.671e-09
 80.63493    -82.8 1.338e+04 5.725e-09
 80.65496    -83.5 1.330e+04 5.170e-09
 80.66986    -84.1 1.324e+04 4.898e-09
 80.67987    -84.4 1.328e+04 5.652e-09
 80.69503    -84.5 1.323e+04 5.308e-09
 80.71506    -84.6 1.322e+04 4.867e-09
 80.73510    -84.5 1.327e+04 4.291e-09
 80.75388    -84.6 1.336e+04 3.626e-09
 80.76389    -84.5 1.334e+04 3.697e-09
 80.77516    -84.5 1.343e+04 3.173e-09
 80.79520    -84.4 1.347e+04 3.029e-09
 80.82534    -84.1 1.351e+04 3.052e-09
 80.86551    -83.3 1.366e+04 3.854e-09
 80.90558    -82.6 1.394e+04 5.954e-09
 80.93203    -82.7 1.430e+04 9.626e-09
 80.94195    -82.7 1.465e+04 1.525e-08
 80.95546    -82.9 1.483e+04 1.864e-08
 80.97550    -83.1 1.506e+04 2.325e-08
 80.99553    -83.5 1.530e+04 2.867e-08
 81.01557    -83.9 1.549e+04 3.409e-08
 81.02596    -84.5 1.557e+04 3.668e-08
 81.03598    -85.1 1.569e+04 3.853e-08
 81.05563    -85.3 1.546e+04 3.591e-08
 81.07567    -85.3 1.525e+04 2.917e-08
 81.09570    -85.1 1.509e+04 2.210e-08
 81.10998    -84.9 1.498e+04 1.656e-08
 81.12000    -85.2 1.477e+04 1.350e-08
 81.13577    -85.1 1.462e+04 1.078e-08
 81.15580    -84.7 1.450e+04 9.618e-09
 81.18595    -83.8 1.447e+04 9.394e-09
 81.22611    -81.6 1.444e+04 9.314e-09
 81.26618    -80.0 1.460e+04 1.015e-08
 81.28823    -79.0 1.486e+04 1.308e-08
 81.30826    -79.0 1.459e+04 8.719e-09
 81.34631    -78.4 1.475e+04 1.087e-08
 81.38638    -78.3 1.486e+04 1.302e-08
 81.42645    -78.4 1.500e+04 1.430e-08
 81.45627    -78.7 1.505e+04 1.433e-08
 81.47630    -77.5 1.482e+04 9.784e-09
 81.50658    -77.5 1.489e+04 9.158e-09
 81.54665    -77.2 1.490e+04 7.650e-09
 81.58672    -77.0 1.499e+04 6.585e-09
 81.62430    -76.9 1.504e+04 6.399e-09
 81.64434    -75.5 1.497e+04 7.833e-09
 81.66685    -76.0 1.510e+04 7.985e-09
 81.70692    -76.8 1.515e+04 8.514e-09
 81.74699    -77.8 1.517e+04 8.873e-09
 81.78705    -78.5 1.515e+04 8.664e-09
 81.81237    -78.6 1.503e+04 7.765e-09
 81.83241    -78.1 1.507e+04 8.402e-09
 81.86719    -78.1 1.494e+04 7.236e-09
 81.90725    -77.9 1.486e+04 6.235e-09
 81.94732    -77.2 1.478e+04 5.695e-09
 81.98041    -76.2 1.474e+04 5.599e-09
 82.00045    -76.6 1.477e+04 7.135e-09
 82.02745    -76.0 1.470e+04 6.822e-09
 82.06752    -75.4 1.468e+04 6.889e-09
 82.10759    -74.8 1.468e+04 7.447e-09
 82.14766    -74.1 1.471e+04 8.240e-09
 82.16838    -73.7 1.486e+04 9.065e-09
 82.17830    -74.4 1.503e+04 9.079e-09
 82.19754    -74.3 1.513e+04 9.326e-09
 82.21758    -74.3 1.512e+04 9.467e-09
 82.23761    -74.2 1.510e+04 9.472e-09
 82.25230    -74.0 1.506e+04 8.948e-09
 82.26232    -74.6 1.512e+04 7.644e-09
 82.27768    -74.4 1.522e+04 6.245e-09
 82.29771    -74.4 1.537e+04 4.887e-09
 82.31775    -74.3 1.543e+04 4.037e-09
 82.33642    -73.6 1.543e+04 3.588e-09
 82.35655    -73.7 1.537e+04 2.437e-09
 82.38806    -72.1 1.536e+04 1.988e-09
 82.42813    -70.6 1.537e+04 1.921e-09
 82.46819    -69.3 1.537e+04 1.951e-09
 82.50455    -68.2 1.526e+04 2.364e-09
 82.52459    -67.3 1.529e+04 2.474e-09
 82.54833    -66.1 1.517e+04 3.179e-09
 82.58839    -65.0 1.511e+04 3.806e-09
 82.62846    -64.0 1.505e+04 4.020e-09
 82.66853    -63.2 1.500e+04 3.964e-09
 82.69263    -62.1 1.477e+04 3.472e-09
 82.71266    -61.5 1.486e+04 3.536e-09
 82.74866    -60.4 1.463e+04 2.787e-09
 82.78873    -59.1 1.438e+04 2.232e-09
 82.82880    -57.7 1.416e+04 1.915e-09
 82.86066    -56.1 1.397e+04 1.691e-09
 82.88070    -55.7 1.392e+04 1.831e-09
 82.90893    -54.0 1.375e+04 1.597e-09
 82.94900    -52.3 1.363e+04 1.371e-09
 82.98907    -50.4 1.354e+04 1.181e-09
 83.02870    -48.6 1.348e+04 1.042e-09
 83.04873    -48.1 1.345e+04 1.059e-09
 83.06920    -46.3 1.341e+04 9.420e-10
 83.10927    -44.5 1.335e+04 8.733e-10
 83.14432    -42.7 1.328e+04 8.306e-10
 83.16435    -42.8 1.325e+04 8.200e-10
 83.18940    -40.8 1.317e+04 7.946e-10
 83.21677    -38.8 1.313e+04 7.815e-10
 83.23680    -38.1 1.313e+04 7.810e-10
 83.26953    -36.0 1.314e+04 7.739e-10
 83.30960    -34.2 1.324e+04 8.149e-10
 83.34967    -32.9 1.330e+04 1.180e-09
 83.38481    -32.0 1.326e+04 2.098e-09
 83.40484    -30.8 1.322e+04 2.128e-09
 83.42980    -30.1 1.347e+04 3.392e-09
 83.46987    -30.4 1.376e+04 5.944e-09
 83.49982    -31.2 1.417e+04 9.675e-09
 83.51976    -32.2 1.430e+04 1.190e-08
 83.53979    -32.9 1.433e+04 1.383e-08
 83.55983    -33.5 1.415e+04 1.382e-08
 83.57268    -33.6 1.387e+04 1.174e-08
 83.58270    -33.3 1.381e+04 1.244e-08
 83.59989    -33.3 1.373e+04 1.014e-08
 83.61993    -33.2 1.366e+04 8.098e-09
 83.63996    -32.8 1.358e+04 6.466e-09
 83.65670    -32.3 1.352e+04 5.470e-09
 83.66672    -31.9 1.345e+04 6.457e-09
 83.68003    -31.2 1.339e+04 5.539e-09
 83.70006    -30.3 1.332e+04 4.908e-09
 83.72009    -29.4 1.324e+04 4.510e-09
 83.74013    -28.4 1.316e+04 4.324e-09
 83.75073    -27.3 1.311e+04 4.282e-09
 83.76075    -26.9 1.309e+04 4.316e-09
 83.78019    -25.8 1.303e+04 4.274e-09
 83.80023    -24.7 1.295e+04 4.308e-09
 83.82026    -23.5 1.294e+04 4.503e-09
 83.83475    -22.4 1.300e+04 4.938e-09
 83.84477    -21.7 1.289e+04 4.570e-09
 83.86033    -20.6 1.295e+04 5.026e-09
 83.88036    -19.6 1.297e+04 5.679e-09
 83.90040    -18.7 1.302e+04 6.588e-09
 83.91877    -17.7 1.311e+04 7.641e-09
 83.92879    -16.9 1.307e+04 7.493e-09
 83.94046    -16.0 1.319e+04 8.875e-09
 83.96050    -15.3 1.333e+04 9.248e-09
 83.98053    -14.8 1.337e+04 9.183e-09
 84.00056    -14.5 1.325e+04 8.018e-09
 84.01281    -14.3 1.304e+04 6.244e-09
 84.02282    -13.1 1.314e+04 7.183e-09
 84.04063    -13.0 1.287e+04 5.387e-09
 84.06066    -12.9 1.260e+04 3.980e-09
 84.08070    -13.3 1.236e+04 3.176e-09
 84.09682    -14.2 1.228e+04 2.970e-09
 84.10684    -13.0 1.238e+04 3.064e-09
 84.12077    -14.3 1.255e+04 3.054e-09
 84.14080    -16.2 1.300e+04 3.214e-09
 84.16083    -19.5 1.435e+04 4.278e-09
 84.18084    -23.5 1.502e+04 1.258e-08
 84.20088    -26.7 1.587e+04 5.219e-08
 84.22093    -28.5 1.620e+04 7.593e-08
 84.24097    -30.5 1.615e+04 7.955e-08
 84.26100    -32.2 1.531e+04 4.994e-08
 84.27488    -33.7 1.412e+04 2.348e-08
 84.28489    -34.8 1.370e+04 1.883e-08
 84.30107    -35.8 1.299e+04 1.078e-08
 84.32110    -36.1 1.267e+04 8.125e-09
 84.34113    -35.7 1.246e+04 6.894e-09
 84.35890    -34.8 1.240e+04 6.067e-09
 84.36891    -35.1 1.235e+04 6.182e-09
 84.38120    -34.1 1.233e+04 5.686e-09
 84.40123    -33.2 1.243e+04 5.074e-09
 84.42127    -32.2 1.253e+04 4.442e-09
 84.44130    -31.2 1.262e+04 3.971e-09
 84.45293    -30.3 1.275e+04 3.689e-09
 84.46295    -30.4 1.272e+04 4.263e-09
 84.48137    -29.4 1.281e+04 4.249e-09
 84.50140    -28.4 1.291e+04 4.446e-09
 84.52144    -27.4 1.302e+04 4.910e-09
 84.53695    -26.6 1.305e+04 5.660e-09
 84.54697    -26.4 1.259e+04 6.233e-09
 84.56150    -25.4 1.253e+04 7.242e-09
 84.58154    -24.3 1.256e+04 8.378e-09
 84.60157    -23.3 1.271e+04 9.687e-09
 84.62097    -22.5 1.301e+04 1.140e-08
 84.63098    -22.8 1.348e+04 1.031e-08
 84.64164    -22.7 1.489e+04 1.302e-08
 84.66167    -23.2 1.667e+04 1.846e-08
 84.68170    -23.9 1.811e+04 2.895e-08
 84.70174    -24.8 1.901e+04 4.752e-08
 84.71500    -25.3 1.951e+04 7.384e-08
 84.71996    -25.7 1.948e+04 6.874e-08
 84.72668    -25.9 1.951e+04 8.427e-08
 84.73670    -25.6 1.960e+04 1.033e-07
 84.74672    -25.6 1.968e+04 1.160e-07
 84.75673    -25.4 2.000e+04 1.358e-07
 84.76192    -25.5 2.011e+04 1.452e-07
 84.76489    -26.4 1.995e+04 1.780e-07
 84.76976    -22.9 1.972e+04 1.049e-07
 84.77681    -24.5 2.006e+04 1.557e-07
 84.78678    -24.5 2.023e+04 1.763e-07
 84.79680    -24.5 2.037e+04 1.987e-07
 84.80393    -25.0 2.039e+04 2.262e-07
 84.80894    -25.6 2.019e+04 2.298e-07
 84.81683    -25.9 2.014e+04 2.403e-07
 84.82685    -26.2 2.033e+04 2.512e-07
 84.83687    -26.7 2.054e+04 2.825e-07
 84.84594    -27.4 2.065e+04 3.508e-07
 84.85095    -27.6 2.032e+04 2.481e-07
 84.85690    -28.7 2.063e+04 2.849e-07
 84.86692    -30.3 2.049e+04 3.875e-07
 84.87693    -32.4 1.992e+04 5.507e-07
 84.88695    -34.6 1.917e+04 7.202e-07
 84.89296    -36.4 1.871e+04 7.952e-07
 84.89797    -35.9 1.888e+04 7.822e-07
 84.90698    -37.8 1.854e+04 9.416e-07
 84.91700    -39.9 1.852e+04 1.057e-06
 84.92702    -43.9 1.916e+04 1.028e-06
 84.93497    -51.8 2.069e+04 6.188e-07
 84.93998    -47.8 1.969e+04 1.140e-06
 84.94705    -56.6 2.089e+04 6.278e-07
 84.95707    -64.9 2.016e+04 4.201e-07
 84.96708    -69.5 1.870e+04 3.471e-07
 84.97698    -71.3 1.800e+04 2.523e-07
 84.98198    -70.9 1.829e+04 2.822e-07
 84.98712    -72.3 1.770e+04 1.861e-07
 84.99714    -74.0 1.704e+04 1.007e-07
 85.00715    -76.6 1.574e+04 4.921e-08
 85.01717    -79.1 1.410e+04 2.873e-08
 85.02399    -80.0 1.342e+04 2.435e-08
 85.02900    -80.0 1.355e+04 2.601e-08
 85.04226    -80.5 1.305e+04 2.172e-08
 85.06109    -80.2 1.262e+04 1.774e-08
 85.07111    -81.0 1.295e+04 2.299e-08
 85.08238    -80.0 1.288e+04 2.185e-08
 85.10241    -79.3 1.292e+04 2.161e-08
 85.12244    -78.7 1.303e+04 2.295e-08
 85.14248    -78.4 1.317e+04 2.517e-08
 85.15513    -78.3 1.324e+04 2.713e-08
 85.16514    -78.4 1.400e+04 3.395e-08
 85.18254    -78.6 1.402e+04 3.457e-08
 85.20258    -79.2 1.396e+04 3.430e-08
 85.22261    -79.8 1.360e+04 3.201e-08
 85.23915    -80.2 1.317e+04 2.856e-08
 85.24916    -80.8 1.403e+04 3.693e-08
 85.26268    -80.9 1.332e+04 2.950e-08
 85.28271    -80.9 1.267e+04 2.269e-08
 85.30274    -80.1 1.209e+04 1.747e-08
 85.32278    -79.1 1.151e+04 1.345e-08
 85.33318    -78.1 1.100e+04 1.067e-08
 85.34320    -78.2 1.110e+04 1.111e-08
 85.36284    -76.9 1.077e+04 9.435e-09
 85.38288    -75.5 1.052e+04 8.186e-09
 85.40291    -74.0 1.031e+04 7.157e-09
 85.41720    -72.4 1.013e+04 6.224e-09
 85.42722    -71.9 1.032e+04 7.161e-09
 85.44298    -70.3 1.016e+04 6.302e-09
 85.46301    -68.8 1.001e+04 5.439e-09
 85.48305    -67.4 9.872e+03 4.666e-09
 85.50122    -65.9 9.756e+03 4.032e-09
 85.51123    -65.2 9.891e+03 4.726e-09
 85.52311    -63.7 9.799e+03 4.142e-09
 85.54315    -62.3 9.734e+03 3.616e-09
 85.56318    -60.8 9.707e+03 3.156e-09
 85.58321    -59.3 9.747e+03 2.819e-09
 85.59525    -58.2 9.752e+03 2.680e-09
 85.60527    -57.2 9.838e+03 3.036e-09
 85.63340    -55.7 9.938e+03 2.709e-09
 85.66945    -52.8 9.952e+03 2.562e-09
 85.68939    -51.3 1.000e+04 2.662e-09
 85.70342    -49.4 1.001e+04 2.570e-09
 85.72345    -48.7 9.994e+03 2.525e-09
 85.74348    -46.6 1.002e+04 2.549e-09
 85.76329    -46.0 9.994e+03 2.526e-09
 85.77331    -45.1 1.000e+04 2.545e-09
 85.78355    -43.7 9.968e+03 2.673e-09
 85.80358    -42.8 1.005e+04 2.895e-09
 85.82362    -41.8 1.013e+04 3.298e-09
 85.84365    -40.9 1.029e+04 3.900e-09
 85.85732    -39.9 1.048e+04 4.697e-09
 85.86734    -39.1 1.043e+04 4.477e-09
 85.88372    -38.1 1.060e+04 5.429e-09
 85.90375    -37.2 1.073e+04 6.175e-09
 85.92378    -36.4 1.079e+04 6.448e-09
 85.94134    -35.7 1.079e+04 6.439e-09
 85.95136    -34.5 1.087e+04 7.045e-09
 85.96385    -34.0 1.082e+04 6.760e-09
 85.98388    -33.5 1.069e+04 6.091e-09
 86.00392    -33.1 1.057e+04 5.588e-09
 86.02395    -32.6 1.050e+04 5.419e-09
 86.03538    -32.0 1.048e+04 5.484e-09
 86.04539    -31.1 1.057e+04 5.649e-09
 86.06402    -30.5 1.052e+04 5.777e-09
 86.08405    -29.7 1.052e+04 5.919e-09
 86.10409    -28.7 1.053e+04 5.977e-09
 86.11940    -27.7 1.055e+04 5.973e-09
 86.12941    -27.0 1.057e+04 6.192e-09
 86.14415    -26.0 1.058e+04 6.152e-09
 86.16419    -24.9 1.061e+04 6.014e-09
 86.18422    -23.9 1.065e+04 5.764e-09
 86.20341    -22.9 1.069e+04 5.327e-09
 86.21343    -22.3 1.071e+04 5.928e-09
 86.22429    -21.3 1.073e+04 5.536e-09
 86.24432    -20.3 1.070e+04 4.828e-09
 86.26435    -19.4 1.064e+04 4.075e-09
 86.28439    -18.8 1.055e+04 3.668e-09
 86.29745    -17.1 1.041e+04 3.133e-09
 86.30747    -16.8 1.046e+04 3.225e-09
 86.32446    -16.0 1.036e+04 2.956e-09
 86.35460    -14.2 1.041e+04 2.847e-09
 86.37567    -11.8 1.044e+04 2.745e-09
 86.38260    -11.4 1.030e+04 2.636e-09
 86.40170    -10.4 1.027e+04 2.566e-09
 86.42472     -9.1 1.051e+04 3.023e-09
 86.44466     -8.5 1.062e+04 3.407e-09
 86.46469     -7.7 1.076e+04 3.915e-09
 86.47550     -7.1 1.091e+04 4.507e-09
 86.48552     -6.4 1.087e+04 4.294e-09
 86.50476     -5.8 1.105e+04 4.973e-09
 86.52479     -5.2 1.121e+04 5.561e-09
 86.54482     -4.8 1.135e+04 5.860e-09
 86.55952     -4.4 1.138e+04 5.917e-09
 86.56954     -3.5 1.139e+04 5.978e-09
 86.58489     -3.0 1.136e+04 5.797e-09
 86.60492     -2.1 1.129e+04 4.908e-09
 86.62496     -1.2 1.121e+04 3.782e-09
 86.64354     -0.6 1.110e+04 2.768e-09
 86.65356      0.4 1.120e+04 3.056e-09
 86.66503      0.9 1.110e+04 2.358e-09
 86.68506      1.5 1.110e+04 2.151e-09
 86.71521      2.9 1.119e+04 2.122e-09
 86.73777      5.0 1.122e+04 2.224e-09
 86.74769      5.9 1.125e+04 2.167e-09
 86.76519      6.2 1.123e+04 2.272e-09
 86.78523      7.4 1.115e+04 3.006e-09
 86.80526      8.1 1.117e+04 3.970e-09
 86.82159      9.3 1.129e+04 5.255e-09
 86.83161     10.1 1.144e+04 6.216e-09
 86.84533     11.1 1.156e+04 7.599e-09
 86.86536     11.9 1.164e+04 8.387e-09
 86.88539     12.6 1.169e+04 8.356e-09
 86.90543     13.0 1.172e+04 7.750e-09
 86.91563     13.2 1.169e+04 7.035e-09
 86.92565     14.1 1.193e+04 9.593e-09
 86.94550     14.2 1.183e+04 8.513e-09
 86.96553     14.4 1.176e+04 8.008e-09
 86.98556     14.5 1.169e+04 8.146e-09
 86.99965     14.8 1.170e+04 8.638e-09
 87.00966     15.5 1.182e+04 8.899e-09
 87.02563     15.6 1.188e+04 9.367e-09
 87.04566     15.9 1.193e+04 1.012e-08
 87.06570     16.3 1.200e+04 1.077e-08
 87.08367     16.7 1.206e+04 1.087e-08
 87.09368     16.9 1.213e+04 1.138e-08
 87.10576     17.1 1.220e+04 1.135e-08
 87.12580     17.1 1.223e+04 1.125e-08
 87.14583     17.0 1.227e+04 1.146e-08
 87.16586     16.9 1.234e+04 1.201e-08
 87.17770     16.8 1.241e+04 1.274e-08
 87.18772     17.0 1.255e+04 1.445e-08
 87.20593     16.7 1.270e+04 1.592e-08
 87.22596     16.3 1.291e+04 1.893e-08
 87.24600     15.9 1.316e+04 2.320e-08
 87.26172     15.7 1.334e+04 2.671e-08
 87.27174     15.8 1.333e+04 2.669e-08
 87.28607     15.7 1.334e+04 2.754e-08
 87.30610     15.8 1.302e+04 2.478e-08
 87.32613     16.1 1.245e+04 1.820e-08
 87.34574     16.1 1.181e+04 1.221e-08
 87.35575     16.3 1.174e+04 1.164e-08
 87.36620     16.3 1.118e+04 7.793e-09
 87.38623     16.3 1.071e+04 5.763e-09
 87.40627     16.4 1.039e+04 4.715e-09
 87.42630     16.6 1.020e+04 4.368e-09
 87.43977     17.0 1.015e+04 4.320e-09
 87.44979     17.3 1.020e+04 4.657e-09
 87.46637     17.7 1.025e+04 5.097e-09
 87.48640     17.9 1.046e+04 6.031e-09
 87.50643     17.7 1.082e+04 7.662e-09
 87.52379     17.3 1.135e+04 1.051e-08
 87.53381     17.6 1.128e+04 1.027e-08
 87.54650     17.1 1.183e+04 1.436e-08
 87.56653     16.8 1.234e+04 1.868e-08
 87.58657     16.5 1.255e+04 2.049e-08
 87.60660     15.9 1.236e+04 2.036e-08
 87.61783     15.5 1.185e+04 1.632e-08
 87.62784     16.0 1.191e+04 1.707e-08
 87.64667     15.6 1.132e+04 1.214e-08
 87.66670     15.0 1.072e+04 8.341e-09
 87.68674     14.3 1.019e+04 6.116e-09
 87.70184     13.9 9.819e+03 5.055e-09
 87.71186     14.6 9.879e+03 5.143e-09
 87.72680     14.5 9.673e+03 4.394e-09
 87.74684     14.4 9.565e+03 3.695e-09
 87.76687     14.4 9.349e+03 3.044e-09
 87.78596     15.0 8.917e+03 2.346e-09
 87.80609     16.8 9.120e+03 2.580e-09
 87.83718     18.8 8.501e+03 1.900e-09
 87.87725     20.7 8.200e+03 1.569e-09
 87.90720     23.5 8.421e+03 1.607e-09
 87.92714     23.5 8.414e+03 1.605e-09
 87.94717     24.1 8.786e+03 1.925e-09
 87.96392     18.3 1.065e+04 3.744e-09
 87.97393     20.4 1.018e+04 3.180e-09
 87.98113     14.0 1.282e+04 1.342e-08
 87.99115     11.4 1.344e+04 2.093e-08
 88.00222      9.3 1.472e+04 4.634e-08
 88.01084      8.9 1.500e+04 5.133e-08
 88.01584      9.2 1.502e+04 5.109e-08
 88.02220      7.9 1.620e+04 8.810e-08
 88.03222      6.4 1.657e+04 9.769e-08
 88.04223      4.6 1.665e+04 8.467e-08
 88.05225      1.6 1.571e+04 4.771e-08
 88.05790     -2.9 1.410e+04 2.479e-08
 88.06797     -2.0 1.434e+04 2.703e-08
 88.08741     -8.2 1.227e+04 1.277e-08
 88.10744    -14.2 1.020e+04 7.710e-09
 88.12747    -16.0 9.842e+03 6.686e-09
 88.14197    -17.0 9.821e+03 6.465e-09
 88.15199    -16.3 9.816e+03 6.492e-09
 88.16754    -17.6 9.867e+03 6.516e-09
 88.18757    -18.9 9.977e+03 6.762e-09
 88.20761    -20.3 1.012e+04 7.217e-09
 88.22599    -21.6 1.023e+04 7.869e-09
 88.23600    -20.8 1.024e+04 8.062e-09
 88.24768    -22.0 1.036e+04 8.639e-09
 88.26771    -22.8 1.041e+04 9.140e-09
 88.28774    -23.5 1.043e+04 9.389e-09
 88.30778    -24.7 1.055e+04 9.878e-09
 88.32002    -30.3 1.180e+04 1.204e-08
 88.33004    -30.5 1.247e+04 1.234e-08
 88.34279    -42.0 1.932e+04 1.998e-08
 88.35275    -48.9 2.055e+04 4.870e-08
 88.36193    -53.2 2.085e+04 1.849e-07
 88.36694    -54.4 2.066e+04 2.765e-07
 88.37279    -59.8 1.940e+04 1.368e-06
 88.38280    -66.3 1.859e+04 3.276e-06
 88.39282    -74.7 1.837e+04 3.959e-06
 88.40284    -82.4 1.847e+04 2.594e-06
 88.40895    -88.1 1.917e+04 6.686e-07
 88.41396    -89.9 1.929e+04 4.537e-07
 88.42287    -93.9 1.789e+04 9.770e-08
 88.43289    -96.1 1.602e+04 5.003e-08
 88.44796    -96.9 1.508e+04 3.655e-08
 88.46804    -97.0 1.440e+04 2.290e-08
 88.48806    -97.5 1.336e+04 1.241e-08
 88.50809    -98.9 1.275e+04 9.355e-09
 88.52815    -99.2 1.263e+04 8.591e-09
 88.54818    -99.4 1.259e+04 8.370e-09
 88.56821    -99.5 1.261e+04 8.689e-09
 88.58209    -99.6 1.271e+04 9.443e-09
 88.59211   -100.2 1.281e+04 1.012e-08
 88.60828   -100.3 1.295e+04 1.128e-08
 88.62831   -100.3 1.309e+04 1.238e-08
 88.64835   -100.5 1.323e+04 1.307e-08
 88.66611   -100.5 1.331e+04 1.330e-08
 88.67613   -101.4 1.346e+04 1.410e-08
 88.68841   -101.5 1.349e+04 1.266e-08
 88.70845   -101.7 1.344e+04 1.039e-08
 88.72848   -102.0 1.343e+04 8.034e-09
 88.74851   -102.2 1.337e+04 6.022e-09
 88.76015   -102.4 1.327e+04 4.533e-09
 88.77016   -103.2 1.318e+04 4.050e-09
 88.78858   -103.2 1.309e+04 3.239e-09
 88.80861   -103.0 1.315e+04 2.884e-09
 88.82865   -102.8 1.318e+04 2.810e-09
 88.84417   -102.6 1.321e+04 2.813e-09
 88.85418   -103.3 1.319e+04 2.689e-09
 88.86872   -103.4 1.337e+04 2.978e-09
 88.88875   -103.5 1.351e+04 3.508e-09
 88.90878   -103.7 1.366e+04 4.129e-09
 88.92818   -103.7 1.382e+04 4.743e-09
 88.93820   -104.4 1.381e+04 5.107e-09
 88.94885   -104.4 1.390e+04 5.736e-09
 88.96888   -104.4 1.390e+04 6.134e-09
 88.98892   -104.4 1.388e+04 6.301e-09
 89.00895   -104.3 1.386e+04 6.383e-09
 89.02222   -104.1 1.377e+04 6.261e-09
 89.03224   -104.9 1.381e+04 6.817e-09
 89.04902   -104.6 1.372e+04 6.227e-09
 89.06905   -104.3 1.366e+04 5.594e-09
 89.08908   -103.9 1.360e+04 5.030e-09
 89.10624   -103.5 1.356e+04 4.564e-09
 89.11625   -104.5 1.353e+04 4.620e-09
 89.12915   -104.0 1.349e+04 4.276e-09
 89.14919   -103.5 1.347e+04 4.092e-09
 89.16922   -102.9 1.348e+04 4.039e-09
 89.18925   -102.4 1.351e+04 4.040e-09
 89.20027   -102.3 1.365e+04 4.317e-09
 89.21029   -103.9 1.364e+04 5.188e-09
 89.22932   -104.0 1.367e+04 6.627e-09
 89.24935   -104.1 1.370e+04 8.806e-09
 89.26939   -104.2 1.374e+04 1.166e-08
 89.28429   -104.3 1.378e+04 1.478e-08
 89.29431   -106.0 1.374e+04 1.616e-08
 89.30945   -106.2 1.376e+04 1.691e-08
 89.32949   -106.3 1.359e+04 1.633e-08
 89.34952   -106.4 1.337e+04 1.371e-08
 89.36831   -106.5 1.314e+04 1.014e-08
 89.37833   -108.2 1.289e+04 6.429e-09
 89.38959   -108.5 1.273e+04 4.370e-09
 89.40962   -108.9 1.257e+04 3.474e-09
 89.42965   -109.1 1.247e+04 3.316e-09
 89.44969   -109.0 1.248e+04 3.344e-09
 89.46234   -108.7 1.251e+04 3.415e-09
 89.47236   -110.1 1.250e+04 3.466e-09
 89.48976   -109.6 1.251e+04 3.501e-09
 89.50979   -109.1 1.252e+04 3.476e-09
 89.52982   -108.6 1.255e+04 3.421e-09
 89.54636   -108.2 1.258e+04 3.387e-09
 89.55638   -109.9 1.268e+04 3.783e-09
 89.56989   -109.6 1.277e+04 4.456e-09
 89.58679   -109.0 1.280e+04 5.373e-09
 89.59680   -109.4 1.277e+04 5.903e-09
 89.60996   -108.7 1.282e+04 7.343e-09
 89.62999   -107.8 1.290e+04 8.485e-09
 89.64040   -106.8 1.299e+04 9.698e-09
 89.65041   -108.1 1.289e+04 8.606e-09
 89.67006   -107.4 1.291e+04 8.921e-09
 89.69009   -106.7 1.290e+04 8.800e-09
 89.71012   -106.4 1.289e+04 7.623e-09
 89.72442   -106.3 1.285e+04 6.231e-09
 89.73443   -107.5 1.273e+04 4.945e-09
 89.76031   -107.4 1.255e+04 3.935e-09
 89.80047   -105.0 1.223e+04 2.585e-09
 89.84054   -102.5 1.202e+04 1.571e-09
 89.88060   -100.2 1.196e+04 1.150e-09
 89.90266    -97.8 1.195e+04 1.108e-09
 89.92270    -98.0 1.194e+04 1.115e-09
 89.96074    -95.4 1.197e+04 1.117e-09
 90.00081    -92.9 1.209e+04 1.174e-09
 90.04087    -90.4 1.213e+04 1.339e-09
 90.07070    -88.0 1.219e+04 1.565e-09
 90.09074    -88.0 1.223e+04 1.678e-09
 90.12101    -85.7 1.234e+04 1.855e-09
 90.16107    -83.4 1.238e+04 1.921e-09
 90.20114    -81.1 1.246e+04 1.876e-09
 90.23874    -78.7 1.255e+04 1.689e-09
 90.25877    -78.9 1.262e+04 1.786e-09
 90.28128    -76.4 1.272e+04 1.567e-09
 90.32134    -74.0 1.283e+04 1.445e-09
 90.36141    -71.5 1.291e+04 1.413e-09
 90.40148    -69.0 1.302e+04 1.416e-09
 90.42681    -66.7 1.320e+04 1.541e-09
 90.44684    -67.3 1.321e+04 2.038e-09
 90.48161    -65.1 1.327e+04 2.321e-09
 90.52168    -62.7 1.340e+04 2.658e-09
 90.56175    -60.5 1.367e+04 2.970e-09
 90.59485    -58.5 1.392e+04 3.411e-09
 90.61488    -59.6 1.385e+04 3.208e-09
 90.64188    -57.9 1.406e+04 3.686e-09
 90.68195    -56.3 1.436e+04 4.382e-09
 90.72201    -54.6 1.463e+04 5.187e-09
 90.75197    -53.5 1.477e+04 4.879e-09
 90.77190    -53.3 1.479e+04 5.060e-09
 90.78272    -52.4 1.486e+04 5.271e-09
 90.79274    -52.7 1.477e+04 4.137e-09
 90.81197    -52.3 1.475e+04 4.126e-09
 90.83200    -51.1 1.486e+04 3.987e-09
 90.85204    -50.6 1.491e+04 3.905e-09
 90.86674    -49.6 1.504e+04 3.886e-09
 90.87676    -49.8 1.491e+04 3.158e-09
 90.89210    -49.4 1.507e+04 3.004e-09
 90.91214    -49.2 1.530e+04 2.904e-09
 90.93217    -50.2 1.581e+04 3.725e-09
 90.95076    -51.7 1.589e+04 1.102e-08
 90.96077    -51.3 1.618e+04 4.329e-09
 90.97224    -51.9 1.579e+04 1.461e-08
 90.99227    -51.7 1.586e+04 3.662e-08
 91.01230    -51.4 1.610e+04 5.462e-08
 91.03234    -51.5 1.615e+04 5.718e-08
 91.04479    -51.8 1.595e+04 3.923e-08
 91.05481    -51.2 1.572e+04 2.963e-08
 91.07241    -51.4 1.565e+04 2.110e-08
 91.09244    -51.4 1.556e+04 1.559e-08
 91.11247    -51.3 1.549e+04 1.290e-08
 91.12881    -50.9 1.534e+04 1.078e-08
 91.13892    -50.7 1.532e+04 1.094e-08
 91.15264    -49.1 1.522e+04 9.189e-09
 91.17257    -48.9 1.521e+04 8.845e-09
 91.19245    -47.6 1.503e+04 7.573e-09
 91.20246    -48.2 1.493e+04 7.028e-09
 91.21264    -47.7 1.488e+04 6.836e-09
 91.22285    -46.4 1.477e+04 6.541e-09
 91.23286    -46.3 1.484e+04 7.000e-09
 91.25271    -45.6 1.472e+04 6.979e-09
 91.27274    -44.7 1.458e+04 7.154e-09
 91.29277    -44.1 1.443e+04 7.382e-09
 91.30696    -42.8 1.442e+04 7.880e-09
 91.31698    -43.0 1.437e+04 8.023e-09
 91.33284    -42.7 1.427e+04 8.214e-09
 91.36299    -41.4 1.431e+04 8.762e-09
 91.40315    -40.5 1.430e+04 9.127e-09
 91.44322    -39.8 1.413e+04 9.020e-09
 91.47510    -39.1 1.387e+04 7.827e-09
 91.49513    -38.9 1.369e+04 6.364e-09
 91.52336    -38.0 1.354e+04 4.964e-09
 91.56342    -36.9 1.345e+04 3.777e-09
 91.60349    -35.7 1.345e+04 2.988e-09
 91.64313    -34.4 1.353e+04 2.428e-09
 91.66317    -33.6 1.343e+04 2.601e-09
 91.68362    -32.3 1.352e+04 2.339e-09
 91.72369    -31.0 1.359e+04 2.232e-09
 91.76376    -29.7 1.363e+04 2.187e-09
 91.80383    -28.6 1.367e+04 2.158e-09
 91.83120    -27.6 1.371e+04 2.160e-09
 91.85124    -27.2 1.372e+04 2.173e-09
 91.88396    -26.3 1.374e+04 2.164e-09
 91.92403    -25.3 1.375e+04 2.160e-09
 91.96409    -24.2 1.377e+04 1.999e-09
 91.99924    -22.6 1.391e+04 1.524e-09
 92.01927    -22.1 1.383e+04 1.606e-09
 92.04423    -20.5 1.401e+04 1.149e-09
 92.08429    -18.9 1.407e+04 9.111e-10
 92.12436    -17.0 1.424e+04 8.335e-10
 92.16443    -15.1 1.430e+04 8.232e-10
 92.18731    -13.3 1.440e+04 9.239e-10
 92.20734    -12.9 1.439e+04 1.053e-09
 92.24456    -11.2 1.442e+04 1.347e-09
 92.28463     -9.8 1.460e+04 1.563e-09
 92.32470     -8.6 1.477e+04 1.755e-09
 92.35535     -7.6 1.484e+04 2.056e-09
 92.37538     -8.1 1.479e+04 2.884e-09
 92.40483     -7.3 1.465e+04 3.463e-09
 92.43478     -6.3 1.461e+04 3.743e-09
 92.44919     -6.2 1.445e+04 4.142e-09
 92.45920     -6.6 1.431e+04 4.340e-09
 92.47475     -6.1 1.430e+04 4.500e-09
 92.49479     -5.6 1.425e+04 4.361e-09
 92.51482     -5.3 1.424e+04 4.136e-09
 92.53320     -5.0 1.422e+04 3.951e-09
 92.54332     -5.5 1.408e+04 3.174e-09
 92.56510     -4.3 1.410e+04 2.841e-09
 92.59505     -3.6 1.420e+04 3.069e-09
 92.61499     -3.3 1.428e+04 3.077e-09
 92.62724     -3.2 1.439e+04 3.263e-09
 92.63726     -3.1 1.436e+04 2.935e-09
 92.65506     -3.3 1.436e+04 3.417e-09
 92.67509     -3.4 1.427e+04 4.551e-09
 92.69512     -3.4 1.418e+04 5.979e-09
 92.71126     -3.2 1.409e+04 7.272e-09
 92.72127     -3.2 1.399e+04 6.951e-09
 92.73519     -3.3 1.388e+04 7.414e-09
 92.76534     -2.7 1.368e+04 6.887e-09
 92.79830     -2.9 1.364e+04 6.912e-09
 92.81833     -5.3 1.356e+04 9.121e-09
 92.84557     -5.9 1.327e+04 5.739e-09
 92.87552     -5.1 1.316e+04 4.442e-09
 92.88931     -5.1 1.311e+04 4.387e-09
 92.89933     -4.3 1.313e+04 4.071e-09
 92.91549     -4.1 1.278e+04 3.905e-09
 92.93553     -3.9 1.270e+04 3.862e-09
 92.95556     -3.6 1.252e+04 3.951e-09
 92.97333     -3.0 1.227e+04 4.316e-09
 92.98335     -1.8 1.235e+04 4.635e-09
 92.99563     -0.7 1.265e+04 5.538e-09
 93.01566     -0.6 1.274e+04 5.953e-09
 93.03569     -0.7 1.243e+04 6.851e-09
 93.05573     -0.7 1.242e+04 7.884e-09
 93.06736     -0.5 1.238e+04 9.706e-09
 93.07738      0.3 1.269e+04 1.237e-08
 93.09579      0.4 1.276e+04 1.446e-08
 93.11583      0.7 1.289e+04 1.663e-08
 93.13586      0.9 1.293e+04 1.763e-08
 93.15138      1.0 1.284e+04 1.696e-08
 93.16140      1.3 1.338e+04 2.380e-08
 93.17593      1.3 1.300e+04 1.950e-08
 93.19596      1.3 1.263e+04 1.527e-08
 93.21599      1.2 1.235e+04 1.244e-08
 93.23540      1.2 1.224e+04 1.130e-08
 93.24542      0.8 1.263e+04 1.428e-08
 93.25606      0.9 1.269e+04 1.469e-08
 93.27610      0.8 1.294e+04 1.800e-08
 93.29613      0.8 1.325e+04 2.353e-08
 93.31616      0.7 1.373e+04 3.183e-08
 93.32944      0.6 1.428e+04 4.280e-08
 93.33945      0.2 1.472e+04 5.218e-08
 93.35623      0.2 1.526e+04 6.732e-08
 93.37626      0.3 1.554e+04 7.615e-08
 93.39630      0.0 1.548e+04 7.634e-08
 93.41345      0.1 1.478e+04 6.041e-08
 93.42347     -0.1 1.498e+04 6.195e-08
 93.43636      0.4 1.406e+04 4.293e-08
 93.45640      0.9 1.331e+04 3.021e-08
 93.47643      1.6 1.266e+04 2.172e-08
 93.49646      2.5 1.224e+04 1.702e-08
 93.50749      3.3 1.199e+04 1.461e-08
 93.51751      3.3 1.198e+04 1.408e-08
 93.53653      4.2 1.166e+04 1.255e-08
 93.55657      5.4 1.146e+04 1.175e-08
 93.57660      6.7 1.146e+04 1.174e-08
 93.59151      7.6 1.164e+04 1.284e-08
 93.60152      7.6 1.144e+04 1.145e-08
 93.61667      8.5 1.150e+04 1.232e-08
 93.63670      9.6 1.159e+04 1.334e-08
 93.65673     10.6 1.179e+04 1.483e-08
 93.67553     11.3 1.195e+04 1.609e-08
 93.68554     11.3 1.160e+04 1.351e-08
 93.69680     12.0 1.172e+04 1.456e-08
 93.71683     12.7 1.194e+04 1.576e-08
 93.73687     13.2 1.212e+04 1.702e-08
 93.75690     13.7 1.228e+04 1.809e-08
 93.76956     14.2 1.238e+04 1.872e-08
 93.77958     14.4 1.209e+04 1.664e-08
 93.79697     14.9 1.212e+04 1.694e-08
 93.81700     15.4 1.206e+04 1.630e-08
 93.83703     15.8 1.203e+04 1.545e-08
 93.85358     16.0 1.201e+04 1.510e-08
 93.86360     16.6 1.158e+04 1.217e-08
 93.87710     17.0 1.149e+04 1.171e-08
 93.89714     17.4 1.157e+04 1.188e-08
 93.91717     17.2 1.215e+04 1.463e-08
 93.93720     16.6 1.319e+04 2.241e-08
 93.94761     16.2 1.426e+04 3.970e-08
 93.95763     16.3 1.393e+04 2.933e-08
 93.97727     16.7 1.461e+04 4.711e-08
 93.99730     17.2 1.505e+04 6.241e-08
 94.01734     17.9 1.533e+04 7.322e-08
 94.03163     18.1 1.510e+04 6.732e-08
 94.04165     18.0 1.440e+04 4.630e-08
 94.05740     17.7 1.386e+04 3.340e-08
 94.07744     16.9 1.333e+04 2.435e-08
 94.09747     16.3 1.291e+04 1.979e-08
 94.11565     16.0 1.268e+04 1.757e-08
 94.12567     15.9 1.203e+04 1.237e-08
 94.13248     15.3 1.252e+04 1.473e-08
 94.14245     14.6 1.331e+04 1.722e-08
 94.15247     13.2 1.473e+04 2.384e-08
 94.16248     11.4 1.672e+04 4.077e-08
 94.16758      9.5 1.815e+04 8.643e-08
 94.17259      9.0 1.815e+04 7.962e-08
 94.18252      7.5 1.882e+04 1.727e-07
 94.19253      6.5 1.899e+04 3.388e-07
 94.20255      5.6 1.886e+04 5.452e-07
 94.20959      5.2 1.868e+04 6.567e-07
 94.21460      5.2 1.860e+04 6.027e-07
 94.22258      5.1 1.853e+04 6.095e-07
 94.23260      5.1 1.860e+04 5.561e-07
 94.24262      4.6 1.868e+04 4.137e-07
 94.25160      4.2 1.904e+04 2.581e-07
 94.25661      4.4 1.902e+04 2.340e-07
 94.26265      2.7 1.929e+04 1.314e-07
 94.27772      1.5 1.914e+04 9.545e-08
 94.29370     -1.6 1.768e+04 2.963e-08
 94.30372     -1.1 1.803e+04 2.591e-08
 94.31784     -4.1 1.430e+04 6.490e-09
 94.33787     -6.2 9.424e+03 2.966e-09
 94.35791     -6.0 8.614e+03 2.197e-09
 94.37772     -4.9 8.544e+03 2.014e-09
 94.38774     -4.7 8.568e+03 1.938e-09
 94.40809     -3.4 8.525e+03 1.724e-09
 94.44825     -1.3 8.164e+03 1.400e-09
 94.47195      0.7 8.128e+03 1.372e-09
 94.49199      0.6 8.103e+03 1.450e-09
 94.52839      2.3 8.117e+03 1.640e-09
 94.56845      3.9 8.428e+03 2.300e-09
 94.59841      5.0 8.766e+03 3.365e-09
 94.61834      5.0 8.820e+03 3.672e-09
 94.63838      5.7 9.022e+03 4.749e-09
 94.64981      6.3 9.162e+03 5.075e-09
 94.65983      6.1 9.105e+03 4.648e-09
 94.67844      6.6 9.181e+03 4.637e-09
 94.69848      6.9 9.183e+03 4.447e-09
 94.71851      7.1 9.173e+03 4.270e-09
 94.73383      7.2 9.345e+03 4.266e-09
 94.74385      6.3 9.348e+03 4.594e-09
 94.75858      5.7 9.661e+03 5.879e-09
 94.77861      4.8 1.007e+04 8.424e-09
 94.79864      4.2 1.055e+04 1.308e-08
 94.81785      4.4 1.118e+04 1.944e-08
 94.82787      4.0 1.202e+04 2.733e-08
 94.83871      5.0 1.274e+04 3.310e-08
 94.85875      5.6 1.320e+04 3.495e-08
 94.87878      5.8 1.324e+04 3.010e-08
 94.89881      5.5 1.281e+04 2.477e-08
 94.91188      4.9 1.214e+04 1.992e-08
 94.92190      3.3 1.163e+04 1.857e-08
 94.93888      3.5 1.101e+04 1.605e-08
 94.95891      4.1 1.072e+04 1.462e-08
 94.97895      4.8 1.058e+04 1.367e-08
 94.99590      5.6 1.054e+04 1.322e-08
 95.00592      5.0 1.048e+04 1.175e-08
 95.01901      5.5 1.073e+04 1.192e-08
 95.03905      5.8 1.112e+04 1.310e-08
 95.05908      5.9 1.153e+04 1.510e-08
 95.07911      5.5 1.228e+04 1.967e-08
 95.08994      4.7 1.323e+04 2.746e-08
 95.09995      3.2 1.303e+04 2.412e-08
 95.11918      2.4 1.395e+04 3.393e-08
 95.13922      1.6 1.450e+04 4.294e-08
 95.15925      1.3 1.467e+04 4.760e-08
 95.17396      1.1 1.457e+04 4.655e-08
 95.18397     -0.3 1.363e+04 2.884e-08
 95.19932     -0.4 1.301e+04 2.171e-08
 95.21935     -0.5 1.219e+04 1.518e-08
 95.23938      0.3 1.187e+04 1.307e-08
 95.25797      0.7 1.137e+04 1.003e-08
 95.26799     -1.0 1.039e+04 6.052e-09
 95.28956      0.3 1.057e+04 6.309e-09
 95.32973      2.3 1.016e+04 4.015e-09
 95.35220      4.9 9.721e+03 2.458e-09
 95.37224      3.6 8.873e+03 1.505e-09
 95.40986      6.1 8.696e+03 1.055e-09
 95.44993      8.8 8.668e+03 7.670e-10
 95.49000     11.5 8.716e+03 5.912e-10
 95.52024     14.1 8.772e+03 4.906e-10
 95.54027     13.6 8.759e+03 4.904e-10
 95.57013     16.4 8.830e+03 4.462e-10
 95.61020     19.1 8.874e+03 4.354e-10
 95.65027     21.6 9.118e+03 4.443e-10
 95.68828     23.9 9.116e+03 5.692e-10
 95.70831     23.5 9.109e+03 5.737e-10
 95.73040     26.1 9.087e+03 7.708e-10
 95.77047     28.8 9.229e+03 9.320e-10
 95.81053     31.2 9.416e+03 9.399e-10
 95.85060     33.3 9.639e+03 9.016e-10
 95.87635     34.3 9.878e+03 1.189e-09
 95.89638     33.2 1.002e+04 2.149e-09
 95.93074     34.3 1.064e+04 4.823e-09
 95.97080     34.3 1.194e+04 1.057e-08
 96.00076     31.5 1.330e+04 2.318e-08
 96.01944     31.0 1.378e+04 3.715e-08
 96.02945     30.6 1.419e+04 4.829e-08
 96.04072     30.7 1.466e+04 6.354e-08
 96.05421     31.0 1.499e+04 3.783e-08
 96.06422     29.5 1.503e+04 1.676e-08
 96.08079     25.1 1.518e+04 6.583e-09
 96.10083     20.9 1.312e+04 5.630e-09
 96.13097     19.9 1.288e+04 5.920e-09
 96.17114     17.9 1.283e+04 6.363e-09
 96.21121     15.8 1.281e+04 6.463e-09
 96.23236     14.6 1.266e+04 7.510e-09
 96.24228     14.3 1.264e+04 8.292e-09
 96.26109     14.2 1.274e+04 8.114e-09
 96.29124     13.4 1.255e+04 6.521e-09
 96.33141     12.7 1.239e+04 4.139e-09
 96.37147     12.4 1.211e+04 2.942e-09
 96.40049     13.4 1.187e+04 2.583e-09
 96.42052     12.9 1.215e+04 4.489e-09
 96.45161     14.3 1.211e+04 4.612e-09
 96.49167     15.6 1.210e+04 4.689e-09
 96.53174     16.6 1.207e+04 5.478e-09
 96.56853     17.9 1.199e+04 6.682e-09
 96.58856     16.9 1.191e+04 6.470e-09
 96.61188     18.4 1.175e+04 6.037e-09
 96.65194     19.7 1.179e+04 3.794e-09
 96.69201     20.3 1.164e+04 2.740e-09
 96.73208     21.7 1.132e+04 2.941e-09
 96.75660     22.7 1.141e+04 3.579e-09
 96.77663     23.2 1.132e+04 3.618e-09
 96.81221     23.8 1.189e+04 5.067e-09
 96.84052     21.3 1.322e+04 8.785e-09
 96.85044     22.0 1.302e+04 7.295e-09
 96.86210     19.2 1.364e+04 1.580e-08
 96.88213     19.3 1.378e+04 3.885e-08
 96.90217     20.4 1.428e+04 5.419e-08
 96.92220     20.3 1.432e+04 4.102e-08
 96.93446     19.4 1.374e+04 2.194e-08
 96.94447     20.2 1.371e+04 2.228e-08
 96.96227     18.6 1.296e+04 1.227e-08
 96.98230     18.0 1.244e+04 8.783e-09
 97.01245     17.6 1.179e+04 5.115e-09
 97.04250     17.7 1.143e+04 3.469e-09
 97.06244     18.0 1.116e+04 3.274e-09
 97.09257     19.1 1.103e+04 3.465e-09
 97.13274     21.3 1.062e+04 2.266e-09
 97.17282     23.3 1.044e+04 1.710e-09
 97.21288     25.2 1.016e+04 1.295e-09
 97.25295     26.9 1.019e+04 1.138e-09
 97.28074     28.8 1.011e+04 1.140e-09
 97.30077     29.7 1.010e+04 1.141e-09
 97.33308     31.7 1.007e+04 1.212e-09
 97.37315     33.5 1.009e+04 1.390e-09
 97.41322     35.1 1.020e+04 1.835e-09
 97.44878     36.5 1.042e+04 2.650e-09
 97.46881     37.4 1.031e+04 2.060e-09
 97.49335     38.5 1.052e+04 2.926e-09
 97.53342     39.6 1.066e+04 4.466e-09
 97.57349     40.9 1.077e+04 6.283e-09
 97.61355     42.4 1.079e+04 6.994e-09
 97.63685     44.0 1.070e+04 6.585e-09
 97.65688     45.4 1.068e+04 6.383e-09
 97.69369     46.9 1.066e+04 6.316e-09
 97.73375     48.4 1.058e+04 6.487e-09
 97.77382     49.9 1.050e+04 6.358e-09
 97.80488     51.5 1.036e+04 5.995e-09
 97.82492     52.7 1.058e+04 6.793e-09
 97.85396     54.3 1.030e+04 6.061e-09
 97.89402     56.1 9.972e+03 4.809e-09
 97.93409     57.9 9.663e+03 3.542e-09
 97.97292     59.9 9.395e+03 2.584e-09
 97.99296     60.9 9.519e+03 2.867e-09
 98.01422     62.9 9.315e+03 2.144e-09
 98.05429     65.1 9.208e+03 1.804e-09
 98.09436     67.5 9.138e+03 1.657e-09
 98.13443     70.0 9.103e+03 1.549e-09
 98.16099     72.6 9.135e+03 1.448e-09
 98.18103     73.5 9.188e+03 1.454e-09
 98.21456     76.1 9.219e+03 1.432e-09
 98.25463     78.6 9.308e+03 1.478e-09
 98.29469     81.0 9.473e+03 1.754e-09
 98.32903     83.3 9.797e+03 2.467e-09
 98.34906     84.4 9.780e+03 2.275e-09
 98.37483     86.3 1.010e+04 3.090e-09
 98.40478     86.8 1.016e+04 3.624e-09
 98.42287     87.6 1.021e+04 4.047e-09
 98.43288     88.2 1.022e+04 3.992e-09
 98.44475     89.1 1.032e+04 4.370e-09
 98.46478     90.0 1.045e+04 4.477e-09
 98.48482     90.7 1.057e+04 4.453e-09
 98.50485     91.1 1.070e+04 4.338e-09
 98.51690     91.2 1.083e+04 4.180e-09
 98.52692     92.0 1.088e+04 4.242e-09
 98.54492     92.0 1.098e+04 4.076e-09
 98.56495     92.1 1.099e+04 3.972e-09
 98.58499     92.2 1.108e+04 3.871e-09
 98.60092     92.6 1.101e+04 3.655e-09
 98.61094     93.4 1.097e+04 3.431e-09
 98.62505     93.8 1.086e+04 3.185e-09
 98.65520     94.7 1.079e+04 3.073e-09
 98.68514     96.0 1.054e+04 2.350e-09
 98.70517     97.7 1.057e+04 2.395e-09
 98.73543     99.7 1.055e+04 2.186e-09
 98.77550    101.6 1.068e+04 2.318e-09
 98.80545    102.9 1.081e+04 2.621e-09
 98.82539    103.8 1.098e+04 3.375e-09
 98.84542    104.7 1.123e+04 4.743e-09
 98.86299    105.5 1.152e+04 6.878e-09
 98.87301    106.5 1.151e+04 6.344e-09
 98.88549    107.3 1.187e+04 9.626e-09
 98.90552    108.0 1.223e+04 1.437e-08
 98.92556    108.9 1.271e+04 2.037e-08
 98.94559    109.7 1.309e+04 2.296e-08
 98.95703    110.3 1.312e+04 2.245e-08
 98.96705    111.1 1.339e+04 2.631e-08
 98.98566    111.6 1.336e+04 2.415e-08
 99.00569    112.4 1.323e+04 1.852e-08
 99.02572    112.8 1.308e+04 1.250e-08
 99.04105    112.9 1.289e+04 8.334e-09
 99.05106    113.9 1.302e+04 1.033e-08
 99.06579    113.7 1.269e+04 7.066e-09
 99.08582    113.4 1.220e+04 6.462e-09
 99.10586    113.0 1.224e+04 6.529e-09
 99.12507    112.0 1.280e+04 8.192e-09
 99.13508    114.1 1.228e+04 6.684e-09
 99.14592    112.8 1.304e+04 9.893e-09
 99.16596    110.5 1.448e+04 2.482e-08
 99.18599    107.6 1.588e+04 6.282e-08
 99.20602    105.4 1.653e+04 9.683e-08
 99.21905    104.1 1.693e+04 1.180e-07
 99.22401    105.4 1.711e+04 1.192e-07
 99.23097    103.6 1.711e+04 1.266e-07
 99.24067    102.0 1.702e+04 1.154e-07
 99.24568    100.1 1.837e+04 1.306e-07
 99.25100     96.0 1.970e+04 1.199e-07
 99.26101     91.9 1.963e+04 1.122e-07
 99.27103     89.6 1.891e+04 1.315e-07
 99.28105     88.6 1.679e+04 1.070e-07
 99.29107     88.2 1.556e+04 8.236e-08
 99.30109     88.0 1.500e+04 4.964e-08
 99.30803     87.5 1.494e+04 4.088e-08
 99.31304     87.4 1.509e+04 4.203e-08
 99.32618     86.9 1.541e+04 2.227e-08
 99.34626     85.9 1.538e+04 9.753e-09
 99.36629     84.8 1.391e+04 5.984e-09
 99.38633     84.6 1.245e+04 5.219e-09
 99.39715     85.4 1.221e+04 5.075e-09
 99.40717     85.1 1.214e+04 5.501e-09
 99.42639     86.1 1.216e+04 5.487e-09
 99.44643     87.0 1.217e+04 5.522e-09
 99.46646     88.0 1.220e+04 5.654e-09
 99.48117     88.8 1.229e+04 6.085e-09
 99.49119     88.3 1.227e+04 6.132e-09
 99.50653     88.9 1.240e+04 6.889e-09
 99.52656     89.4 1.270e+04 8.105e-09
 99.54660     89.8 1.325e+04 1.047e-08
 99.56519     89.5 1.387e+04 1.522e-08
 99.57521     88.3 1.365e+04 1.646e-08
 99.58666     88.1 1.423e+04 2.532e-08
 99.60670     87.8 1.502e+04 4.371e-08
 99.62673     87.7 1.605e+04 7.142e-08
 99.64676     87.3 1.659e+04 6.873e-08
 99.65923     86.3 1.684e+04 5.506e-08
 99.66924     85.8 1.579e+04 2.887e-08
 99.68683     84.6 1.531e+04 2.060e-08
 99.70686     83.5 1.454e+04 1.537e-08
 99.72690     82.9 1.395e+04 1.319e-08
 99.74324     83.0 1.369e+04 1.256e-08
 99.75326     83.8 1.360e+04 1.232e-08
 99.76696     84.3 1.354e+04 1.275e-08
 99.78700     85.1 1.361e+04 1.325e-08
 99.80703     85.8 1.373e+04 1.343e-08
 99.82706     86.6 1.377e+04 1.318e-08
 99.83728     87.3 1.382e+04 1.249e-08
 99.84730     87.7 1.391e+04 1.425e-08
 99.86713     88.3 1.391e+04 1.317e-08
 99.88717     88.9 1.391e+04 1.189e-08
 99.90720     89.6 1.386e+04 1.058e-08
 99.92130     90.2 1.375e+04 9.391e-09
 99.93131     90.2 1.382e+04 1.030e-08
 99.94727     90.9 1.370e+04 8.888e-09
 99.96730     91.6 1.354e+04 7.655e-09
 99.98733     92.2 1.340e+04 6.636e-09
100.00532     92.7 1.329e+04 5.812e-09
