# Columns:
#   distance along LOS (in CHIMPs)
#   peculiar velocity  (in km/s)
#   temperature (K)
#   HI number density
# pos=(184.191,232.283,111.915), angles=(1.50141,3.00315)
  0.00529     62.7 1.510e+04 6.529e-08
  0.02047     62.1 1.408e+04 4.034e-08
  0.04024     60.8 1.296e+04 1.818e-08
  0.06001     58.5 1.177e+04 9.359e-09
  0.07977     57.8 1.116e+04 8.394e-09
  0.09727     58.1 1.116e+04 8.532e-09
  0.10716     59.0 1.113e+04 9.437e-09
  0.11931     59.0 1.122e+04 9.852e-09
  0.13908     58.8 1.152e+04 1.156e-08
  0.15884     57.9 1.225e+04 1.677e-08
  0.17861     56.8 1.333e+04 3.009e-08
  0.19066     56.3 1.441e+04 5.442e-08
  0.20054     55.9 1.439e+04 5.046e-08
  0.21815     55.6 1.493e+04 7.244e-08
  0.23740     55.5 1.480e+04 7.028e-08
  0.24728     56.3 1.438e+04 5.982e-08
  0.25768     56.5 1.407e+04 5.392e-08
  0.27745     56.7 1.336e+04 3.982e-08
  0.29722     56.6 1.266e+04 2.678e-08
  0.31698     56.0 1.204e+04 1.879e-08
  0.33675     55.8 1.157e+04 1.517e-08
  0.35652     56.0 1.131e+04 1.369e-08
  0.37629     56.5 1.125e+04 1.299e-08
  0.38740     57.1 1.129e+04 1.314e-08
  0.39729     58.1 1.099e+04 1.134e-08
  0.41582     58.7 1.103e+04 1.134e-08
  0.43559     59.0 1.116e+04 1.170e-08
  0.45536     58.9 1.144e+04 1.300e-08
  0.46989     58.5 1.186e+04 1.615e-08
  0.47977     58.6 1.265e+04 2.359e-08
  0.49489     58.1 1.326e+04 3.073e-08
  0.51466     57.6 1.386e+04 3.710e-08
  0.52753     57.0 1.396e+04 3.661e-08
  0.53741     57.3 1.409e+04 4.058e-08
  0.55419     57.0 1.386e+04 3.445e-08
  0.57396     56.7 1.339e+04 2.241e-08
  0.59373     56.0 1.295e+04 1.383e-08
  0.61350     55.1 1.249e+04 1.016e-08
  0.63326     55.0 1.220e+04 9.639e-09
  0.65303     55.4 1.219e+04 9.618e-09
  0.66765     55.8 1.228e+04 9.909e-09
  0.67754     55.7 1.214e+04 7.922e-09
  0.69257     56.0 1.236e+04 8.477e-09
  0.71233     56.0 1.257e+04 9.528e-09
  0.73210     55.8 1.270e+04 1.101e-08
  0.74912     55.5 1.273e+04 1.260e-08
  0.75900     55.3 1.288e+04 1.539e-08
  0.77164     54.9 1.278e+04 1.520e-08
  0.79140     54.6 1.255e+04 1.354e-08
  0.80778     54.1 1.224e+04 1.098e-08
  0.81766     53.8 1.220e+04 1.094e-08
  0.83094     53.4 1.197e+04 8.817e-09
  0.85071     52.9 1.174e+04 6.888e-09
  0.87047     52.4 1.152e+04 5.512e-09
  0.89024     52.2 1.131e+04 4.614e-09
  0.91001     52.2 1.115e+04 3.984e-09
  0.92978     52.4 1.104e+04 3.490e-09
  0.94790     52.6 1.094e+04 3.132e-09
  0.95778     52.2 1.099e+04 3.161e-09
  0.96931     52.4 1.082e+04 3.041e-09
  0.98908     52.7 1.081e+04 3.103e-09
  1.00885     52.8 1.086e+04 3.453e-09
  1.02834     52.8 1.093e+04 4.277e-09
  1.03823     53.2 1.087e+04 3.778e-09
  1.04838     53.2 1.097e+04 5.040e-09
  1.06815     53.5 1.112e+04 6.766e-09
  1.08792     53.9 1.131e+04 8.320e-09
  1.09791     54.1 1.146e+04 9.194e-09
  1.10779     53.1 1.172e+04 9.862e-09
  1.12745     51.4 1.277e+04 1.209e-08
  1.14722     46.7 1.445e+04 2.631e-08
  1.16200     43.5 1.519e+04 4.796e-08
  1.16787     43.2 1.531e+04 6.742e-08
  1.17281     43.0 1.501e+04 7.595e-08
  1.17774     43.0 1.534e+04 9.140e-08
  1.18269     43.1 1.548e+04 9.851e-08
  1.19160     42.7 1.584e+04 1.071e-07
  1.20148     42.7 1.566e+04 1.005e-07
  1.21137     42.6 1.554e+04 8.430e-08
  1.22125     41.6 1.551e+04 5.730e-08
  1.23113     40.8 1.534e+04 4.879e-08
  1.23798     38.3 1.503e+04 2.773e-08
  1.24791     34.7 1.319e+04 1.251e-08
  1.26582     32.5 1.176e+04 9.985e-09
  1.28559     32.3 1.172e+04 9.962e-09
  1.30536     32.0 1.183e+04 1.050e-08
  1.31746     32.0 1.200e+04 1.149e-08
  1.32734     31.5 1.213e+04 1.300e-08
  1.34489     31.7 1.212e+04 1.294e-08
  1.36466     32.4 1.193e+04 1.149e-08
  1.37815     33.0 1.168e+04 8.660e-09
  1.38804     33.5 1.202e+04 7.231e-09
  1.40420     33.7 1.197e+04 5.070e-09
  1.42396     33.7 1.181e+04 3.520e-09
  1.44373     33.5 1.150e+04 2.896e-09
  1.46350     33.7 1.120e+04 2.594e-09
  1.48327     34.4 1.098e+04 2.484e-09
  1.50303     35.6 1.084e+04 2.482e-09
  1.51828     36.6 1.090e+04 2.585e-09
  1.52816     36.7 1.101e+04 2.597e-09
  1.54257     37.8 1.103e+04 2.852e-09
  1.56234     38.9 1.105e+04 3.321e-09
  1.58210     40.2 1.105e+04 3.831e-09
  1.59668     41.4 1.109e+04 4.410e-09
  1.60657     40.8 1.104e+04 4.618e-09
  1.62164     41.6 1.106e+04 5.442e-09
  1.64141     42.3 1.106e+04 6.780e-09
  1.65840     43.0 1.113e+04 8.616e-09
  1.66829     43.2 1.146e+04 8.618e-09
  1.68094     44.0 1.165e+04 1.111e-08
  1.70071     44.6 1.179e+04 1.389e-08
  1.72048     45.3 1.199e+04 1.647e-08
  1.74024     45.9 1.218e+04 1.830e-08
  1.76001     46.6 1.231e+04 1.870e-08
  1.77978     47.2 1.230e+04 1.797e-08
  1.79853     47.5 1.232e+04 1.713e-08
  1.80841     47.8 1.273e+04 2.280e-08
  1.81931     48.1 1.290e+04 2.289e-08
  1.83908     48.2 1.316e+04 2.371e-08
  1.85885     48.3 1.344e+04 2.529e-08
  1.87591     48.5 1.359e+04 2.654e-08
  1.88580     48.4 1.339e+04 2.402e-08
  1.89838     48.3 1.324e+04 2.410e-08
  1.91815     48.0 1.298e+04 2.424e-08
  1.93792     47.7 1.280e+04 2.522e-08
  1.94853     47.3 1.277e+04 2.733e-08
  1.95842     48.2 1.404e+04 3.563e-08
  1.97745     47.5 1.403e+04 3.919e-08
  1.99722     46.8 1.453e+04 4.564e-08
  2.01699     45.8 1.523e+04 5.371e-08
  2.03676     44.6 1.553e+04 5.526e-08
  2.05652     43.4 1.521e+04 5.034e-08
  2.07629     42.4 1.428e+04 3.985e-08
  2.08866     41.4 1.311e+04 2.967e-08
  2.09854     42.5 1.361e+04 2.909e-08
  2.11583     40.2 1.233e+04 1.607e-08
  2.13559     37.9 1.159e+04 1.113e-08
  2.15514     36.3 1.105e+04 9.291e-09
  2.16503     36.4 1.114e+04 9.326e-09
  2.17513     35.6 1.097e+04 9.230e-09
  2.19490     34.8 1.098e+04 9.768e-09
  2.21466     34.0 1.119e+04 1.104e-08
  2.22878     33.5 1.143e+04 1.284e-08
  2.23867     33.4 1.116e+04 1.112e-08
  2.25420     33.3 1.133e+04 1.220e-08
  2.27397     33.1 1.155e+04 1.316e-08
  2.29373     32.8 1.171e+04 1.350e-08
  2.31350     32.0 1.180e+04 1.415e-08
  2.33327     30.4 1.234e+04 2.126e-08
  2.35303     28.9 1.406e+04 3.648e-08
  2.36891     28.0 1.507e+04 5.880e-08
  2.37879     26.9 1.566e+04 6.340e-08
  2.39257     26.5 1.577e+04 6.150e-08
  2.41234     25.8 1.560e+04 4.905e-08
  2.43210     24.7 1.544e+04 3.765e-08
  2.44425     23.0 1.523e+04 2.667e-08
  2.45414     25.7 1.559e+04 3.624e-08
  2.47164     24.1 1.585e+04 3.217e-08
  2.49141     22.8 1.548e+04 3.090e-08
  2.50903     22.0 1.509e+04 3.098e-08
  2.51891     21.8 1.277e+04 1.666e-08
  2.53094     21.7 1.278e+04 1.752e-08
  2.55071     21.5 1.310e+04 2.011e-08
  2.57048     21.5 1.335e+04 2.405e-08
  2.59024     21.9 1.352e+04 2.815e-08
  2.61001     22.3 1.359e+04 3.027e-08
  2.62978     22.6 1.352e+04 3.058e-08
  2.64915     23.2 1.326e+04 2.830e-08
  2.65904     23.7 1.287e+04 1.460e-08
  2.66931     24.0 1.278e+04 1.396e-08
  2.68908     24.4 1.239e+04 1.264e-08
  2.70885     24.9 1.203e+04 1.160e-08
  2.72348     25.7 1.179e+04 9.993e-09
  2.73337     26.3 1.207e+04 1.224e-08
  2.74838     26.9 1.203e+04 1.089e-08
  2.76815     28.2 1.190e+04 8.786e-09
  2.78792     28.8 1.197e+04 7.252e-09
  2.79916     30.1 1.167e+04 5.573e-09
  2.80904     30.3 1.166e+04 5.234e-09
  2.82745     31.2 1.170e+04 4.754e-09
  2.84722     32.3 1.166e+04 4.248e-09
  2.86699     33.0 1.184e+04 4.047e-09
  2.88676     34.7 1.181e+04 3.638e-09
  2.90652     35.6 1.202e+04 3.685e-09
  2.92629     36.8 1.202e+04 3.581e-09
  2.93928     37.7 1.212e+04 3.566e-09
  2.94917     37.7 1.195e+04 3.412e-09
  2.96583     39.0 1.191e+04 3.388e-09
  2.98559     39.9 1.198e+04 3.481e-09
  3.00271     41.0 1.193e+04 3.622e-09
  3.01259     41.3 1.192e+04 3.486e-09
  3.02513     42.3 1.195e+04 3.726e-09
  3.04490     43.6 1.197e+04 4.010e-09
  3.06466     44.2 1.211e+04 4.313e-09
  3.07951     46.1 1.231e+04 4.775e-09
  3.09937     46.0 1.180e+04 4.187e-09
  3.13405     47.8 1.194e+04 4.355e-09
  3.17358     49.2 1.202e+04 4.241e-09
  3.21312     50.4 1.216e+04 3.841e-09
  3.25265     51.3 1.237e+04 3.362e-09
  3.29219     52.1 1.240e+04 3.169e-09
  3.33172     53.1 1.241e+04 3.372e-09
  3.35985     54.1 1.256e+04 4.378e-09
  3.36964     53.7 1.226e+04 3.557e-09
  3.38094     54.1 1.233e+04 3.679e-09
  3.40071     54.4 1.249e+04 3.933e-09
  3.42048     54.4 1.257e+04 4.404e-09
  3.44025     54.6 1.236e+04 5.286e-09
  3.46001     54.9 1.225e+04 6.064e-09
  3.47978     55.3 1.225e+04 6.120e-09
  3.49955     55.6 1.223e+04 5.961e-09
  3.50966     56.3 1.234e+04 4.706e-09
  3.51955     56.2 1.249e+04 3.982e-09
  3.53908     56.2 1.242e+04 3.994e-09
  3.56126     57.3 1.228e+04 3.026e-09
  3.58113     58.2 1.248e+04 2.729e-09
  3.60847     59.5 1.248e+04 1.825e-09
  3.64010     61.0 1.239e+04 1.453e-09
  3.65987     61.6 1.222e+04 1.614e-09
  3.68754     63.2 1.219e+04 1.407e-09
  3.72707     65.0 1.218e+04 1.314e-09
  3.76661     67.1 1.220e+04 1.322e-09
  3.80614     69.2 1.226e+04 1.347e-09
  3.84568     71.2 1.238e+04 1.411e-09
  3.88521     73.2 1.246e+04 1.551e-09
  3.92035     75.1 1.274e+04 1.629e-09
  3.94011     75.0 1.248e+04 1.471e-09
  3.96428     76.8 1.258e+04 1.473e-09
  4.00382     78.7 1.268e+04 1.472e-09
  4.04335     80.7 1.280e+04 1.485e-09
  4.08289     82.8 1.298e+04 1.526e-09
  4.11982     85.0 1.311e+04 1.654e-09
  4.13959     85.7 1.314e+04 1.894e-09
  4.16195     87.7 1.327e+04 2.182e-09
  4.20059     89.6 1.341e+04 2.577e-09
  4.22036     88.9 1.339e+04 2.826e-09
  4.24102     90.6 1.362e+04 2.962e-09
  4.28056     92.2 1.387e+04 2.987e-09
  4.32009     93.7 1.414e+04 2.941e-09
  4.35963     95.3 1.442e+04 2.818e-09
  4.39916     96.9 1.469e+04 2.638e-09
  4.43870     98.6 1.494e+04 2.481e-09
  4.47823    100.5 1.500e+04 2.502e-09
  4.50061    102.4 1.511e+04 2.639e-09
  4.52038    101.8 1.507e+04 3.680e-09
  4.55730    103.6 1.506e+04 4.420e-09
  4.59684    105.7 1.487e+04 5.117e-09
  4.63637    107.6 1.477e+04 5.587e-09
  4.67591    109.1 1.478e+04 5.584e-09
  4.69804    110.8 1.476e+04 5.166e-09
  4.71781    110.6 1.473e+04 5.351e-09
  4.75498    112.5 1.459e+04 4.687e-09
  4.78086    114.5 1.449e+04 4.116e-09
  4.80062    113.3 1.444e+04 3.627e-09
  4.83405    115.4 1.429e+04 3.460e-09
  4.87358    117.7 1.433e+04 3.555e-09
  4.91312    119.5 1.454e+04 3.966e-09
  4.94267    120.3 1.463e+04 3.982e-09
  4.96234    120.6 1.468e+04 3.896e-09
  4.97708    121.5 1.464e+04 3.862e-09
  4.98696    121.5 1.465e+04 4.293e-09
  5.00188    122.2 1.464e+04 4.563e-09
  5.02165    123.0 1.462e+04 5.110e-09
  5.04141    123.7 1.462e+04 5.786e-09
  5.06091    124.4 1.464e+04 6.600e-09
  5.07079    123.9 1.469e+04 6.983e-09
  5.08095    124.5 1.473e+04 8.209e-09
  5.10072    125.0 1.477e+04 9.685e-09
  5.12048    125.4 1.483e+04 1.139e-08
  5.14025    125.7 1.492e+04 1.302e-08
  5.16002    125.8 1.506e+04 1.381e-08
  5.17979    125.8 1.509e+04 1.359e-08
  5.19955    126.0 1.510e+04 1.254e-08
  5.21092    126.2 1.508e+04 1.047e-08
  5.22080    125.8 1.504e+04 1.043e-08
  5.23909    126.3 1.500e+04 7.943e-09
  5.25630    127.0 1.506e+04 5.954e-09
  5.26619    126.2 1.508e+04 5.866e-09
  5.27862    126.9 1.519e+04 4.700e-09
  5.29839    127.7 1.531e+04 4.043e-09
  5.31816    128.4 1.537e+04 3.712e-09
  5.33792    129.5 1.537e+04 3.579e-09
  5.35104    130.2 1.538e+04 3.499e-09
  5.36102    128.9 1.538e+04 3.016e-09
  5.38754    131.0 1.527e+04 3.100e-09
  5.41709    132.9 1.516e+04 3.133e-09
  5.43676    133.6 1.510e+04 3.214e-09
  5.45653    134.7 1.490e+04 3.444e-09
  5.47630    135.7 1.475e+04 3.767e-09
  5.49116    136.7 1.460e+04 4.219e-09
  5.50105    136.7 1.457e+04 3.955e-09
  5.51583    137.6 1.447e+04 4.273e-09
  5.53553    138.4 1.439e+04 4.603e-09
  5.55530    138.5 1.427e+04 5.970e-09
  5.57513    138.9 1.418e+04 6.527e-09
  5.59490    139.3 1.409e+04 7.369e-09
  5.61467    139.4 1.397e+04 8.916e-09
  5.63129    139.4 1.390e+04 1.086e-08
  5.64127    140.3 1.356e+04 6.505e-09
  5.66428    140.8 1.336e+04 1.032e-08
  5.70382    140.6 1.343e+04 1.469e-08
  5.74335    140.1 1.364e+04 1.663e-08
  5.78289    139.8 1.370e+04 1.746e-08
  5.81244    138.6 1.349e+04 1.549e-08
  5.82465    138.0 1.332e+04 1.387e-08
  5.83453    136.3 1.298e+04 1.069e-08
  5.85188    136.2 1.287e+04 9.743e-09
  5.87165    136.0 1.277e+04 8.785e-09
  5.89141    135.7 1.266e+04 7.857e-09
  5.91118    135.3 1.257e+04 7.114e-09
  5.92142    135.0 1.252e+04 6.632e-09
  5.93130    135.2 1.257e+04 5.487e-09
  5.95072    134.7 1.242e+04 5.279e-09
  5.97048    134.4 1.238e+04 5.289e-09
  5.99025    134.3 1.233e+04 5.374e-09
  6.01002    134.3 1.230e+04 5.539e-09
  6.02979    134.3 1.229e+04 5.719e-09
  6.04955    134.3 1.232e+04 5.929e-09
  6.06154    134.2 1.242e+04 6.323e-09
  6.07143    134.2 1.245e+04 6.716e-09
  6.08909    133.7 1.264e+04 8.563e-09
  6.10387    133.0 1.290e+04 1.232e-08
  6.11376    133.1 1.251e+04 7.802e-09
  6.12862    132.3 1.267e+04 1.045e-08
  6.14839    131.5 1.283e+04 1.356e-08
  6.16816    130.6 1.292e+04 1.568e-08
  6.18793    129.9 1.287e+04 1.584e-08
  6.20167    129.5 1.278e+04 1.468e-08
  6.21155    129.7 1.283e+04 1.441e-08
  6.22746    129.4 1.261e+04 1.081e-08
  6.24723    129.2 1.248e+04 8.030e-09
  6.26700    128.8 1.243e+04 6.212e-09
  6.28676    128.5 1.234e+04 5.265e-09
  6.30653    128.5 1.221e+04 5.143e-09
  6.32630    128.7 1.222e+04 5.180e-09
  6.34179    128.7 1.233e+04 5.477e-09
  6.35167    128.0 1.253e+04 5.780e-09
  6.36583    127.6 1.271e+04 7.082e-09
  6.38310    127.3 1.292e+04 9.045e-09
  6.39299    127.7 1.286e+04 8.957e-09
  6.40537    127.4 1.307e+04 1.069e-08
  6.42514    126.9 1.314e+04 1.090e-08
  6.44490    126.4 1.313e+04 1.054e-08
  6.46467    126.0 1.305e+04 9.099e-09
  6.48191    125.7 1.304e+04 6.777e-09
  6.49180    123.7 1.306e+04 4.374e-09
  6.50421    123.0 1.296e+04 3.473e-09
  6.53396    123.2 1.280e+04 2.421e-09
  6.57359    123.6 1.265e+04 1.733e-09
  6.61312    124.4 1.249e+04 1.637e-09
  6.65266    125.5 1.264e+04 1.655e-09
  6.69219    126.7 1.298e+04 1.777e-09
  6.73173    128.2 1.312e+04 2.059e-09
  6.76236    129.8 1.313e+04 2.447e-09
  6.78213    129.2 1.328e+04 2.893e-09
  6.81080    131.0 1.331e+04 3.120e-09
  6.85033    132.8 1.337e+04 3.221e-09
  6.88987    134.5 1.337e+04 3.207e-09
  6.92940    136.2 1.328e+04 3.201e-09
  6.95164    138.4 1.314e+04 3.279e-09
  6.96142    138.4 1.311e+04 3.216e-09
  6.97863    139.0 1.308e+04 3.308e-09
  7.00837    141.3 1.291e+04 3.643e-09
  7.04261    143.5 1.273e+04 4.249e-09
  7.06237    143.5 1.277e+04 3.581e-09
  7.08754    145.5 1.267e+04 4.094e-09
  7.12708    147.4 1.259e+04 4.583e-09
  7.16661    149.2 1.252e+04 4.983e-09
  7.20615    150.9 1.247e+04 5.264e-09
  7.24568    152.5 1.245e+04 5.400e-09
  7.28522    154.0 1.243e+04 5.375e-09
  7.32285    155.6 1.236e+04 5.118e-09
  7.34262    156.2 1.247e+04 5.214e-09
  7.36429    157.8 1.236e+04 4.959e-09
  7.40382    159.6 1.219e+04 4.362e-09
  7.44336    161.7 1.205e+04 3.746e-09
  7.48289    163.8 1.202e+04 3.439e-09
  7.51009    165.9 1.207e+04 3.440e-09
  7.52986    165.4 1.195e+04 3.324e-09
  7.56196    167.4 1.195e+04 3.335e-09
  7.60150    169.1 1.192e+04 3.327e-09
  7.62287    170.8 1.186e+04 3.232e-09
  7.64264    171.0 1.185e+04 3.479e-09
  7.68057    172.8 1.171e+04 3.208e-09
  7.72010    174.7 1.158e+04 2.797e-09
  7.75964    176.5 1.148e+04 2.308e-09
  7.79917    178.4 1.140e+04 1.825e-09
  7.83871    180.4 1.127e+04 1.427e-09
  7.87824    182.5 1.113e+04 1.153e-09
  7.90312    184.6 1.105e+04 9.778e-10
  7.92288    184.9 1.130e+04 1.244e-09
  7.95731    187.1 1.115e+04 1.097e-09
  7.99685    189.4 1.114e+04 1.084e-09
  8.03638    191.7 1.118e+04 1.147e-09
  8.06855    193.9 1.134e+04 1.375e-09
  8.08832    193.7 1.108e+04 1.265e-09
  8.11545    195.8 1.124e+04 1.524e-09
  8.15499    197.5 1.141e+04 1.770e-09
  8.18336    199.0 1.153e+04 2.018e-09
  8.19315    198.4 1.228e+04 3.532e-09
  8.20421    199.1 1.227e+04 3.636e-09
  8.22398    199.8 1.224e+04 3.623e-09
  8.24374    200.6 1.218e+04 3.558e-09
  8.26351    201.4 1.213e+04 3.447e-09
  8.28328    202.2 1.208e+04 3.354e-09
  8.30305    202.9 1.206e+04 3.335e-09
  8.32281    203.7 1.205e+04 3.358e-09
  8.33318    204.3 1.206e+04 3.442e-09
  8.34306    204.1 1.213e+04 3.506e-09
  8.35747    204.6 1.218e+04 3.607e-09
  8.36735    204.7 1.220e+04 3.814e-09
  8.38212    205.2 1.227e+04 4.039e-09
  8.40188    205.6 1.232e+04 4.255e-09
  8.42165    205.9 1.236e+04 4.427e-09
  8.44142    206.2 1.240e+04 4.549e-09
  8.46119    206.5 1.244e+04 4.632e-09
  8.47330    206.9 1.247e+04 4.721e-09
  8.48318    206.9 1.250e+04 3.867e-09
  8.50072    207.4 1.247e+04 4.058e-09
  8.52049    207.8 1.243e+04 4.393e-09
  8.54026    208.3 1.241e+04 4.910e-09
  8.56002    208.6 1.243e+04 5.615e-09
  8.57979    208.8 1.244e+04 6.448e-09
  8.59956    208.8 1.245e+04 7.284e-09
  8.61342    208.7 1.247e+04 8.022e-09
  8.62331    208.8 1.234e+04 6.463e-09
  8.63670    208.6 1.236e+04 6.700e-09
  8.64658    208.6 1.255e+04 8.357e-09
  8.65886    207.9 1.262e+04 8.638e-09
  8.67863    206.9 1.267e+04 8.808e-09
  8.69840    205.7 1.267e+04 8.859e-09
  8.71816    204.5 1.265e+04 8.841e-09
  8.73793    203.3 1.257e+04 8.758e-09
  8.75355    202.5 1.244e+04 8.496e-09
  8.76343    203.7 1.234e+04 7.065e-09
  8.77747    203.1 1.231e+04 7.316e-09
  8.79723    202.7 1.229e+04 7.459e-09
  8.81700    202.5 1.229e+04 7.447e-09
  8.83677    202.4 1.227e+04 7.324e-09
  8.85654    202.2 1.222e+04 7.118e-09
  8.87630    202.0 1.212e+04 6.859e-09
  8.89367    201.8 1.200e+04 6.653e-09
  8.90355    202.8 1.196e+04 6.618e-09
  8.91584    202.7 1.194e+04 6.481e-09
  8.93561    201.8 1.168e+04 6.194e-09
  8.95537    201.9 1.170e+04 6.272e-09
  8.97514    201.8 1.179e+04 6.633e-09
  8.99491    201.7 1.192e+04 7.416e-09
  9.01468    201.7 1.212e+04 8.820e-09
  9.03379    201.5 1.240e+04 1.115e-08
  9.04368    202.9 1.218e+04 8.877e-09
  9.05421    202.8 1.250e+04 1.143e-08
  9.07398    202.6 1.290e+04 1.499e-08
  9.09375    202.5 1.331e+04 1.939e-08
  9.11351    202.4 1.366e+04 2.443e-08
  9.13328    202.4 1.386e+04 2.975e-08
  9.15305    202.6 1.398e+04 3.642e-08
  9.17282    202.9 1.409e+04 4.456e-08
  9.18380    203.4 1.424e+04 5.261e-08
  9.19369    204.2 1.409e+04 3.132e-08
  9.20504    204.1 1.428e+04 3.543e-08
  9.20993    204.2 1.440e+04 4.219e-08
  9.21720    204.1 1.449e+04 4.552e-08
  9.22708    204.0 1.468e+04 5.497e-08
  9.23696    204.0 1.482e+04 6.792e-08
  9.24685    204.0 1.504e+04 8.437e-08
  9.25377    204.0 1.527e+04 1.012e-07
  9.25871    203.9 1.529e+04 7.192e-08
  9.26661    203.8 1.548e+04 8.783e-08
  9.27650    203.6 1.566e+04 1.050e-07
  9.28638    203.4 1.586e+04 1.218e-07
  9.29627    203.1 1.613e+04 1.373e-07
  9.30615    202.9 1.643e+04 1.491e-07
  9.31603    202.6 1.671e+04 1.537e-07
  9.32383    202.3 1.676e+04 1.527e-07
  9.32877    202.4 1.631e+04 1.239e-07
  9.33580    202.3 1.658e+04 1.319e-07
  9.34455    202.1 1.688e+04 1.330e-07
  9.34949    202.0 1.716e+04 1.604e-07
  9.35557    202.0 1.721e+04 1.508e-07
  9.36545    202.0 1.725e+04 1.368e-07
  9.37534    202.0 1.732e+04 1.212e-07
  9.38522    201.8 1.733e+04 1.040e-07
  9.39389    201.5 1.725e+04 9.075e-08
  9.39883    202.1 1.710e+04 9.902e-08
  9.40998    201.8 1.701e+04 7.809e-08
  9.42979    201.2 1.638e+04 5.841e-08
  9.44956    200.4 1.542e+04 4.571e-08
  9.46405    199.5 1.450e+04 3.874e-08
  9.47393    201.9 1.721e+04 7.001e-08
  9.48426    200.9 1.609e+04 5.047e-08
  9.49415    200.6 1.603e+04 5.846e-08
  9.50886    199.7 1.506e+04 4.592e-08
  9.52863    198.8 1.419e+04 3.447e-08
  9.54840    198.1 1.341e+04 2.430e-08
  9.56817    197.6 1.268e+04 1.629e-08
  9.58793    197.2 1.214e+04 1.078e-08
  9.60417    196.7 1.178e+04 7.555e-09
  9.61406    197.5 1.198e+04 9.615e-09
  9.62747    197.1 1.164e+04 7.106e-09
  9.64724    196.9 1.154e+04 6.094e-09
  9.66700    196.9 1.151e+04 5.795e-09
  9.68677    197.1 1.149e+04 5.694e-09
  9.70654    197.3 1.148e+04 5.617e-09
  9.72631    197.6 1.151e+04 5.523e-09
  9.74430    198.0 1.156e+04 5.406e-09
  9.75418    198.6 1.170e+04 6.371e-09
  9.76349    199.0 1.176e+04 6.271e-09
  9.77338    198.0 1.192e+04 6.794e-09
  9.78561    198.5 1.193e+04 6.567e-09
  9.80538    199.0 1.190e+04 6.386e-09
  9.82514    199.5 1.185e+04 6.241e-09
  9.84491    200.0 1.179e+04 6.135e-09
  9.86468    200.5 1.175e+04 6.082e-09
  9.88442    200.8 1.174e+04 6.085e-09
  9.90419    202.1 1.210e+04 8.391e-09
  9.92398    202.0 1.213e+04 8.838e-09
  9.94375    201.9 1.219e+04 9.676e-09
  9.96352    201.6 1.230e+04 1.104e-08
  9.98328    201.3 1.245e+04 1.291e-08
 10.00305    200.9 1.261e+04 1.490e-08
 10.02282    200.4 1.279e+04 1.626e-08
 10.03443    199.8 1.294e+04 1.636e-08
 10.04431    200.4 1.354e+04 2.319e-08
 10.05261    199.4 1.363e+04 2.311e-08
 10.06249    196.7 1.360e+04 2.156e-08
 10.08212    195.3 1.352e+04 1.940e-08
 10.10189    193.8 1.328e+04 1.695e-08
 10.12166    192.3 1.293e+04 1.472e-08
 10.14142    191.1 1.258e+04 1.300e-08
 10.16119    190.2 1.232e+04 1.181e-08
 10.17455    189.4 1.217e+04 1.120e-08
 10.18444    189.4 1.212e+04 1.089e-08
 10.20073    188.9 1.212e+04 1.091e-08
 10.22049    188.3 1.215e+04 1.120e-08
 10.24026    187.7 1.229e+04 1.262e-08
 10.26003    187.1 1.256e+04 1.556e-08
 10.27980    186.5 1.290e+04 1.940e-08
 10.29956    185.9 1.327e+04 2.363e-08
 10.31468    185.1 1.358e+04 2.596e-08
 10.32456    185.7 1.448e+04 4.061e-08
 10.33183    184.4 1.458e+04 4.069e-08
 10.34172    183.4 1.439e+04 3.838e-08
 10.35887    181.9 1.429e+04 3.596e-08
 10.37863    180.7 1.381e+04 2.880e-08
 10.39840    179.8 1.309e+04 2.085e-08
 10.41817    179.0 1.236e+04 1.538e-08
 10.43794    178.3 1.203e+04 1.381e-08
 10.45480    178.1 1.203e+04 1.386e-08
 10.46468    178.3 1.239e+04 1.684e-08
 10.47747    178.4 1.245e+04 1.741e-08
 10.49724    178.4 1.257e+04 1.843e-08
 10.51701    178.5 1.268e+04 1.914e-08
 10.53677    178.5 1.273e+04 1.922e-08
 10.55654    178.4 1.272e+04 1.907e-08
 10.57631    178.2 1.278e+04 1.891e-08
 10.59492    177.4 1.302e+04 1.991e-08
 10.60481    178.0 1.364e+04 2.596e-08
 10.61085    174.9 1.468e+04 2.935e-08
 10.61591    172.5 1.534e+04 3.369e-08
 10.62090    171.8 1.459e+04 2.606e-08
 10.63561    162.4 1.757e+04 7.478e-08
 10.65538    153.6 1.875e+04 1.690e-07
 10.67515    146.5 1.872e+04 1.705e-07
 10.69491    140.6 1.824e+04 9.758e-08
 10.71468    133.1 1.755e+04 2.265e-08
 10.73445    119.7 1.280e+04 7.916e-09
 10.74493    109.7 1.122e+04 8.905e-09
 10.75482    111.6 1.108e+04 8.331e-09
 10.77398    106.9 1.103e+04 1.191e-08
 10.79375    105.0 1.205e+04 2.020e-08
 10.81352    102.9 1.299e+04 2.591e-08
 10.83329     99.7 1.318e+04 2.572e-08
 10.85305     96.0 1.306e+04 2.308e-08
 10.87282     92.3 1.250e+04 1.943e-08
 10.88506     89.0 1.189e+04 1.733e-08
 10.89264     91.2 1.209e+04 1.806e-08
 10.90017     90.4 1.255e+04 2.207e-08
 10.91236     87.7 1.227e+04 2.096e-08
 10.93212     85.5 1.228e+04 2.085e-08
 10.95189     83.5 1.228e+04 2.066e-08
 10.97166     81.5 1.222e+04 2.011e-08
 10.99143     79.6 1.192e+04 1.848e-08
 11.01119     77.9 1.140e+04 1.556e-08
 11.02518     76.0 1.066e+04 1.101e-08
 11.03506     77.0 1.107e+04 1.325e-08
 11.05073     75.5 1.034e+04 9.742e-09
 11.08048     73.2 9.741e+03 7.454e-09
 11.12011     70.9 9.213e+03 6.667e-09
 11.15964     69.4 9.397e+03 7.503e-09
 11.18920     68.1 9.689e+03 8.809e-09
 11.20887     67.4 9.948e+03 1.008e-08
 11.22863     66.8 1.021e+04 1.137e-08
 11.24840     66.4 1.046e+04 1.264e-08
 11.26817     66.1 1.064e+04 1.373e-08
 11.28794     66.0 1.082e+04 1.472e-08
 11.30543     65.7 1.107e+04 1.585e-08
 11.31531     64.9 1.051e+04 1.266e-08
 11.32747     64.0 1.097e+04 1.407e-08
 11.34724     59.6 1.335e+04 2.348e-08
 11.36701     51.7 1.690e+04 7.058e-08
 11.38038     48.2 1.798e+04 1.307e-07
 11.38528     47.7 1.736e+04 1.152e-07
 11.39162     45.7 1.773e+04 1.436e-07
 11.40150     44.6 1.816e+04 1.400e-07
 11.41139     42.4 1.853e+04 1.312e-07
 11.42127     39.7 1.902e+04 1.077e-07
 11.43115     34.9 1.937e+04 9.855e-08
 11.44104     30.2 1.948e+04 9.145e-08
 11.45040     22.6 1.951e+04 1.210e-07
 11.45534     21.3 1.985e+04 1.213e-07
 11.45853     16.5 2.121e+04 2.216e-07
 11.46348     17.4 2.154e+04 1.626e-07
 11.47069     11.0 2.000e+04 6.518e-07
 11.48057     10.6 1.759e+04 3.879e-06
 11.49046     13.2 1.627e+04 1.552e-05
 11.50034     11.4 1.630e+04 1.454e-05
 11.51022     13.6 1.814e+04 2.450e-06
 11.52011     11.6 1.989e+04 4.405e-07
 11.52540      7.2 1.904e+04 1.340e-07
 11.53034      6.9 1.900e+04 9.591e-08
 11.54487      3.3 1.605e+04 5.172e-08
 11.56468      0.2 1.210e+04 1.765e-08
 11.58445      0.7 1.097e+04 1.249e-08
 11.59556      1.8 1.055e+04 9.386e-09
 11.60544      1.9 1.054e+04 9.957e-09
 11.62398      2.9 1.027e+04 7.892e-09
 11.64375      3.7 1.019e+04 6.622e-09
 11.66352      3.9 9.864e+03 5.270e-09
 11.68329      4.1 9.745e+03 4.991e-09
 11.70305      4.4 9.890e+03 5.342e-09
 11.72282      4.5 1.009e+04 6.165e-09
 11.73568      4.1 1.058e+04 7.824e-09
 11.74084      4.0 1.084e+04 9.014e-09
 11.74774      5.4 1.066e+04 7.812e-09
 11.76236      3.9 1.165e+04 1.234e-08
 11.78212      2.6 1.251e+04 2.102e-08
 11.80189      2.1 1.315e+04 3.228e-08
 11.82166      2.7 1.392e+04 3.921e-08
 11.84143      0.3 1.450e+04 3.775e-08
 11.86119     -3.8 1.414e+04 3.343e-08
 11.87581     -6.9 1.367e+04 3.428e-08
 11.88569     -8.2 1.417e+04 4.238e-08
 11.90073     -9.5 1.419e+04 4.426e-08
 11.92050    -10.4 1.388e+04 3.631e-08
 11.94026    -11.7 1.323e+04 2.683e-08
 11.96003    -12.8 1.264e+04 2.068e-08
 11.97980    -13.4 1.227e+04 1.776e-08
 11.99957    -13.6 1.215e+04 1.666e-08
 12.01719    -14.2 1.209e+04 1.583e-08
 12.03705    -13.7 1.206e+04 1.550e-08
 12.06895    -13.2 1.213e+04 1.610e-08
 12.10848    -12.6 1.192e+04 1.444e-08
 12.13804    -12.3 1.153e+04 1.088e-08
 12.15605    -11.6 1.138e+04 9.570e-09
 12.16594    -11.9 1.135e+04 9.262e-09
 12.17747    -11.4 1.102e+04 7.071e-09
 12.19724    -10.9 1.086e+04 5.931e-09
 12.21701    -10.6 1.061e+04 4.982e-09
 12.23678     -9.9 1.056e+04 4.662e-09
 12.25654     -9.5 1.049e+04 4.394e-09
 12.27631     -8.8 1.047e+04 4.337e-09
 12.30606     -8.2 1.061e+04 4.398e-09
 12.34569     -7.2 1.081e+04 4.767e-09
 12.38523     -6.6 1.104e+04 5.960e-09
 12.42476     -6.1 1.134e+04 7.880e-09
 12.44638     -5.5 1.163e+04 9.269e-09
 12.46615     -6.2 1.164e+04 8.821e-09
 12.50383     -6.1 1.164e+04 8.662e-09
 12.54337     -5.9 1.142e+04 5.684e-09
 12.57574     -6.4 1.120e+04 3.414e-09
 12.59551     -5.6 1.115e+04 3.480e-09
 12.62244     -5.8 1.111e+04 3.040e-09
 12.66197     -5.8 1.122e+04 3.457e-09
 12.70151     -5.6 1.133e+04 4.143e-09
 12.72663     -5.4 1.144e+04 4.176e-09
 12.74640     -6.9 1.151e+04 3.264e-09
 12.78058     -6.9 1.155e+04 2.237e-09
 12.82011     -6.9 1.151e+04 1.808e-09
 12.85965     -6.7 1.162e+04 1.740e-09
 12.89918     -8.5 1.219e+04 2.399e-09
 12.93872    -10.8 1.262e+04 5.865e-09
 12.97825    -12.0 1.299e+04 1.019e-08
 13.00688    -13.7 1.277e+04 9.239e-09
 13.02664    -14.7 1.228e+04 4.334e-09
 13.05732    -15.9 1.208e+04 1.928e-09
 13.09686    -16.2 1.170e+04 1.370e-09
 13.13420    -15.1 1.159e+04 1.232e-09
 13.15396    -13.4 1.168e+04 1.336e-09
 13.17593    -12.4 1.158e+04 1.278e-09
 13.21546    -11.2 1.159e+04 1.408e-09
 13.25500    -10.1 1.166e+04 1.589e-09
 13.28712     -8.9 1.189e+04 1.759e-09
 13.30689     -8.0 1.176e+04 1.867e-09
 13.33407     -7.1 1.199e+04 2.548e-09
 13.37360     -6.6 1.214e+04 2.906e-09
 13.41314     -6.3 1.213e+04 3.089e-09
 13.45267     -5.8 1.206e+04 3.025e-09
 13.49221     -5.1 1.186e+04 2.585e-09
 13.53174     -4.1 1.174e+04 2.207e-09
 13.56737     -3.1 1.173e+04 1.985e-09
 13.58714     -2.7 1.195e+04 3.242e-09
 13.60083     -2.0 1.203e+04 2.971e-09
 13.62050     -2.1 1.193e+04 3.171e-09
 13.64027     -1.4 1.212e+04 4.247e-09
 13.66004     -1.7 1.199e+04 4.865e-09
 13.67980     -0.7 1.225e+04 6.003e-09
 13.69957     -0.6 1.225e+04 6.248e-09
 13.71223     -0.1 1.232e+04 6.175e-09
 13.71995     -0.3 1.224e+04 5.756e-09
 13.72707     -0.2 1.239e+04 5.733e-09
 13.73911      0.1 1.230e+04 4.929e-09
 13.76885     -0.1 1.206e+04 3.771e-09
 13.80849      0.1 1.199e+04 2.718e-09
 13.84762      0.2 1.197e+04 2.525e-09
 13.86739     -0.0 1.220e+04 2.953e-09
 13.88756     -0.1 1.221e+04 3.593e-09
 13.92709     -0.4 1.217e+04 3.711e-09
 13.96663     -0.6 1.210e+04 3.103e-09
 14.00616     -0.9 1.202e+04 2.314e-09
 14.04570     -1.1 1.193e+04 2.163e-09
 14.08523     -1.2 1.205e+04 2.438e-09
 14.12477     -1.3 1.213e+04 3.266e-09
 14.14763     -1.4 1.228e+04 3.764e-09
 14.16740     -0.9 1.208e+04 3.622e-09
 14.20384     -1.7 1.225e+04 3.645e-09
 14.24337     -3.0 1.235e+04 3.800e-09
 14.27088     -4.6 1.241e+04 4.521e-09
 14.29064     -3.2 1.223e+04 3.662e-09
 14.32244     -4.4 1.236e+04 5.403e-09
 14.36198     -5.3 1.241e+04 5.843e-09
 14.40151     -6.2 1.225e+04 3.561e-09
 14.42788     -6.8 1.219e+04 1.692e-09
 14.44765     -6.4 1.213e+04 1.704e-09
 14.48058     -6.5 1.212e+04 1.114e-09
 14.52012     -6.2 1.202e+04 8.440e-10
 14.55965     -5.8 1.201e+04 7.688e-10
 14.59919     -5.7 1.222e+04 8.362e-10
 14.63872     -7.8 1.231e+04 1.963e-09
 14.67826    -10.6 1.327e+04 6.495e-09
 14.70781    -13.7 1.398e+04 1.291e-08
 14.71782    -16.2 1.425e+04 1.738e-08
 14.72770    -16.0 1.399e+04 1.317e-08
 14.74725    -18.3 1.391e+04 1.338e-08
 14.76701    -19.9 1.335e+04 8.869e-09
 14.78678    -21.2 1.300e+04 4.357e-09
 14.80655    -22.7 1.281e+04 2.437e-09
 14.82924    -23.8 1.246e+04 1.793e-09
 14.84910    -23.4 1.246e+04 2.045e-09
 14.87593    -23.5 1.211e+04 1.749e-09
 14.91547    -22.5 1.190e+04 1.461e-09
 14.95500    -21.3 1.185e+04 1.134e-09
 14.98838    -19.9 1.183e+04 8.377e-10
 15.00814    -19.0 1.182e+04 8.206e-10
 15.03407    -17.5 1.181e+04 6.302e-10
 15.07361    -15.9 1.178e+04 5.038e-10
 15.11314    -14.1 1.175e+04 4.178e-10
 15.15268    -12.2 1.177e+04 3.599e-10
 15.19221    -10.2 1.182e+04 3.293e-10
 15.23175     -8.4 1.186e+04 3.215e-10
 15.26862     -6.8 1.193e+04 3.622e-10
 15.28839     -6.2 1.182e+04 4.469e-10
 15.31082     -4.7 1.175e+04 5.802e-10
 15.35035     -3.0 1.168e+04 8.053e-10
 15.38779     -1.4 1.164e+04 1.068e-09
 15.40756     -1.5 1.153e+04 1.227e-09
 15.42942      0.0 1.152e+04 1.423e-09
 15.46896      1.3 1.153e+04 1.521e-09
 15.50849      2.5 1.161e+04 1.634e-09
 15.54803      3.5 1.166e+04 1.876e-09
 15.56864      4.3 1.171e+04 2.320e-09
 15.58841      4.5 1.161e+04 2.176e-09
 15.62710      5.3 1.168e+04 2.426e-09
 15.66663      6.1 1.165e+04 2.353e-09
 15.70617      7.5 1.165e+04 1.575e-09
 15.74570      8.9 1.184e+04 7.893e-10
 15.78524     10.1 1.168e+04 5.163e-10
 15.82477     12.0 1.163e+04 4.552e-10
 15.84889     13.9 1.196e+04 4.667e-10
 15.86866     14.2 1.206e+04 4.759e-10
 15.90384     13.6 1.227e+04 9.833e-10
 15.94337     15.4 1.199e+04 4.075e-09
 15.96601     17.1 1.266e+04 8.464e-09
 15.98578     18.1 1.224e+04 5.048e-09
 16.02244     18.3 1.256e+04 5.642e-09
 16.06198     17.9 1.291e+04 4.481e-09
 16.10151     17.5 1.285e+04 4.739e-09
 16.12914     17.9 1.278e+04 5.364e-09
 16.14890     17.5 1.282e+04 5.264e-09
 16.18058     18.8 1.286e+04 3.262e-09
 16.22012     19.6 1.315e+04 1.620e-09
 16.25965     20.3 1.328e+04 1.086e-09
 16.29919     21.8 1.329e+04 9.874e-10
 16.33872     23.3 1.347e+04 9.307e-10
 16.37826     24.8 1.345e+04 8.830e-10
 16.40938     26.5 1.334e+04 7.787e-10
 16.42915     26.6 1.326e+04 7.739e-10
 16.45733     28.3 1.332e+04 7.072e-10
 16.49686     30.0 1.326e+04 6.926e-10
 16.52447     31.9 1.316e+04 6.724e-10
 16.54424     32.6 1.327e+04 6.859e-10
 16.57593     34.4 1.314e+04 6.917e-10
 16.61547     36.4 1.312e+04 6.883e-10
 16.65500     38.3 1.313e+04 6.774e-10
 16.68963     40.2 1.315e+04 6.708e-10
 16.70940     40.4 1.305e+04 6.509e-10
 16.73407     42.2 1.306e+04 6.889e-10
 16.77361     44.0 1.309e+04 7.586e-10
 16.81314     45.6 1.309e+04 8.873e-10
 16.85268     47.1 1.306e+04 1.099e-09
 16.89221     48.4 1.305e+04 1.441e-09
 16.93175     49.4 1.329e+04 1.931e-09
 16.96130     49.5 1.347e+04 2.474e-09
 16.97957     49.1 1.358e+04 3.515e-09
 16.98945     49.3 1.353e+04 3.674e-09
 17.00074     48.9 1.352e+04 5.785e-09
 17.02051     48.7 1.363e+04 8.338e-09
 17.04027     48.1 1.393e+04 8.981e-09
 17.06004     47.7 1.388e+04 7.981e-09
 17.07981     47.7 1.380e+04 4.972e-09
 17.09262     46.5 1.404e+04 3.238e-09
 17.10250     46.4 1.415e+04 3.236e-09
 17.12933     46.1 1.372e+04 2.026e-09
 17.16896     45.8 1.350e+04 1.434e-09
 17.20849     46.3 1.338e+04 1.354e-09
 17.24803     47.0 1.338e+04 1.391e-09
 17.26989     47.4 1.340e+04 1.597e-09
 17.28966     46.9 1.352e+04 1.715e-09
 17.32710     47.0 1.364e+04 2.341e-09
 17.36663     47.3 1.376e+04 3.018e-09
 17.40617     47.2 1.380e+04 3.054e-09
 17.44570     47.0 1.376e+04 2.778e-09
 17.48524     46.4 1.382e+04 2.544e-09
 17.52477     45.7 1.378e+04 2.554e-09
 17.55014     45.1 1.371e+04 2.693e-09
 17.56991     43.3 1.368e+04 2.829e-09
 17.60384     42.4 1.347e+04 3.291e-09
 17.64138     41.3 1.328e+04 4.640e-09
 17.66115     42.7 1.344e+04 4.787e-09
 17.68291     41.6 1.346e+04 9.137e-09
 17.72245     40.5 1.340e+04 1.217e-08
 17.76198     39.9 1.298e+04 1.052e-08
 17.80152     40.0 1.237e+04 6.504e-09
 17.83039     40.1 1.212e+04 3.408e-09
 17.85016     38.2 1.210e+04 1.480e-09
 17.88059     38.5 1.188e+04 1.226e-09
 17.92012     39.4 1.173e+04 1.343e-09
 17.95966     40.7 1.161e+04 1.666e-09
 17.99919     42.3 1.161e+04 1.862e-09
 18.03873     44.0 1.167e+04 1.866e-09
 18.07826     45.6 1.182e+04 1.890e-09
 18.11064     47.0 1.206e+04 2.001e-09
 18.13040     45.6 1.176e+04 1.641e-09
 18.15733     46.6 1.192e+04 2.000e-09
 18.18689     47.4 1.227e+04 2.683e-09
 18.20656     47.7 1.232e+04 2.958e-09
 18.21941     48.3 1.238e+04 3.372e-09
 18.22930     48.5 1.245e+04 3.762e-09
 18.24609     48.8 1.267e+04 4.436e-09
 18.26045     48.8 1.290e+04 5.067e-09
 18.27033     47.8 1.288e+04 5.100e-09
 18.28563     47.2 1.321e+04 6.003e-09
 18.30539     45.0 1.397e+04 9.622e-09
 18.32516     41.4 1.516e+04 3.079e-08
 18.34493     38.8 1.642e+04 8.663e-08
 18.36470     36.1 1.652e+04 8.718e-08
 18.38446     33.8 1.594e+04 4.806e-08
 18.40057     28.6 1.534e+04 2.041e-08
 18.41046     27.7 1.446e+04 1.036e-08
 18.43398     24.4 1.311e+04 5.752e-09
 18.47361     23.1 1.264e+04 3.975e-09
 18.51315     23.0 1.241e+04 3.156e-09
 18.55268     23.7 1.208e+04 3.156e-09
 18.59222     24.3 1.208e+04 3.691e-09
 18.63175     25.1 1.214e+04 4.209e-09
 18.67113     25.7 1.215e+04 4.146e-09
 18.71067     25.0 1.217e+04 4.629e-09
 18.75036     23.0 1.259e+04 6.227e-09
 18.77807     22.1 1.195e+04 1.173e-08
 18.79783     22.5 1.193e+04 1.184e-08
 18.81945     23.2 1.177e+04 7.489e-09
 18.83083     23.0 1.147e+04 6.352e-09
 18.84071     22.7 1.146e+04 5.709e-09
 18.86886     22.9 1.134e+04 2.338e-09
 18.90850     22.2 1.098e+04 1.003e-09
 18.94803     22.5 1.058e+04 7.078e-10
 18.97115     23.6 1.066e+04 5.295e-10
 18.99091     23.4 1.070e+04 5.852e-10
 19.02710     24.0 1.045e+04 5.743e-10
 19.06664     24.9 1.027e+04 5.999e-10
 19.10617     26.0 1.022e+04 5.857e-10
 19.14571     26.7 1.022e+04 5.590e-10
 19.18524     27.2 1.010e+04 5.700e-10
 19.22478     27.8 9.998e+03 5.624e-10
 19.25139     28.5 9.953e+03 5.240e-10
 19.27116     28.6 9.950e+03 5.339e-10
 19.30385     29.3 9.933e+03 5.100e-10
 19.33652     30.2 9.905e+03 5.225e-10
 19.35629     30.8 9.897e+03 5.617e-10
 19.38292     31.9 9.845e+03 6.235e-10
 19.42245     33.1 9.818e+03 6.708e-10
 19.46199     34.4 9.832e+03 6.583e-10
 19.50152     35.8 9.886e+03 5.886e-10
 19.53164     36.8 9.978e+03 5.252e-10
 19.55141     37.2 9.860e+03 6.193e-10
 19.58059     38.2 9.917e+03 5.987e-10
 19.62013     38.9 1.014e+04 6.835e-10
 19.65966     38.8 1.032e+04 1.324e-09
 19.69920     39.6 1.051e+04 2.872e-09
 19.73873     39.9 1.086e+04 3.565e-09
 19.77827     40.2 1.086e+04 3.086e-09
 19.81189     40.5 1.083e+04 2.302e-09
 19.83166     40.6 1.109e+04 3.744e-09
 19.85734     41.2 1.124e+04 3.490e-09
 19.88689     41.2 1.143e+04 3.299e-09
 19.90467     40.9 1.159e+04 4.021e-09
 19.91455     41.4 1.149e+04 3.784e-09
 19.92633     41.4 1.165e+04 5.237e-09
 19.94609     41.5 1.190e+04 7.357e-09
 19.96170     41.6 1.216e+04 9.647e-09
 19.97159     41.6 1.272e+04 1.704e-08
 19.98563     41.6 1.301e+04 1.738e-08
 20.00540     41.6 1.304e+04 1.571e-08
 20.02516     41.3 1.316e+04 1.270e-08
 20.04493     40.2 1.340e+04 1.073e-08
 20.06470     38.5 1.363e+04 1.054e-08
 20.08447     36.6 1.379e+04 1.143e-08
 20.10183     34.3 1.439e+04 1.319e-08
 20.11171     30.8 1.692e+04 4.353e-08
 20.12400     24.2 1.804e+04 8.493e-08
 20.14377     21.7 1.708e+04 1.643e-07
 20.16354     21.3 1.656e+04 1.224e-07
 20.18330     21.4 1.527e+04 4.609e-08
 20.19378     18.5 1.378e+04 1.536e-08
 20.20366     19.3 1.395e+04 1.694e-08
 20.22284     16.8 1.270e+04 6.273e-09
 20.24195     15.6 1.161e+04 3.191e-09
 20.25183     15.2 1.160e+04 2.571e-09
 20.26237     15.6 1.097e+04 1.950e-09
 20.29212     16.6 1.101e+04 1.141e-09
 20.33176     17.3 1.070e+04 6.303e-10
 20.37129     19.0 1.031e+04 6.117e-10
 20.39215     20.7 1.030e+04 6.478e-10
 20.41192     20.8 1.045e+04 6.202e-10
 20.45036     22.0 1.051e+04 7.208e-10
 20.47320     23.2 1.050e+04 8.404e-10
 20.49297     23.0 1.071e+04 7.615e-10
 20.52943     24.0 1.064e+04 8.478e-10
 20.56897     25.1 1.058e+04 8.742e-10
 20.60850     26.1 1.057e+04 8.832e-10
 20.64804     27.0 1.060e+04 9.378e-10
 20.67240     27.5 1.071e+04 1.067e-09
 20.69217     27.7 1.076e+04 1.464e-09
 20.72711     28.1 1.100e+04 1.893e-09
 20.76664     28.3 1.143e+04 1.911e-09
 20.80618     29.0 1.146e+04 1.500e-09
 20.84571     29.0 1.155e+04 1.066e-09
 20.88525     29.0 1.155e+04 1.172e-09
 20.92478     27.7 1.204e+04 2.489e-09
 20.95255     23.6 1.299e+04 5.853e-09
 20.96234     23.3 1.313e+04 5.921e-09
 20.97400     20.4 1.353e+04 1.567e-08
 20.99377     19.8 1.430e+04 3.198e-08
 21.01354     11.5 1.949e+04 3.149e-08
 21.02741     -5.6 2.783e+04 2.566e-08
 21.03230     -2.5 2.424e+04 3.184e-08
 21.03631    -14.1 2.354e+04 6.542e-08
 21.04130    -11.0 2.450e+04 3.694e-08
 21.04808    -20.4 2.114e+04 1.380e-07
 21.05792    -25.2 1.985e+04 3.462e-07
 21.06780    -27.7 2.067e+04 6.024e-07
 21.07769    -30.5 2.168e+04 7.456e-07
 21.08757    -34.7 2.303e+04 6.074e-07
 21.09742    -40.1 2.655e+04 1.563e-07
 21.10730    -46.1 2.396e+04 2.403e-07
 21.11722    -48.0 2.360e+04 8.447e-08
 21.12710    -48.8 2.140e+04 5.428e-08
 21.13699    -48.8 2.008e+04 4.437e-08
 21.15186    -47.9 1.955e+04 3.197e-08
 21.17168    -46.1 1.802e+04 1.595e-08
 21.19145    -45.1 1.719e+04 8.492e-09
 21.21121    -44.6 1.598e+04 6.359e-09
 21.23098    -44.2 1.532e+04 6.076e-09
 21.24258    -43.7 1.479e+04 7.157e-09
 21.25247    -43.7 1.664e+04 1.564e-08
 21.27052    -43.2 1.619e+04 1.685e-08
 21.29028    -42.4 1.579e+04 1.847e-08
 21.31005    -41.6 1.541e+04 1.906e-08
 21.32058    -40.7 1.501e+04 1.882e-08
 21.33046    -40.0 1.424e+04 1.163e-08
 21.34959    -39.1 1.419e+04 1.271e-08
 21.36935    -38.2 1.422e+04 1.387e-08
 21.38271    -37.2 1.437e+04 1.514e-08
 21.39259    -37.9 1.446e+04 1.540e-08
 21.40889    -36.9 1.454e+04 1.642e-08
 21.42866    -36.0 1.468e+04 1.765e-08
 21.44842    -35.5 1.497e+04 1.973e-08
 21.46819    -35.4 1.535e+04 2.394e-08
 21.48796    -35.5 1.578e+04 3.290e-08
 21.50773    -35.7 1.618e+04 4.944e-08
 21.52283    -35.4 1.660e+04 7.402e-08
 21.53272    -35.8 1.629e+04 6.203e-08
 21.54726    -35.6 1.664e+04 6.916e-08
 21.56703    -35.8 1.689e+04 7.392e-08
 21.58680    -36.4 1.704e+04 7.597e-08
 21.59981    -37.1 1.700e+04 7.706e-08
 21.60969    -37.6 1.708e+04 7.859e-08
 21.62633    -38.2 1.668e+04 7.308e-08
 21.64610    -38.4 1.613e+04 6.174e-08
 21.66296    -38.3 1.552e+04 4.638e-08
 21.67284    -38.5 1.554e+04 5.041e-08
 21.68563    -37.9 1.505e+04 3.580e-08
 21.70540    -37.6 1.456e+04 2.374e-08
 21.72517    -37.3 1.411e+04 1.530e-08
 21.74494    -37.1 1.370e+04 1.132e-08
 21.76470    -36.7 1.342e+04 8.971e-09
 21.79329    -35.9 1.290e+04 5.825e-09
 21.81316    -36.3 1.265e+04 6.893e-09
 21.83408    -34.7 1.224e+04 5.263e-09
 21.87362    -32.6 1.197e+04 4.363e-09
 21.91315    -30.4 1.188e+04 3.912e-09
 21.95269    -28.2 1.183e+04 3.648e-09
 21.99222    -26.1 1.181e+04 3.386e-09
 22.03176    -24.1 1.180e+04 3.207e-09
 22.07129    -22.3 1.179e+04 3.156e-09
 22.09341    -20.9 1.187e+04 3.325e-09
 22.11317    -21.5 1.159e+04 3.037e-09
 22.14857    -20.5 1.166e+04 3.681e-09
 22.16834    -20.2 1.170e+04 3.919e-09
 22.18990    -19.2 1.186e+04 5.633e-09
 22.22943    -18.3 1.192e+04 6.461e-09
 22.25899    -17.7 1.195e+04 6.315e-09
 22.27866    -17.6 1.190e+04 6.073e-09
 22.29843    -16.8 1.172e+04 4.166e-09
 22.31819    -16.4 1.173e+04 3.305e-09
 22.34794    -15.9 1.173e+04 1.984e-09
 22.37365    -15.1 1.174e+04 1.487e-09
 22.39342    -14.7 1.169e+04 1.432e-09
 22.42711    -13.6 1.195e+04 1.461e-09
 22.46664    -13.2 1.227e+04 2.093e-09
 22.49620    -12.7 1.245e+04 2.772e-09
 22.51358    -12.7 1.241e+04 3.754e-09
 22.52347    -12.3 1.238e+04 3.473e-09
 22.53564    -11.8 1.252e+04 4.087e-09
 22.55540    -11.5 1.272e+04 4.541e-09
 22.57517    -11.3 1.284e+04 4.670e-09
 22.59494    -11.0 1.294e+04 4.492e-09
 22.61471    -10.4 1.304e+04 4.143e-09
 22.63447     -9.9 1.306e+04 4.013e-09
 22.65371     -9.7 1.333e+04 4.116e-09
 22.66359    -10.5 1.365e+04 3.732e-09
 22.67401    -14.4 1.516e+04 7.396e-09
 22.69378    -16.7 1.510e+04 2.629e-08
 22.71354    -16.4 1.590e+04 6.148e-08
 22.72660    -17.0 1.626e+04 7.350e-08
 22.73649    -16.2 1.598e+04 6.072e-08
 22.75308    -18.3 1.560e+04 4.649e-08
 22.77284    -20.4 1.455e+04 1.979e-08
 22.79261    -22.4 1.371e+04 9.903e-09
 22.80371    -23.0 1.326e+04 7.519e-09
 22.81360    -23.1 1.338e+04 8.078e-09
 22.83215    -23.0 1.326e+04 7.266e-09
 22.85191    -22.9 1.326e+04 6.926e-09
 22.87168    -23.0 1.331e+04 6.957e-09
 22.89145    -23.3 1.334e+04 7.872e-09
 22.91122    -23.3 1.334e+04 9.346e-09
 22.93098    -23.2 1.338e+04 1.010e-08
 22.94384    -23.2 1.341e+04 9.931e-09
 22.95372    -23.8 1.375e+04 1.088e-08
 22.97052    -24.6 1.429e+04 8.197e-09
 22.99029    -26.2 1.473e+04 7.734e-09
 23.00583    -27.8 1.500e+04 1.017e-08
 23.01571    -28.0 1.483e+04 1.115e-08
 23.02982    -28.7 1.479e+04 1.826e-08
 23.04959    -29.0 1.494e+04 2.996e-08
 23.06936    -28.8 1.531e+04 4.206e-08
 23.08396    -28.6 1.545e+04 4.578e-08
 23.09384    -29.9 1.570e+04 5.207e-08
 23.10889    -29.7 1.532e+04 3.371e-08
 23.12866    -29.9 1.490e+04 1.863e-08
 23.14843    -30.3 1.456e+04 1.133e-08
 23.16819    -30.5 1.435e+04 8.612e-09
 23.18796    -30.4 1.430e+04 7.907e-09
 23.20773    -30.3 1.436e+04 7.842e-09
 23.22408    -30.3 1.450e+04 8.555e-09
 23.23397    -31.6 1.448e+04 1.161e-08
 23.24726    -31.6 1.460e+04 1.419e-08
 23.26703    -32.3 1.523e+04 1.829e-08
 23.28506    -35.2 1.659e+04 3.179e-08
 23.29494    -35.5 1.655e+04 3.208e-08
 23.30657    -39.1 1.750e+04 7.133e-08
 23.32633    -42.5 1.804e+04 1.300e-07
 23.34610    -46.4 1.814e+04 1.535e-07
 23.36421    -50.4 1.768e+04 1.030e-07
 23.37409    -55.4 1.781e+04 8.881e-08
 23.38564    -60.5 1.669e+04 4.277e-08
 23.40540    -63.2 1.609e+04 3.661e-08
 23.42517    -64.1 1.582e+04 3.828e-08
 23.44494    -64.5 1.568e+04 4.043e-08
 23.46471    -64.9 1.562e+04 4.030e-08
 23.48447    -64.9 1.527e+04 3.748e-08
 23.50424    -64.8 1.476e+04 2.766e-08
 23.52401    -67.1 1.359e+04 9.364e-09
 23.54378    -66.9 1.325e+04 6.859e-09
 23.56354    -66.4 1.302e+04 5.921e-09
 23.57417    -65.7 1.295e+04 5.695e-09
 23.58405    -65.6 1.294e+04 5.986e-09
 23.60308    -64.9 1.293e+04 5.919e-09
 23.62285    -64.3 1.296e+04 6.010e-09
 23.64261    -63.9 1.293e+04 6.985e-09
 23.65434    -63.4 1.289e+04 8.547e-09
 23.66422    -64.3 1.264e+04 5.870e-09
 23.68215    -63.5 1.265e+04 6.639e-09
 23.70192    -62.7 1.270e+04 7.080e-09
 23.72168    -62.1 1.271e+04 7.163e-09
 23.74145    -61.5 1.270e+04 7.132e-09
 23.76122    -60.9 1.264e+04 6.958e-09
 23.78099    -60.2 1.259e+04 6.834e-09
 23.79446    -59.6 1.256e+04 6.802e-09
 23.80435    -60.3 1.239e+04 4.950e-09
 23.82052    -59.6 1.237e+04 5.255e-09
 23.84029    -58.9 1.236e+04 5.638e-09
 23.85340    -58.2 1.233e+04 5.943e-09
 23.86328    -58.0 1.241e+04 6.432e-09
 23.87982    -57.4 1.239e+04 6.625e-09
 23.89959    -56.8 1.234e+04 6.615e-09
 23.91936    -56.2 1.219e+04 6.429e-09
 23.93459    -55.7 1.200e+04 5.897e-09
 23.94447    -56.3 1.183e+04 5.425e-09
 23.96888    -55.0 1.169e+04 5.032e-09
 24.00851    -53.1 1.137e+04 3.800e-09
 24.04804    -51.3 1.111e+04 2.729e-09
 24.07491    -49.5 1.104e+04 2.239e-09
 24.09467    -50.1 1.100e+04 1.809e-09
 24.12711    -48.4 1.099e+04 1.706e-09
 24.16665    -46.7 1.098e+04 1.722e-09
 24.20618    -45.3 1.095e+04 1.995e-09
 24.24572    -43.9 1.094e+04 2.366e-09
 24.28525    -42.7 1.097e+04 2.740e-09
 24.32479    -41.7 1.100e+04 3.069e-09
 24.35515    -40.8 1.104e+04 3.416e-09
 24.37492    -42.2 1.109e+04 3.514e-09
 24.40217    -41.5 1.110e+04 3.603e-09
 24.42194    -42.0 1.122e+04 3.946e-09
 24.44339    -41.3 1.120e+04 3.834e-09
 24.48293    -40.6 1.119e+04 3.752e-09
 24.52246    -39.8 1.136e+04 3.805e-09
 24.55202    -39.4 1.163e+04 3.970e-09
 24.57169    -39.4 1.167e+04 4.309e-09
 24.59145    -39.1 1.167e+04 4.470e-09
 24.61122    -39.1 1.140e+04 4.332e-09
 24.63530    -38.4 1.128e+04 4.326e-09
 24.65517    -39.4 1.126e+04 4.152e-09
 24.68060    -38.3 1.120e+04 4.009e-09
 24.72014    -37.2 1.115e+04 3.755e-09
 24.75967    -36.1 1.105e+04 3.367e-09
 24.79921    -34.9 1.100e+04 3.146e-09
 24.83874    -33.6 1.104e+04 3.109e-09
 24.87828    -32.4 1.110e+04 3.381e-09
 24.91565    -31.2 1.123e+04 3.926e-09
 24.93542    -32.0 1.138e+04 4.310e-09
 24.95735    -31.6 1.168e+04 5.429e-09
 24.98039    -32.3 1.219e+04 7.500e-09
 25.00016    -33.6 1.239e+04 8.485e-09
 25.02644    -35.8 1.290e+04 1.170e-08
 25.04611    -38.3 1.337e+04 1.588e-08
 25.06546    -40.4 1.430e+04 2.318e-08
 25.07535    -41.2 1.430e+04 2.339e-08
 25.08564    -45.1 1.491e+04 3.117e-08
 25.10541    -49.2 1.508e+04 3.364e-08
 25.12518    -53.2 1.472e+04 2.778e-08
 25.14494    -56.8 1.418e+04 1.708e-08
 25.16471    -60.0 1.356e+04 1.099e-08
 25.18448    -61.8 1.323e+04 8.560e-09
 25.20425    -62.2 1.319e+04 7.928e-09
 25.21547    -64.0 1.289e+04 5.892e-09
 25.23533    -64.4 1.295e+04 5.106e-09
 25.27363    -66.1 1.264e+04 3.492e-09
 25.31316    -66.7 1.274e+04 2.894e-09
 25.35270    -66.8 1.284e+04 2.657e-09
 25.39223    -66.8 1.291e+04 2.473e-09
 25.43177    -66.6 1.290e+04 2.383e-09
 25.47130    -66.0 1.276e+04 2.511e-09
 25.49591    -65.2 1.252e+04 2.963e-09
 25.51568    -65.0 1.253e+04 2.162e-09
 25.53885    -64.1 1.226e+04 2.842e-09
 25.55862    -63.3 1.226e+04 3.034e-09
 25.57993    -63.4 1.199e+04 3.494e-09
 25.59960    -63.4 1.196e+04 3.526e-09
 25.61936    -63.2 1.174e+04 3.485e-09
 25.63584    -63.1 1.170e+04 3.364e-09
 25.64573    -62.7 1.177e+04 3.311e-09
 25.66888    -62.3 1.146e+04 3.121e-09
 25.70851    -61.6 1.109e+04 2.394e-09
 25.74805    -60.4 1.087e+04 1.961e-09
 25.77616    -59.1 1.068e+04 1.790e-09
 25.79593    -58.6 1.084e+04 1.795e-09
 25.82712    -57.2 1.070e+04 1.700e-09
 25.86665    -55.8 1.085e+04 1.687e-09
 25.90619    -54.7 1.105e+04 2.255e-09
 25.94572    -53.7 1.128e+04 3.676e-09
 25.98526    -53.2 1.154e+04 6.085e-09
 26.01481    -52.7 1.190e+04 8.140e-09
 26.03448    -53.2 1.206e+04 1.027e-08
 26.05425    -53.2 1.229e+04 1.223e-08
 26.06610    -53.6 1.250e+04 1.421e-08
 26.07598    -53.7 1.246e+04 1.296e-08
 26.09378    -54.0 1.271e+04 1.502e-08
 26.10699    -54.9 1.286e+04 1.602e-08
 26.11688    -54.5 1.297e+04 1.717e-08
 26.13332    -55.8 1.299e+04 1.781e-08
 26.15308    -56.9 1.272e+04 1.642e-08
 26.17285    -57.9 1.250e+04 1.435e-08
 26.19262    -58.7 1.231e+04 1.255e-08
 26.20622    -59.4 1.213e+04 1.096e-08
 26.21610    -59.4 1.214e+04 1.061e-08
 26.23215    -60.0 1.187e+04 8.778e-09
 26.25192    -60.4 1.157e+04 7.339e-09
 26.27169    -60.5 1.135e+04 6.359e-09
 26.29146    -60.1 1.124e+04 5.742e-09
 26.31122    -59.6 1.112e+04 5.068e-09
 26.33099    -59.2 1.096e+04 3.818e-09
 26.34634    -59.3 1.084e+04 3.156e-09
 26.35623    -59.4 1.090e+04 2.946e-09
 26.38051    -59.0 1.080e+04 2.615e-09
 26.42014    -58.1 1.080e+04 2.637e-09
 26.45968    -57.8 1.096e+04 3.008e-09
 26.49921    -57.7 1.103e+04 3.260e-09
 26.53875    -57.9 1.104e+04 3.225e-09
 26.57828    -58.0 1.079e+04 2.750e-09
 26.61690    -57.7 1.052e+04 2.243e-09
 26.63667    -57.1 1.072e+04 2.228e-09
 26.65576    -56.5 1.079e+04 2.021e-09
 26.67553    -56.3 1.089e+04 2.189e-09
 26.68690    -56.1 1.083e+04 2.018e-09
 26.70657    -57.3 1.107e+04 2.432e-09
 26.72634    -58.8 1.132e+04 4.099e-09
 26.74611    -59.9 1.175e+04 7.562e-09
 26.76588    -60.6 1.240e+04 1.228e-08
 26.77660    -61.7 1.291e+04 1.556e-08
 26.78648    -61.7 1.311e+04 1.662e-08
 26.80541    -64.0 1.317e+04 1.652e-08
 26.82518    -66.6 1.279e+04 1.340e-08
 26.84495    -69.2 1.234e+04 1.092e-08
 26.86471    -71.3 1.217e+04 1.026e-08
 26.88448    -72.9 1.211e+04 1.003e-08
 26.90425    -74.4 1.201e+04 9.428e-09
 26.91672    -75.7 1.174e+04 7.958e-09
 26.92661    -75.5 1.181e+04 7.977e-09
 26.94378    -76.7 1.151e+04 6.688e-09
 26.95456    -77.8 1.129e+04 5.892e-09
 26.96445    -77.8 1.125e+04 5.900e-09
 26.98332    -78.7 1.123e+04 5.628e-09
 27.00309    -79.6 1.123e+04 5.586e-09
 27.02285    -80.5 1.130e+04 5.683e-09
 27.04262    -81.3 1.138e+04 5.832e-09
 27.05685    -82.1 1.141e+04 5.776e-09
 27.06673    -81.5 1.137e+04 5.335e-09
 27.08216    -82.2 1.133e+04 4.950e-09
 27.10192    -82.9 1.131e+04 4.773e-09
 27.12169    -83.4 1.133e+04 4.773e-09
 27.14146    -83.7 1.141e+04 4.981e-09
 27.16123    -83.7 1.145e+04 5.132e-09
 27.18099    -83.6 1.145e+04 5.162e-09
 27.19697    -83.5 1.142e+04 4.902e-09
 27.20685    -83.2 1.146e+04 5.023e-09
 27.22053    -83.0 1.145e+04 4.819e-09
 27.23379    -82.9 1.140e+04 4.416e-09
 27.24367    -83.1 1.143e+04 4.588e-09
 27.26006    -82.9 1.137e+04 4.014e-09
 27.27983    -82.6 1.131e+04 3.429e-09
 27.29960    -82.1 1.125e+04 3.047e-09
 27.32935    -81.4 1.125e+04 2.925e-09
 27.36898    -80.4 1.127e+04 2.929e-09
 27.40852    -79.5 1.136e+04 3.004e-09
 27.44805    -79.0 1.146e+04 3.003e-09
 27.47741    -78.4 1.150e+04 2.777e-09
 27.49718    -78.1 1.167e+04 2.771e-09
 27.52712    -77.4 1.163e+04 2.562e-09
 27.56665    -76.4 1.158e+04 2.511e-09
 27.60619    -75.4 1.162e+04 2.429e-09
 27.64572    -74.3 1.172e+04 2.202e-09
 27.68526    -73.1 1.177e+04 1.908e-09
 27.72479    -71.9 1.180e+04 1.638e-09
 27.75766    -70.5 1.186e+04 1.432e-09
 27.77743    -70.2 1.191e+04 1.280e-09
 27.79244    -68.7 1.199e+04 1.144e-09
 27.81221    -68.8 1.198e+04 9.455e-10
 27.84340    -67.2 1.206e+04 8.682e-10
 27.88293    -65.7 1.210e+04 8.407e-10
 27.92247    -64.3 1.219e+04 8.671e-10
 27.96200    -63.2 1.219e+04 1.060e-09
 28.00154    -61.9 1.214e+04 1.460e-09
 28.03791    -60.5 1.215e+04 1.897e-09
 28.05768    -59.7 1.217e+04 1.480e-09
 28.08061    -58.0 1.219e+04 1.859e-09
 28.12014    -56.3 1.221e+04 2.032e-09
 28.15968    -54.4 1.229e+04 2.040e-09
 28.19921    -52.5 1.264e+04 2.199e-09
 28.22877    -51.5 1.299e+04 2.432e-09
 28.24844    -51.8 1.310e+04 2.690e-09
 28.26821    -51.9 1.337e+04 3.513e-09
 28.28797    -52.5 1.355e+04 4.640e-09
 28.30774    -52.9 1.381e+04 5.788e-09
 28.32751    -53.5 1.390e+04 6.291e-09
 28.33773    -53.7 1.392e+04 6.526e-09
 28.35114    -52.3 1.414e+04 9.150e-09
 28.37057    -53.6 1.419e+04 8.443e-09
 28.39679    -54.5 1.430e+04 8.073e-09
 28.43642    -55.1 1.423e+04 7.159e-09
 28.47596    -55.8 1.398e+04 6.512e-09
 28.51549    -56.4 1.373e+04 5.946e-09
 28.55503    -56.6 1.345e+04 5.396e-09
 28.59456    -56.5 1.323e+04 4.991e-09
 28.61817    -56.3 1.307e+04 4.582e-09
 28.63794    -54.8 1.304e+04 4.488e-09
 28.67363    -54.1 1.283e+04 3.838e-09
 28.71317    -53.3 1.267e+04 2.981e-09
 28.75270    -52.6 1.258e+04 2.362e-09
 28.79224    -51.7 1.255e+04 2.233e-09
 28.83177    -50.5 1.247e+04 2.360e-09
 28.87131    -49.0 1.239e+04 2.864e-09
 28.89842    -48.0 1.238e+04 3.659e-09
 28.91670    -46.2 1.232e+04 2.757e-09
 28.92912    -46.0 1.232e+04 2.593e-09
 28.95038    -45.5 1.232e+04 3.566e-09
 28.98991    -45.2 1.238e+04 4.611e-09
 29.02945    -45.6 1.239e+04 5.644e-09
 29.06898    -46.5 1.232e+04 5.871e-09
 29.10852    -47.1 1.194e+04 5.167e-09
 29.14805    -47.5 1.171e+04 4.072e-09
 29.17867    -48.0 1.163e+04 3.612e-09
 29.19843    -46.5 1.139e+04 2.669e-09
 29.22712    -46.7 1.134e+04 2.451e-09
 29.26666    -46.8 1.127e+04 2.541e-09
 29.30619    -46.4 1.141e+04 3.146e-09
 29.32858    -46.4 1.158e+04 3.958e-09
 29.33836    -45.3 1.145e+04 3.278e-09
 29.35542    -46.0 1.169e+04 4.165e-09
 29.37518    -46.5 1.190e+04 5.472e-09
 29.39495    -47.0 1.200e+04 6.187e-09
 29.41472    -47.5 1.203e+04 6.398e-09
 29.43449    -48.2 1.189e+04 6.076e-09
 29.45425    -48.8 1.164e+04 5.243e-09
 29.46860    -49.4 1.136e+04 4.387e-09
 29.47849    -48.7 1.139e+04 4.767e-09
 29.48748    -48.7 1.102e+04 3.851e-09
 29.50735    -49.2 1.102e+04 3.938e-09
 29.54340    -48.7 1.067e+04 2.800e-09
 29.58294    -48.3 1.054e+04 2.019e-09
 29.62247    -48.0 1.049e+04 1.751e-09
 29.66201    -47.6 1.051e+04 1.975e-09
 29.70154    -47.5 1.083e+04 3.666e-09
 29.73916    -47.1 1.132e+04 6.870e-09
 29.75893    -46.0 1.096e+04 4.346e-09
 29.78061    -45.7 1.154e+04 8.070e-09
 29.82015    -45.9 1.213e+04 1.055e-08
 29.85968    -47.4 1.227e+04 1.094e-08
 29.89922    -48.6 1.218e+04 9.809e-09
 29.93875    -49.4 1.209e+04 8.499e-09
 29.97829    -50.0 1.201e+04 7.708e-09
 30.01782    -50.4 1.199e+04 7.226e-09
 30.03918    -51.0 1.198e+04 6.947e-09
 30.04762    -50.5 1.174e+04 6.131e-09
 30.06580    -50.3 1.175e+04 6.145e-09
 30.09689    -51.0 1.168e+04 5.594e-09
 30.13643    -51.8 1.168e+04 5.263e-09
 30.17596    -52.5 1.182e+04 5.087e-09
 30.20552    -52.6 1.202e+04 4.926e-09
 30.22519    -53.1 1.200e+04 4.819e-09
 30.24495    -53.4 1.206e+04 3.790e-09
 30.26472    -54.1 1.207e+04 2.729e-09
 30.29447    -54.7 1.198e+04 2.163e-09
 30.31943    -55.2 1.154e+04 1.825e-09
 30.33919    -54.5 1.193e+04 1.957e-09
 30.37364    -54.7 1.152e+04 1.716e-09
 30.41317    -54.3 1.112e+04 1.548e-09
 30.45271    -53.7 1.079e+04 1.433e-09
 30.49224    -52.9 1.075e+04 1.383e-09
 30.53178    -51.9 1.071e+04 1.407e-09
 30.57131    -50.9 1.074e+04 1.679e-09
 30.59967    -50.0 1.090e+04 2.103e-09
 30.61309    -49.6 1.100e+04 1.588e-09
 30.62426    -50.6 1.085e+04 1.737e-09
 30.65038    -49.6 1.096e+04 1.952e-09
 30.68992    -48.6 1.120e+04 2.263e-09
 30.72945    -47.6 1.145e+04 2.684e-09
 30.74958    -47.1 1.154e+04 3.003e-09
 30.75937    -46.3 1.165e+04 2.783e-09
 30.77868    -46.4 1.163e+04 3.007e-09
 30.79844    -46.1 1.160e+04 3.258e-09
 30.81821    -45.8 1.158e+04 3.470e-09
 30.83798    -45.3 1.162e+04 3.801e-09
 30.85775    -44.9 1.169e+04 4.229e-09
 30.87751    -44.4 1.179e+04 4.742e-09
 30.88961    -43.9 1.186e+04 5.356e-09
 30.89562    -43.1 1.194e+04 5.986e-09
 30.90329    -43.8 1.185e+04 5.980e-09
 30.91705    -43.4 1.187e+04 6.273e-09
 30.93682    -43.2 1.188e+04 6.343e-09
 30.95658    -43.2 1.190e+04 6.311e-09
 30.97635    -43.7 1.202e+04 6.392e-09
 30.99612    -44.9 1.216e+04 8.246e-09
 31.01589    -45.6 1.253e+04 1.250e-08
 31.02973    -45.9 1.284e+04 1.780e-08
 31.03962    -45.3 1.303e+04 1.843e-08
 31.05542    -45.6 1.315e+04 2.168e-08
 31.07519    -46.5 1.323e+04 2.201e-08
 31.09496    -48.3 1.346e+04 2.148e-08
 31.11472    -51.3 1.436e+04 2.565e-08
 31.13449    -53.9 1.504e+04 4.295e-08
 31.15426    -55.1 1.534e+04 6.202e-08
 31.16903    -54.9 1.545e+04 6.780e-08
 31.17470    -55.5 1.549e+04 6.459e-08
 31.17831    -55.3 1.465e+04 3.570e-08
 31.18247    -55.4 1.530e+04 4.628e-08
 31.18875    -56.0 1.524e+04 4.717e-08
 31.19864    -56.2 1.496e+04 4.393e-08
 31.20852    -56.6 1.443e+04 3.703e-08
 31.21840    -56.7 1.430e+04 3.544e-08
 31.23328    -56.8 1.388e+04 2.865e-08
 31.25310    -56.6 1.299e+04 1.698e-08
 31.27286    -56.4 1.223e+04 1.079e-08
 31.29263    -55.9 1.190e+04 8.520e-09
 31.30998    -54.9 1.178e+04 7.746e-09
 31.31986    -54.7 1.148e+04 6.766e-09
 31.33217    -53.6 1.141e+04 6.542e-09
 31.35193    -52.4 1.136e+04 6.393e-09
 31.37170    -51.0 1.135e+04 6.283e-09
 31.39147    -49.7 1.138e+04 6.176e-09
 31.41124    -48.5 1.139e+04 6.014e-09
 31.43100    -47.1 1.140e+04 5.841e-09
 31.45010    -45.7 1.142e+04 5.767e-09
 31.45999    -46.3 1.127e+04 5.162e-09
 31.46175    -45.4 1.149e+04 5.226e-09
 31.47163    -45.0 1.165e+04 6.561e-09
 31.49030    -44.7 1.204e+04 7.065e-09
 31.51007    -45.1 1.253e+04 9.366e-09
 31.52984    -45.9 1.324e+04 1.667e-08
 31.54961    -46.2 1.430e+04 3.272e-08
 31.56937    -46.5 1.532e+04 5.275e-08
 31.58415    -47.6 1.554e+04 5.392e-08
 31.59399    -47.8 1.555e+04 5.226e-08
 31.60001    -50.0 1.536e+04 4.410e-08
 31.60235    -51.7 1.452e+04 2.898e-08
 31.60621    -50.9 1.479e+04 3.275e-08
 31.61375    -52.1 1.467e+04 3.118e-08
 31.62364    -54.3 1.426e+04 2.825e-08
 31.63352    -55.4 1.415e+04 2.659e-08
 31.64840    -57.3 1.375e+04 2.271e-08
 31.66821    -59.0 1.341e+04 1.789e-08
 31.68798    -59.8 1.284e+04 1.322e-08
 31.70775    -60.1 1.223e+04 1.031e-08
 31.72751    -60.1 1.188e+04 9.185e-09
 31.74024    -59.6 1.175e+04 8.706e-09
 31.74382    -59.3 1.088e+04 6.387e-09
 31.75086    -58.4 1.111e+04 8.233e-09
 31.76705    -57.6 1.093e+04 7.556e-09
 31.78682    -56.6 1.085e+04 7.215e-09
 31.80658    -55.4 1.083e+04 7.131e-09
 31.82635    -54.7 1.092e+04 7.559e-09
 31.84113    -55.2 1.158e+04 8.260e-09
 31.85096    -55.8 1.176e+04 8.287e-09
 31.86085    -69.9 2.366e+04 8.588e-09
 31.87073    -94.2 3.050e+04 7.997e-08
 31.88026   -100.8 1.838e+04 2.680e-06
 31.88508   -101.9 1.962e+04 1.141e-06
 31.88544   -102.1 1.897e+04 1.858e-06
 31.89050   -105.3 1.721e+04 7.172e-06
 31.89789   -107.3 1.649e+04 1.436e-05
 31.90280   -108.9 1.651e+04 1.644e-05
 31.90775   -112.7 1.634e+04 1.957e-05
 31.91269   -116.2 1.723e+04 9.409e-06
 31.91763   -120.2 1.888e+04 2.885e-06
 31.92019   -123.9 1.993e+04 1.144e-06
 31.92266   -122.6 2.012e+04 1.375e-06
 31.93001   -127.0 1.969e+04 6.677e-07
 31.93992   -130.9 1.801e+04 3.820e-07
 31.94980   -131.8 1.728e+04 3.576e-07
 31.95527   -131.5 1.711e+04 3.706e-07
 31.96021   -131.2 1.708e+04 3.205e-07
 31.96957   -130.8 1.702e+04 3.576e-07
 31.97945   -130.2 1.717e+04 3.775e-07
 31.98934   -129.8 1.726e+04 3.822e-07
 31.99922   -129.4 1.752e+04 3.681e-07
 32.00910   -129.0 1.782e+04 3.302e-07
 32.01899   -128.9 1.810e+04 2.754e-07
 32.02505   -128.9 1.838e+04 2.157e-07
 32.02645   -130.8 1.874e+04 1.680e-07
 32.03027   -131.0 1.846e+04 2.491e-07
 32.03875   -131.3 1.852e+04 1.828e-07
 32.04864   -131.8 1.834e+04 1.261e-07
 32.05852   -132.3 1.779e+04 8.532e-08
 32.06841   -133.0 1.685e+04 6.037e-08
 32.07829   -133.6 1.574e+04 4.850e-08
 32.08817   -133.9 1.505e+04 4.286e-08
 32.09539   -133.8 1.477e+04 3.908e-08
 32.10033   -133.9 1.486e+04 3.967e-08
 32.10794   -133.8 1.452e+04 3.616e-08
 32.11782   -133.4 1.446e+04 3.485e-08
 32.12771   -133.1 1.466e+04 3.465e-08
 32.13759   -133.1 1.487e+04 3.548e-08
 32.14748   -133.1 1.504e+04 3.706e-08
 32.15736   -133.0 1.510e+04 3.984e-08
 32.16467   -132.8 1.514e+04 4.376e-08
 32.16782   -134.7 1.600e+04 8.400e-08
 32.17039   -134.8 1.602e+04 8.470e-08
 32.17713   -134.1 1.605e+04 9.617e-08
 32.18701   -133.5 1.611e+04 1.062e-07
 32.19689   -132.9 1.617e+04 1.119e-07
 32.20678   -132.3 1.609e+04 1.111e-07
 32.21666   -131.7 1.599e+04 1.095e-07
 32.22655   -130.8 1.585e+04 9.956e-08
 32.24142   -129.5 1.561e+04 8.523e-08
 32.26124   -127.8 1.526e+04 6.724e-08
 32.28100   -126.4 1.480e+04 5.265e-08
 32.29944   -125.4 1.435e+04 4.402e-08
 32.30928   -126.8 1.407e+04 3.675e-08
 32.32050   -124.9 1.454e+04 4.166e-08
 32.34031   -124.1 1.402e+04 3.204e-08
 32.36007   -123.4 1.349e+04 2.559e-08
 32.37984   -122.8 1.305e+04 2.124e-08
 32.39961   -122.2 1.274e+04 1.822e-08
 32.41938   -121.6 1.251e+04 1.582e-08
 32.43914   -121.0 1.235e+04 1.386e-08
 32.45074   -120.4 1.222e+04 1.231e-08
 32.46062   -119.9 1.206e+04 1.256e-08
 32.47868   -119.5 1.165e+04 1.057e-08
 32.49845   -119.2 1.124e+04 9.131e-09
 32.51821   -118.9 1.095e+04 8.356e-09
 32.53798   -118.7 1.090e+04 8.219e-09
 32.55775   -118.5 1.075e+04 8.504e-09
 32.57752   -118.4 1.064e+04 9.019e-09
 32.58855   -118.4 1.069e+04 9.756e-09
 32.59201   -118.0 1.074e+04 9.924e-09
 32.60075   -116.5 1.082e+04 9.106e-09
 32.61705   -116.7 1.092e+04 1.013e-08
 32.63682   -116.4 1.106e+04 1.154e-08
 32.65659   -116.1 1.122e+04 1.349e-08
 32.67635   -115.8 1.148e+04 1.571e-08
 32.69612   -115.6 1.175e+04 1.803e-08
 32.71589   -115.5 1.202e+04 2.029e-08
 32.73099   -115.7 1.216e+04 2.170e-08
 32.74087   -114.4 1.224e+04 2.255e-08
 32.75542   -114.7 1.231e+04 2.331e-08
 32.77519   -114.9 1.229e+04 2.322e-08
 32.79496   -115.1 1.214e+04 2.103e-08
 32.81473   -115.2 1.194e+04 1.785e-08
 32.83449   -115.5 1.170e+04 1.455e-08
 32.85426   -115.8 1.145e+04 1.190e-08
 32.86778   -115.8 1.127e+04 1.055e-08
 32.87484   -116.4 1.059e+04 6.883e-09
 32.88109   -114.8 1.055e+04 6.928e-09
 32.89380   -114.9 1.033e+04 5.685e-09
 32.91356   -115.0 1.025e+04 4.942e-09
 32.94331   -115.0 1.022e+04 4.556e-09
 32.98295   -114.9 1.010e+04 4.357e-09
 33.02248   -114.8 1.041e+04 5.250e-09
 33.06202   -114.8 1.081e+04 6.958e-09
 33.10155   -114.9 1.125e+04 8.789e-09
 33.14109   -115.6 1.164e+04 9.862e-09
 33.16144   -117.0 1.188e+04 1.040e-08
 33.18120   -116.2 1.199e+04 1.122e-08
 33.22016   -117.0 1.208e+04 1.058e-08
 33.24971   -116.9 1.196e+04 9.269e-09
 33.26938   -117.0 1.206e+04 9.154e-09
 33.28915   -117.1 1.214e+04 8.949e-09
 33.30137   -117.1 1.217e+04 8.721e-09
 33.31125   -116.8 1.225e+04 8.608e-09
 33.32868   -116.8 1.226e+04 8.212e-09
 33.34845   -116.7 1.225e+04 7.637e-09
 33.36822   -116.4 1.220e+04 6.956e-09
 33.38798   -115.9 1.215e+04 6.351e-09
 33.40775   -115.3 1.209e+04 5.862e-09
 33.42623   -114.6 1.205e+04 5.474e-09
 33.43612   -114.0 1.205e+04 5.269e-09
 33.44149   -113.3 1.199e+04 4.855e-09
 33.45137   -113.1 1.193e+04 5.177e-09
 33.46705   -112.4 1.185e+04 4.927e-09
 33.48682   -111.7 1.177e+04 4.737e-09
 33.50659   -110.9 1.172e+04 4.597e-09
 33.52636   -110.1 1.168e+04 4.473e-09
 33.54612   -109.3 1.168e+04 4.329e-09
 33.56589   -108.5 1.170e+04 4.127e-09
 33.58161   -107.7 1.171e+04 3.867e-09
 33.59150   -107.7 1.149e+04 4.427e-09
 33.60543   -106.8 1.150e+04 3.995e-09
 33.62519   -106.0 1.151e+04 3.562e-09
 33.65494   -105.2 1.149e+04 3.142e-09
 33.69457   -103.2 1.126e+04 2.594e-09
 33.72193   -101.3 1.127e+04 2.213e-09
 33.74170   -101.1 1.106e+04 2.134e-09
 33.77364    -99.0 1.107e+04 1.939e-09
 33.81318    -97.1 1.117e+04 1.817e-09
 33.85271    -95.4 1.133e+04 1.745e-09
 33.89225    -93.6 1.147e+04 1.710e-09
 33.93178    -91.6 1.161e+04 1.656e-09
 33.97132    -89.6 1.174e+04 1.616e-09
 33.99477    -87.6 1.181e+04 1.617e-09
 34.00586    -87.0 1.192e+04 1.289e-09
 34.02195    -86.5 1.183e+04 1.544e-09
 34.05039    -84.6 1.195e+04 1.464e-09
 34.08992    -82.6 1.203e+04 1.458e-09
 34.12946    -80.6 1.233e+04 1.484e-09
 34.16899    -78.5 1.260e+04 1.689e-09
 34.20853    -76.5 1.282e+04 2.167e-09
 34.24806    -74.4 1.303e+04 2.990e-09
 34.28243    -72.5 1.325e+04 4.123e-09
 34.30219    -72.1 1.326e+04 3.970e-09
 34.32713    -70.4 1.346e+04 5.069e-09
 34.36667    -68.9 1.359e+04 5.659e-09
 34.40620    -67.4 1.359e+04 5.757e-09
 34.44574    -65.8 1.345e+04 5.613e-09
 34.48527    -64.0 1.336e+04 5.510e-09
 34.52481    -61.9 1.332e+04 5.301e-09
 34.55313    -60.5 1.326e+04 5.151e-09
 34.56291    -60.3 1.331e+04 5.598e-09
 34.57236    -59.6 1.327e+04 5.326e-09
 34.58225    -59.2 1.339e+04 5.461e-09
 34.59380    -58.3 1.336e+04 5.209e-09
 34.61357    -57.6 1.332e+04 4.914e-09
 34.63333    -56.8 1.327e+04 4.639e-09
 34.65310    -55.9 1.320e+04 4.424e-09
 34.67287    -55.1 1.314e+04 4.295e-09
 34.69264    -54.2 1.312e+04 4.247e-09
 34.71240    -53.4 1.310e+04 4.231e-09
 34.73217    -52.4 1.321e+04 5.573e-09
 34.75194    -51.9 1.332e+04 6.665e-09
 34.77171    -51.6 1.348e+04 8.658e-09
 34.79147    -51.4 1.367e+04 1.199e-08
 34.81124    -51.3 1.392e+04 1.669e-08
 34.83101    -51.3 1.418e+04 2.161e-08
 34.84214    -51.4 1.429e+04 2.406e-08
 34.85203    -51.9 1.486e+04 3.532e-08
 34.86249    -52.0 1.463e+04 2.989e-08
 34.87238    -51.9 1.469e+04 2.942e-08
 34.89031    -51.9 1.432e+04 2.055e-08
 34.91008    -51.9 1.389e+04 1.520e-08
 34.92985    -51.4 1.350e+04 1.202e-08
 34.94961    -50.6 1.322e+04 1.009e-08
 34.96938    -49.7 1.303e+04 8.679e-09
 34.98915    -48.7 1.291e+04 7.440e-09
 35.00262    -47.8 1.283e+04 6.336e-09
 35.01250    -47.4 1.303e+04 7.702e-09
 35.02868    -46.5 1.291e+04 6.802e-09
 35.04845    -45.4 1.279e+04 5.796e-09
 35.06822    -44.4 1.274e+04 5.040e-09
 35.08799    -43.4 1.258e+04 4.322e-09
 35.10775    -42.1 1.252e+04 3.619e-09
 35.12137    -41.1 1.240e+04 3.052e-09
 35.13135    -41.9 1.243e+04 4.112e-09
 35.14284    -39.8 1.236e+04 3.095e-09
 35.15263    -39.7 1.252e+04 4.019e-09
 35.16706    -38.6 1.244e+04 3.426e-09
 35.18682    -37.2 1.241e+04 2.981e-09
 35.20659    -36.4 1.234e+04 2.776e-09
 35.22636    -34.8 1.234e+04 2.589e-09
 35.24613    -34.3 1.227e+04 2.517e-09
 35.27588    -32.1 1.227e+04 2.544e-09
 35.31551    -30.1 1.219e+04 2.505e-09
 35.34506    -28.3 1.214e+04 2.475e-09
 35.36473    -28.1 1.206e+04 2.623e-09
 35.39448    -26.7 1.186e+04 2.829e-09
 35.42319    -24.7 1.152e+04 2.728e-09
 35.44295    -23.7 1.183e+04 3.632e-09
 35.47365    -21.5 1.159e+04 3.364e-09
 35.51318    -19.4 1.153e+04 2.569e-09
 35.55272    -17.3 1.145e+04 1.674e-09
 35.59225    -15.2 1.140e+04 1.142e-09
 35.63179    -13.2 1.132e+04 8.612e-10
 35.67014    -11.0 1.112e+04 7.795e-10
 35.68991    -10.9 1.120e+04 8.439e-10
 35.70343     -8.5 1.109e+04 8.290e-10
 35.72320     -7.8 1.109e+04 9.069e-10
 35.75039     -5.3 1.102e+04 9.037e-10
 35.78993     -2.9 1.085e+04 9.973e-10
 35.82946     -0.8 1.076e+04 1.163e-09
 35.86900      1.2 1.067e+04 1.434e-09
 35.90853      3.1 1.055e+04 1.916e-09
 35.94807      4.9 1.057e+04 2.682e-09
 35.98368      6.5 1.048e+04 3.316e-09
 36.00335      6.4 1.066e+04 4.286e-09
 36.02704      7.9 1.046e+04 4.638e-09
 36.06667      9.1 1.038e+04 4.975e-09
 36.10621     10.5 1.045e+04 5.620e-09
 36.14574     12.2 1.024e+04 5.536e-09
 36.18528     14.4 9.944e+03 4.234e-09
 36.22481     16.4 9.740e+03 2.984e-09
 36.24836     18.2 9.472e+03 2.567e-09
 36.26771     17.6 9.535e+03 2.368e-09
 36.28370     17.4 9.397e+03 2.266e-09
 36.30388     19.6 9.338e+03 2.191e-09
 36.34342     21.6 9.362e+03 2.695e-09
 36.38295     24.1 9.341e+03 3.263e-09
 36.42249     26.4 9.299e+03 3.170e-09
 36.46202     28.5 9.245e+03 2.812e-09
 36.50156     30.2 9.168e+03 2.618e-09
 36.54109     31.9 9.125e+03 2.537e-09
 36.56394     33.7 9.105e+03 2.573e-09
 36.58371     33.7 8.835e+03 2.325e-09
 36.62016     35.2 8.978e+03 2.522e-09
 36.65970     36.7 9.266e+03 3.314e-09
 36.68925     37.5 9.675e+03 4.302e-09
 36.70387     37.3 1.002e+04 5.196e-09
 36.71376     37.4 9.940e+03 4.887e-09
 36.72869     38.0 1.026e+04 6.267e-09
 36.74846     38.4 1.039e+04 6.793e-09
 36.76822     38.9 1.060e+04 7.700e-09
 36.78799     39.3 1.076e+04 8.272e-09
 36.80662     40.2 1.066e+04 7.932e-09
 36.81651     39.9 1.071e+04 8.279e-09
 36.82753     39.9 1.080e+04 8.052e-09
 36.84400     40.7 1.056e+04 6.791e-09
 36.85388     40.4 1.049e+04 6.149e-09
 36.86706     40.1 1.054e+04 5.656e-09
 36.89681     40.3 1.006e+04 4.245e-09
 36.93644     40.9 9.851e+03 3.957e-09
 36.97598     42.2 9.654e+03 4.197e-09
 37.00553     43.1 9.618e+03 4.257e-09
 37.02520     43.5 9.652e+03 4.304e-09
 37.04497     43.9 9.653e+03 4.366e-09
 37.06474     44.3 9.664e+03 4.540e-09
 37.08450     44.6 9.723e+03 4.850e-09
 37.09574     44.6 9.842e+03 5.419e-09
 37.10562     44.3 9.880e+03 5.462e-09
 37.12404     44.0 1.010e+04 6.467e-09
 37.13413     43.5 1.043e+04 8.151e-09
 37.14401     42.4 1.099e+04 1.114e-08
 37.16357     42.1 1.137e+04 1.400e-08
 37.18334     42.0 1.152e+04 1.507e-08
 37.20311     41.6 1.149e+04 1.440e-08
 37.22288     40.4 1.171e+04 1.408e-08
 37.24264     32.5 1.482e+04 2.293e-08
 37.26241     25.4 1.604e+04 6.268e-08
 37.27420     23.2 1.587e+04 1.179e-07
 37.27910     23.0 1.621e+04 1.414e-07
 37.28702     24.3 1.556e+04 1.488e-07
 37.29691     25.9 1.546e+04 1.273e-07
 37.30679     26.7 1.559e+04 8.848e-08
 37.31667     24.8 1.555e+04 4.109e-08
 37.32656     23.0 1.464e+04 3.244e-08
 37.34143     18.5 1.228e+04 1.219e-08
 37.36125     14.6 1.010e+04 6.780e-09
 37.37497     14.1 9.767e+03 5.767e-09
 37.38485     13.1 1.070e+04 9.321e-09
 37.40078     13.3 1.069e+04 9.097e-09
 37.41438     13.2 1.091e+04 9.541e-09
 37.42426     12.9 1.080e+04 8.368e-09
 37.44032     12.5 1.117e+04 1.066e-08
 37.46008     12.7 1.155e+04 1.443e-08
 37.47985     13.7 1.189e+04 1.812e-08
 37.49962     14.6 1.216e+04 1.960e-08
 37.52937     14.8 1.221e+04 1.516e-08
 37.56900     15.1 1.138e+04 8.049e-09
 37.59855     15.7 1.075e+04 4.404e-09
 37.61822     15.5 1.026e+04 3.484e-09
 37.63799     15.7 1.013e+04 2.536e-09
 37.65419     15.2 1.005e+04 2.334e-09
 37.66408     15.3 1.009e+04 2.324e-09
 37.67753     14.8 1.002e+04 2.675e-09
 37.69462     13.3 1.125e+04 3.266e-09
 37.70451     16.1 1.020e+04 2.513e-09
 37.71706     14.4 1.081e+04 3.855e-09
 37.73683     13.5 1.188e+04 7.936e-09
 37.75660     13.6 1.239e+04 1.622e-08
 37.77636     14.8 1.266e+04 2.418e-08
 37.79613     16.0 1.272e+04 2.579e-08
 37.81590     17.0 1.253e+04 2.012e-08
 37.83475     16.9 1.209e+04 1.386e-08
 37.84463     17.9 1.185e+04 1.251e-08
 37.85543     17.1 1.140e+04 9.839e-09
 37.87520     16.4 1.102e+04 8.566e-09
 37.89497     16.6 1.095e+04 9.185e-09
 37.91474     17.0 1.112e+04 1.065e-08
 37.93342     17.5 1.140e+04 1.214e-08
 37.94331     16.9 1.193e+04 1.555e-08
 37.95427     17.5 1.212e+04 1.849e-08
 37.97404     18.3 1.231e+04 1.983e-08
 37.98475     18.9 1.229e+04 1.929e-08
 37.99464     19.1 1.227e+04 1.890e-08
 38.01357     19.6 1.219e+04 1.614e-08
 38.03334     19.6 1.191e+04 1.305e-08
 38.05311     19.4 1.166e+04 1.079e-08
 38.07288     18.9 1.145e+04 8.701e-09
 38.09264     18.4 1.120e+04 8.245e-09
 38.11241     18.4 1.104e+04 8.250e-09
 38.12488     18.5 1.103e+04 8.184e-09
 38.13476     18.7 1.106e+04 8.301e-09
 38.15195     19.1 1.102e+04 8.400e-09
 38.17171     19.5 1.091e+04 8.069e-09
 38.19148     19.9 1.105e+04 6.345e-09
 38.21125     19.9 1.072e+04 5.760e-09
 38.24100     19.6 1.061e+04 4.219e-09
 38.26520     19.6 1.040e+04 3.873e-09
 38.28496     20.4 1.046e+04 3.595e-09
 38.32017     20.7 1.049e+04 3.956e-09
 38.35970     21.0 1.057e+04 5.281e-09
 38.39924     21.8 1.087e+04 7.142e-09
 38.43877     22.6 1.103e+04 8.395e-09
 38.46832     23.9 1.113e+04 8.803e-09
 38.48799     24.4 1.102e+04 8.661e-09
 38.50176     25.0 1.106e+04 7.910e-09
 38.51165     25.5 1.106e+04 7.885e-09
 38.52753     25.8 1.099e+04 7.610e-09
 38.54525     26.3 1.106e+04 7.725e-09
 38.55513     26.9 1.144e+04 9.568e-09
 38.56706     26.3 1.180e+04 1.043e-08
 38.58683     25.5 1.212e+04 1.368e-08
 38.60660     24.9 1.240e+04 1.774e-08
 38.62637     25.0 1.237e+04 2.257e-08
 38.64613     25.2 1.225e+04 2.211e-08
 38.66590     25.5 1.183e+04 1.751e-08
 38.68537     25.5 1.138e+04 1.522e-08
 38.69526     25.4 1.161e+04 1.690e-08
 38.70544     25.4 1.091e+04 1.102e-08
 38.72520     25.5 1.034e+04 9.268e-09
 38.74497     26.3 9.894e+03 6.130e-09
 38.76474     26.7 9.685e+03 5.457e-09
 38.78099     27.7 9.426e+03 4.692e-09
 38.79087     28.5 9.481e+03 4.839e-09
 38.80427     29.0 9.495e+03 4.826e-09
 38.82404     31.0 9.378e+03 4.893e-09
 38.83538     31.6 9.537e+03 5.215e-09
 38.84526     31.4 9.877e+03 6.461e-09
 38.86358     32.7 9.873e+03 7.621e-09
 38.88334     34.5 9.770e+03 8.014e-09
 38.90311     36.3 9.751e+03 7.989e-09
 38.92288     38.0 9.806e+03 8.202e-09
 38.94265     39.8 9.791e+03 8.097e-09
 38.96241     41.6 9.692e+03 7.568e-09
 38.97550     43.3 9.636e+03 7.143e-09
 38.98539     43.1 9.765e+03 7.378e-09
 39.00195     44.7 9.811e+03 7.453e-09
 39.02172     46.3 9.907e+03 7.722e-09
 39.04148     47.9 9.984e+03 8.021e-09
 39.06022     49.7 1.010e+04 8.510e-09
 39.07010     50.1 1.050e+04 1.056e-08
 39.08102     51.9 1.077e+04 1.170e-08
 39.10079     53.5 1.116e+04 1.366e-08
 39.11563     54.9 1.159e+04 1.630e-08
 39.12551     54.3 1.197e+04 1.842e-08
 39.14032     55.6 1.255e+04 2.279e-08
 39.16009     56.6 1.349e+04 3.162e-08
 39.17986     57.1 1.479e+04 4.940e-08
 39.19962     57.5 1.608e+04 7.966e-08
 39.21939     58.0 1.739e+04 1.327e-07
 39.23417     58.0 1.818e+04 1.773e-07
 39.24400     58.2 1.851e+04 2.010e-07
 39.25389     58.2 1.857e+04 1.993e-07
 39.26060     58.3 1.862e+04 1.953e-07
 39.26559     58.7 1.807e+04 1.211e-07
 39.27869     59.1 1.800e+04 1.148e-07
 39.29846     59.7 1.765e+04 9.447e-08
 39.31823     60.0 1.706e+04 7.255e-08
 39.33800     60.6 1.631e+04 5.886e-08
 39.34933     62.0 1.573e+04 5.375e-08
 39.35921     59.6 1.499e+04 4.717e-08
 39.37753     61.5 1.495e+04 4.698e-08
 39.39588     63.4 1.548e+04 4.618e-08
 39.40576     63.3 1.626e+04 4.237e-08
 39.41208     65.4 1.657e+04 4.516e-08
 39.42191     66.0 1.667e+04 4.662e-08
 39.43179     67.7 1.695e+04 4.753e-08
 39.44168     68.1 1.705e+04 4.833e-08
 39.45156     69.7 1.717e+04 4.913e-08
 39.46144     70.3 1.732e+04 5.026e-08
 39.47078     71.5 1.745e+04 4.921e-08
 39.47572     69.9 1.999e+04 6.722e-08
 39.48121     70.5 2.121e+04 7.893e-08
 39.48885     71.1 2.254e+04 1.004e-07
 39.49379     70.6 2.092e+04 6.190e-08
 39.50098     71.1 2.253e+04 7.384e-08
 39.51086     71.6 2.393e+04 9.317e-08
 39.52075     72.3 2.479e+04 1.198e-07
 39.53063     73.0 2.571e+04 1.499e-07
 39.54051     73.8 2.575e+04 1.888e-07
 39.54579     74.7 2.517e+04 2.469e-07
 39.55073     73.3 2.162e+04 5.757e-07
 39.56028     74.4 2.124e+04 6.774e-07
 39.57017     75.5 2.031e+04 8.375e-07
 39.58005     76.4 1.954e+04 1.035e-06
 39.58993     77.3 1.906e+04 1.238e-06
 39.59982     78.2 1.878e+04 1.418e-06
 39.60970     79.1 1.876e+04 1.492e-06
 39.61585     79.7 1.917e+04 1.438e-06
 39.62079     78.0 1.886e+04 9.825e-07
 39.62846     78.6 1.873e+04 9.128e-07
 39.63340     76.7 1.882e+04 1.137e-06
 39.63935     76.3 1.879e+04 9.636e-07
 39.64924     75.4 1.937e+04 7.525e-07
 39.65912     74.4 2.009e+04 5.443e-07
 39.66900     73.9 2.099e+04 3.757e-07
 39.67889     73.3 2.181e+04 2.639e-07
 39.68591     72.3 2.416e+04 1.937e-07
 39.69085     69.9 3.253e+04 1.861e-08
 39.69865     68.7 3.388e+04 1.360e-08
 39.70854     67.1 3.581e+04 1.202e-08
 39.71842     66.5 3.638e+04 1.161e-08
 39.72831     67.7 3.802e+04 1.321e-08
 39.73819     68.7 4.016e+04 1.471e-08
 39.74807     69.2 4.404e+04 1.560e-08
 39.75597     69.6 4.579e+04 2.236e-08
 39.76091     67.1 3.775e+04 9.852e-09
 39.76784     63.0 5.349e+04 8.987e-09
 39.77302     56.0 6.310e+04 1.085e-08
 39.77796     66.2 4.427e+04 2.114e-08
 39.78761     65.5 4.839e+04 2.532e-08
 39.79749     62.7 4.619e+04 6.148e-08
 39.80738     58.5 2.670e+04 1.353e-06
 39.81476     52.1 2.991e+04 1.286e-06
 39.81968     49.3 2.975e+04 1.372e-06
 39.82462     44.1 2.818e+04 1.756e-06
 39.82846     40.0 2.949e+04 1.366e-06
 39.83095     47.7 5.323e+04 5.092e-08
 39.83703     45.9 4.925e+04 4.321e-08
 39.84691     41.2 3.862e+04 6.922e-08
 39.85679     35.0 3.467e+04 1.166e-07
 39.86668     28.8 3.413e+04 1.926e-07
 39.87656     23.7 3.802e+04 1.815e-07
 39.88645     19.7 4.550e+04 1.069e-07
 39.89610     17.4 5.089e+04 8.778e-08
 39.90104     24.7 3.886e+04 1.152e-07
 39.90621     22.2 4.587e+04 8.226e-08
 39.91263     21.6 6.322e+04 1.921e-08
 39.91757     19.0 3.710e+04 3.735e-08
 39.93097     13.1 4.311e+04 9.739e-09
 39.95079     11.4 2.969e+04 6.886e-09
 39.96626     11.5 2.171e+04 6.452e-09
 39.97614     17.4 1.687e+04 1.229e-08
 39.99032     17.3 1.742e+04 9.688e-09
 40.01009     18.9 1.791e+04 9.681e-09
 40.02986     21.1 1.854e+04 1.166e-08
 40.04963     22.8 2.024e+04 1.573e-08
 40.06939     24.6 2.135e+04 2.846e-08
 40.08916     27.0 2.082e+04 4.872e-08
 40.10638     29.8 2.005e+04 6.142e-08
 40.11626     30.8 1.983e+04 6.777e-08
 40.12870     33.3 1.948e+04 7.938e-08
 40.14846     35.0 1.950e+04 8.825e-08
 40.16823     36.2 1.956e+04 9.488e-08
 40.18702     37.7 1.927e+04 9.583e-08
 40.19690     40.5 1.807e+04 4.541e-08
 40.20777     41.8 1.836e+04 5.082e-08
 40.22753     42.7 1.862e+04 5.804e-08
 40.24650     43.6 1.868e+04 6.738e-08
 40.25639     43.9 1.879e+04 6.956e-08
 40.26707     44.7 1.890e+04 8.301e-08
 40.28683     45.2 1.905e+04 1.011e-07
 40.30660     45.7 1.916e+04 1.215e-07
 40.32637     46.2 1.919e+04 1.380e-07
 40.34614     46.7 1.912e+04 1.420e-07
 40.36590     47.4 1.892e+04 1.372e-07
 40.38567     47.8 1.870e+04 1.284e-07
 40.39651     48.2 1.827e+04 1.161e-07
 40.40639     48.1 1.860e+04 1.209e-07
 40.42521     48.3 1.835e+04 1.037e-07
 40.44497     48.1 1.785e+04 8.263e-08
 40.46474     47.7 1.730e+04 6.983e-08
 40.47613     47.2 1.689e+04 6.519e-08
 40.48601     48.4 1.774e+04 8.798e-08
 40.50428     47.6 1.717e+04 8.150e-08
 40.51905     45.8 1.769e+04 8.581e-08
 40.52889     44.8 1.743e+04 8.730e-08
 40.53654     43.6 1.738e+04 8.896e-08
 40.54148     42.6 1.773e+04 1.016e-07
 40.54866     41.9 1.738e+04 9.821e-08
 40.55854     40.9 1.717e+04 9.227e-08
 40.56842     40.1 1.684e+04 8.524e-08
 40.57831     39.1 1.665e+04 7.418e-08
 40.58819     37.6 1.646e+04 6.347e-08
 40.59808     35.3 1.633e+04 5.683e-08
 40.60660     32.6 1.631e+04 5.391e-08
 40.61154     30.5 1.700e+04 6.310e-08
 40.61564     26.5 1.709e+04 7.104e-08
 40.62059     26.1 1.698e+04 7.890e-08
 40.62773     23.8 1.678e+04 8.966e-08
 40.63761     22.8 1.641e+04 1.055e-07
 40.64749     22.8 1.644e+04 1.101e-07
 40.65738     21.9 1.648e+04 9.997e-08
 40.66726     21.6 1.615e+04 9.449e-08
 40.67671     21.2 1.598e+04 6.923e-08
 40.68664     17.8 1.541e+04 5.101e-08
 40.70195     15.6 1.377e+04 2.608e-08
 40.72172     13.4 1.205e+04 1.532e-08
 40.74149     12.4 1.125e+04 1.162e-08
 40.75536     12.1 1.099e+04 1.062e-08
 40.76524     12.2 1.059e+04 9.121e-09
 40.78102     12.8 1.053e+04 9.905e-09
 40.80079     13.4 1.057e+04 1.004e-08
 40.81688     14.1 1.047e+04 9.978e-09
 40.82677     12.7 1.052e+04 1.034e-08
 40.84032     13.7 1.014e+04 9.510e-09
 40.86009     14.8 9.863e+03 8.264e-09
 40.87986     15.6 9.732e+03 5.984e-09
 40.89963     16.5 9.031e+03 5.208e-09
 40.91939     17.7 8.938e+03 3.761e-09
 40.93916     18.0 8.942e+03 2.872e-09
 40.95701     18.4 8.640e+03 2.712e-09
 40.96689     16.4 8.829e+03 3.311e-09
 40.97870     16.8 8.882e+03 3.583e-09
 40.99846     17.4 9.117e+03 4.030e-09
 41.01823     17.9 9.333e+03 4.817e-09
 41.03458     18.4 9.403e+03 5.442e-09
 41.04447     18.4 9.539e+03 5.890e-09
 41.05777     18.9 9.577e+03 6.377e-09
 41.07753     19.7 9.445e+03 6.357e-09
 41.09713     20.1 9.496e+03 6.010e-09
 41.10701     17.2 9.906e+03 5.854e-09
 41.11707     16.9 1.004e+04 6.134e-09
 41.13684     16.4 1.029e+04 6.744e-09
 41.15660     16.1 1.040e+04 7.897e-09
 41.17637     16.1 1.046e+04 8.809e-09
 41.19614     16.6 1.027e+04 9.524e-09
 41.21591     17.5 1.013e+04 9.375e-09
 41.23567     18.6 9.854e+03 8.661e-09
 41.24714     19.5 9.502e+03 7.927e-09
 41.25702     19.1 9.313e+03 6.901e-09
 41.27521     20.3 8.988e+03 5.034e-09
 41.29498     21.0 8.861e+03 3.976e-09
 41.31381     21.7 8.709e+03 3.429e-09
 41.32370     21.0 8.658e+03 3.082e-09
 41.33451     21.7 8.308e+03 2.740e-09
 41.35428     23.2 7.993e+03 2.463e-09
 41.37405     24.3 8.019e+03 2.491e-09
 41.38726     25.9 7.912e+03 2.421e-09
 41.39714     25.9 7.840e+03 1.937e-09
 41.41358     26.3 7.893e+03 1.972e-09
 41.43335     27.9 7.816e+03 2.051e-09
 41.45312     28.9 7.872e+03 2.240e-09
 41.47288     29.9 7.914e+03 2.592e-09
 41.49265     31.0 8.030e+03 3.044e-09
 41.51242     32.1 8.259e+03 3.689e-09
 41.52738     33.2 8.586e+03 4.635e-09
 41.53727     32.6 8.839e+03 5.253e-09
 41.55195     33.7 9.147e+03 6.694e-09
 41.57172     34.8 9.476e+03 8.350e-09
 41.59149     35.9 9.803e+03 1.010e-08
 41.60293     37.1 1.007e+04 1.167e-08
 41.61281     36.8 1.046e+04 1.364e-08
 41.63102     38.0 1.058e+04 1.396e-08
 41.65079     39.1 1.067e+04 1.384e-08
 41.66751     40.1 1.074e+04 1.338e-08
 41.67739     39.6 1.092e+04 1.298e-08
 41.69033     40.4 1.082e+04 1.185e-08
 41.71009     41.0 1.064e+04 1.046e-08
 41.72986     41.6 1.056e+04 1.013e-08
 41.74963     42.2 1.062e+04 1.030e-08
 41.76940     42.8 1.085e+04 1.118e-08
 41.78916     42.8 1.129e+04 1.335e-08
 41.80763     42.2 1.231e+04 1.929e-08
 41.81752     42.1 1.288e+04 1.910e-08
 41.82870     41.7 1.558e+04 4.690e-08
 41.84847     42.7 1.739e+04 1.027e-07
 41.86324     43.2 1.779e+04 1.438e-07
 41.87308     43.6 1.875e+04 2.391e-07
 41.88206     45.0 1.938e+04 5.273e-07
 41.88657     42.3 1.926e+04 2.867e-07
 41.88748     42.6 1.959e+04 3.090e-07
 41.89285     40.7 1.821e+04 1.846e-06
 41.90273     32.7 2.110e+04 9.594e-07
 41.91261     24.6 2.169e+04 7.463e-07
 41.92250     19.5 1.937e+04 1.411e-06
 41.93238     19.6 2.034e+04 5.032e-07
 41.94226     19.5 1.981e+04 2.145e-07
 41.95215     19.4 1.902e+04 1.623e-07
 41.95759     19.9 1.792e+04 9.146e-08
 41.96253     21.1 1.880e+04 1.480e-07
 41.97192     21.3 1.853e+04 1.166e-07
 41.98679     21.8 1.798e+04 8.509e-08
 42.00661     21.6 1.768e+04 8.192e-08
 42.02637     20.2 1.806e+04 1.049e-07
 42.04614     19.1 1.834e+04 1.569e-07
 42.06092     19.3 1.843e+04 1.813e-07
 42.07075     19.1 1.849e+04 1.886e-07
 42.08563     18.1 1.839e+04 1.697e-07
 42.09776     17.6 1.719e+04 9.797e-08
 42.10765     20.1 1.792e+04 1.451e-07
 42.12521     19.3 1.641e+04 6.785e-08
 42.14498     17.9 1.474e+04 3.577e-08
 42.16138     17.1 1.316e+04 2.140e-08
 42.17127     18.9 1.388e+04 2.920e-08
 42.18451     19.2 1.309e+04 2.380e-08
 42.20428     19.9 1.259e+04 1.800e-08
 42.22405     20.6 1.230e+04 1.425e-08
 42.23789     21.3 1.211e+04 1.238e-08
 42.24777     22.5 1.206e+04 1.169e-08
 42.26358     23.3 1.181e+04 9.396e-09
 42.28335     24.0 1.165e+04 8.492e-09
 42.30312     24.9 1.158e+04 8.532e-09
 42.32289     25.9 1.150e+04 8.470e-09
 42.34265     27.0 1.139e+04 8.284e-09
 42.36242     28.2 1.122e+04 7.722e-09
 42.37801     29.3 1.109e+04 7.132e-09
 42.38790     30.0 1.108e+04 7.133e-09
 42.40196     31.0 1.095e+04 6.957e-09
 42.42172     32.0 1.080e+04 6.613e-09
 42.44061     32.9 1.068e+04 6.177e-09
 42.45049     33.1 1.107e+04 7.925e-09
 42.46126     33.9 1.105e+04 7.809e-09
 42.48103     34.3 1.110e+04 8.082e-09
 42.50079     34.7 1.111e+04 8.674e-09
 42.51814     35.3 1.122e+04 9.842e-09
 42.52802     35.7 1.130e+04 1.017e-08
 42.54033     36.1 1.150e+04 1.183e-08
 42.56010     36.7 1.171e+04 1.376e-08
 42.57986     37.1 1.206e+04 1.650e-08
 42.59963     37.4 1.249e+04 1.982e-08
 42.61940     37.3 1.286e+04 2.351e-08
 42.63917     37.1 1.334e+04 3.006e-08
 42.65826     37.1 1.374e+04 3.700e-08
 42.66814     36.7 1.352e+04 3.376e-08
 42.67870     36.5 1.352e+04 3.311e-08
 42.69847     35.9 1.365e+04 3.247e-08
 42.71824     34.5 1.391e+04 3.365e-08
 42.72972     32.7 1.423e+04 3.787e-08
 42.73961     34.2 1.451e+04 3.967e-08
 42.75777     32.4 1.503e+04 5.419e-08
 42.77255     31.7 1.484e+04 5.710e-08
 42.78238     31.6 1.471e+04 5.690e-08
 42.79227     32.6 1.400e+04 4.718e-08
 42.80215     32.5 1.385e+04 4.457e-08
 42.80817     33.0 1.332e+04 3.450e-08
 42.81311     31.8 1.396e+04 4.005e-08
 42.82192     31.5 1.391e+04 3.773e-08
 42.83180     30.4 1.368e+04 3.138e-08
 42.84168     30.2 1.361e+04 3.083e-08
 42.85656     29.2 1.341e+04 2.981e-08
 42.87638     28.8 1.260e+04 2.546e-08
 42.89614     28.9 1.252e+04 2.570e-08
 42.91591     29.2 1.262e+04 2.692e-08
 42.93568     29.7 1.270e+04 2.752e-08
 42.94839     30.4 1.253e+04 2.572e-08
 42.95827     29.3 1.279e+04 3.095e-08
 42.97521     30.6 1.220e+04 2.559e-08
 42.99498     32.0 1.142e+04 1.807e-08
 43.00895     33.2 1.062e+04 1.169e-08
 43.01883     32.4 1.020e+04 9.937e-09
 43.03452     33.1 9.595e+03 6.645e-09
 43.05428     33.6 9.116e+03 4.680e-09
 43.07405     34.2 8.789e+03 3.846e-09
 43.08851     35.3 8.576e+03 3.522e-09
 43.09840     35.3 8.760e+03 3.873e-09
 43.11359     36.4 8.622e+03 3.715e-09
 43.13335     37.8 8.619e+03 3.723e-09
 43.15312     39.1 8.672e+03 3.892e-09
 43.17289     40.2 8.706e+03 4.163e-09
 43.19265     41.3 8.766e+03 4.502e-09
 43.21242     42.6 8.812e+03 4.852e-09
 43.22864     43.6 8.935e+03 5.336e-09
 43.23852     43.9 9.153e+03 6.240e-09
 43.25196     44.9 9.509e+03 7.004e-09
 43.27172     45.4 9.846e+03 8.167e-09
 43.28818     46.1 1.029e+04 1.043e-08
 43.29806     46.9 9.612e+03 7.837e-09
 43.31126     47.3 1.013e+04 1.058e-08
 43.33103     47.7 1.090e+04 1.505e-08
 43.35079     48.3 1.169e+04 2.132e-08
 43.36876     49.0 1.237e+04 2.836e-08
 43.37865     49.3 1.184e+04 2.394e-08
 43.39033     50.1 1.228e+04 2.849e-08
 43.41010     50.8 1.270e+04 3.230e-08
 43.42986     51.0 1.305e+04 3.550e-08
 43.44963     50.7 1.343e+04 3.997e-08
 43.46940     50.2 1.387e+04 4.720e-08
 43.48917     49.8 1.437e+04 5.873e-08
 43.50889     50.1 1.480e+04 7.422e-08
 43.52865     51.4 1.421e+04 6.024e-08
 43.54348     51.9 1.464e+04 6.904e-08
 43.55331     52.1 1.470e+04 6.790e-08
 43.56320     52.2 1.473e+04 6.257e-08
 43.57225     52.1 1.473e+04 5.789e-08
 43.57719     52.9 1.537e+04 8.168e-08
 43.58297     52.6 1.535e+04 7.066e-08
 43.58873     52.1 1.525e+04 6.076e-08
 43.59368     51.9 1.501e+04 4.952e-08
 43.60273     50.9 1.461e+04 4.246e-08
 43.61262     50.1 1.413e+04 3.771e-08
 43.62250     48.9 1.390e+04 3.506e-08
 43.63238     48.2 1.376e+04 3.399e-08
 43.64227     46.9 1.398e+04 3.541e-08
 43.65215     46.0 1.419e+04 3.708e-08
 43.65880     44.2 1.491e+04 4.372e-08
 43.66374     42.5 1.528e+04 5.403e-08
 43.67192     42.1 1.552e+04 6.251e-08
 43.68679     41.1 1.650e+04 9.833e-08
 43.70661     41.4 1.651e+04 1.139e-07
 43.72638     41.7 1.662e+04 1.179e-07
 43.74614     41.7 1.664e+04 1.082e-07
 43.76591     41.3 1.645e+04 9.929e-08
 43.78568     41.2 1.628e+04 8.956e-08
 43.79902     41.3 1.601e+04 8.170e-08
 43.80890     40.5 1.503e+04 6.781e-08
 43.82521     41.1 1.464e+04 6.069e-08
 43.84498     42.1 1.417e+04 5.275e-08
 43.85652     43.3 1.362e+04 4.260e-08
 43.86640     43.2 1.404e+04 4.645e-08
 43.88452     44.5 1.355e+04 3.858e-08
 43.90428     45.7 1.294e+04 3.016e-08
 43.92405     46.9 1.227e+04 2.267e-08
 43.93914     48.1 1.165e+04 1.705e-08
 43.94902     48.4 1.137e+04 1.787e-08
 43.96359     49.5 1.097e+04 1.397e-08
 43.98335     50.8 1.051e+04 1.081e-08
 44.00312     52.2 1.009e+04 8.503e-09
 44.02289     53.4 9.779e+03 6.789e-09
 44.04266     54.4 9.529e+03 5.439e-09
 44.06242     55.4 9.361e+03 4.748e-09
 44.07926     56.5 9.355e+03 4.749e-09
 44.08915     56.7 9.287e+03 4.724e-09
 44.10196     57.8 9.278e+03 4.783e-09
 44.12173     59.0 9.300e+03 4.899e-09
 44.13575     60.2 9.347e+03 4.911e-09
 44.14563     60.5 9.486e+03 5.390e-09
 44.16126     61.5 9.493e+03 5.343e-09
 44.18103     62.5 9.526e+03 5.221e-09
 44.20080     63.4 9.568e+03 5.198e-09
 44.21939     64.1 9.679e+03 5.269e-09
 44.22927     64.6 9.656e+03 5.200e-09
 44.24033     65.3 9.743e+03 5.291e-09
 44.26010     66.0 9.853e+03 5.483e-09
 44.27987     66.6 9.969e+03 5.718e-09
 44.29963     67.2 1.009e+04 5.952e-09
 44.31940     67.8 1.024e+04 6.219e-09
 44.33917     68.3 1.043e+04 6.629e-09
 44.35894     68.8 1.072e+04 7.473e-09
 44.36940     69.1 1.112e+04 9.169e-09
 44.37928     69.3 1.109e+04 9.127e-09
 44.39847     69.5 1.148e+04 1.180e-08
 44.41498     70.0 1.195e+04 1.579e-08
 44.42486     70.1 1.204e+04 1.584e-08
 44.43801     70.6 1.256e+04 2.064e-08
 44.45777     71.2 1.309e+04 2.502e-08
 44.47754     71.4 1.357e+04 2.767e-08
 44.49731     71.3 1.406e+04 2.957e-08
 44.50952     70.5 1.486e+04 3.456e-08
 44.51940     70.0 1.307e+04 1.787e-08
 44.53684     67.9 1.393e+04 2.193e-08
 44.55661     65.1 1.545e+04 4.210e-08
 44.57638     62.8 1.591e+04 6.747e-08
 44.59615     61.8 1.560e+04 6.651e-08
 44.61591     62.1 1.461e+04 4.710e-08
 44.63568     61.8 1.345e+04 2.058e-08
 44.64964     59.1 1.204e+04 7.519e-09
 44.65953     58.5 1.064e+04 5.855e-09
 44.67522     56.5 9.636e+03 3.866e-09
 44.69420     56.0 9.602e+03 3.920e-09
 44.70409     56.9 9.589e+03 4.032e-09
 44.71475     55.7 1.017e+04 5.277e-09
 44.73452     48.5 1.392e+04 1.997e-08
 44.74930     43.4 1.601e+04 5.332e-08
 44.75913     40.8 1.694e+04 1.251e-07
 44.76901     40.7 1.737e+04 2.312e-07
 44.77890     39.9 1.763e+04 2.583e-07
 44.78878     41.1 1.698e+04 1.954e-07
 44.79461     40.2 1.698e+04 1.279e-07
 44.79955     40.1 1.733e+04 1.789e-07
 44.80855     39.2 1.670e+04 8.409e-08
 44.81843     35.7 1.552e+04 5.170e-08
 44.83331     34.8 1.392e+04 2.721e-08
 44.85312     30.9 1.148e+04 1.053e-08
 44.87289     30.0 1.023e+04 6.216e-09
 44.89266     30.4 9.780e+03 4.928e-09
 44.91243     31.3 9.585e+03 4.300e-09
 44.92989     32.1 9.501e+03 4.239e-09
 44.93978     32.8 9.964e+03 5.586e-09
 44.95196     33.6 9.719e+03 5.195e-09
 44.97173     34.3 9.616e+03 5.106e-09
 44.98332     35.1 9.552e+03 5.090e-09
 44.99320     35.2 9.639e+03 5.519e-09
 45.01126     35.8 9.665e+03 5.605e-09
 45.03103     36.3 9.688e+03 5.784e-09
 45.05080     36.9 9.669e+03 5.867e-09
 45.07002     37.5 9.629e+03 5.747e-09
 45.07990     37.7 9.773e+03 6.348e-09
 45.09033     38.3 9.691e+03 5.953e-09
 45.11010     39.1 9.594e+03 5.310e-09
 45.12987     39.1 9.546e+03 4.614e-09
 45.15962     40.4 9.144e+03 3.211e-09
 45.19925     41.9 8.790e+03 2.132e-09
 45.23878     43.2 8.690e+03 1.723e-09
 45.26274     44.7 8.739e+03 1.761e-09
 45.28251     45.6 8.681e+03 1.844e-09
 45.31785     47.0 8.999e+03 2.183e-09
 45.35046     48.5 9.368e+03 2.956e-09
 45.37023     49.6 9.175e+03 2.246e-09
 45.39692     50.7 9.397e+03 2.639e-09
 45.42648     51.1 9.654e+03 3.330e-09
 45.44615     51.4 9.983e+03 4.388e-09
 45.46592     51.4 1.037e+04 5.913e-09
 45.48568     51.5 1.070e+04 8.115e-09
 45.50027     51.9 1.098e+04 1.060e-08
 45.51015     52.2 1.084e+04 9.055e-09
 45.52522     52.6 1.108e+04 1.062e-08
 45.54177     52.8 1.128e+04 1.075e-08
 45.55166     52.8 1.148e+04 1.219e-08
 45.56475     52.7 1.150e+04 1.192e-08
 45.58452     52.4 1.152e+04 1.130e-08
 45.60429     52.1 1.151e+04 1.057e-08
 45.62406     52.0 1.150e+04 1.000e-08
 45.64039     52.0 1.154e+04 9.728e-09
 45.65028     52.0 1.159e+04 9.990e-09
 45.66359     52.0 1.164e+04 9.631e-09
 45.68336     51.9 1.172e+04 9.450e-09
 45.70313     51.8 1.180e+04 9.692e-09
 45.72289     51.8 1.192e+04 9.777e-09
 45.74266     51.9 1.193e+04 9.192e-09
 45.76243     52.1 1.193e+04 7.981e-09
 45.78052     52.2 1.197e+04 6.643e-09
 45.79040     51.7 1.184e+04 5.484e-09
 45.80196     51.8 1.184e+04 5.348e-09
 45.82100     51.9 1.189e+04 5.552e-09
 45.83089     51.7 1.174e+04 4.750e-09
 45.84150     51.9 1.187e+04 5.338e-09
 45.86127     52.2 1.198e+04 6.587e-09
 45.88103     52.7 1.209e+04 8.341e-09
 45.90080     53.5 1.224e+04 1.009e-08
 45.92057     54.3 1.231e+04 1.049e-08
 45.94034     55.0 1.236e+04 1.003e-08
 45.96010     55.6 1.238e+04 9.463e-09
 45.97987     56.2 1.240e+04 8.923e-09
 45.99964     56.8 1.240e+04 8.376e-09
 46.01941     57.3 1.239e+04 7.734e-09
 46.03917     57.8 1.238e+04 7.202e-09
 46.05894     58.3 1.236e+04 6.911e-09
 46.07065     58.8 1.235e+04 6.740e-09
 46.08053     59.1 1.261e+04 7.518e-09
 46.09847     59.6 1.262e+04 7.005e-09
 46.11011     60.1 1.265e+04 6.519e-09
 46.12000     59.2 1.291e+04 8.119e-09
 46.13801     59.6 1.291e+04 7.792e-09
 46.15778     60.1 1.305e+04 7.689e-09
 46.17754     60.4 1.316e+04 7.886e-09
 46.19731     60.7 1.320e+04 8.233e-09
 46.21077     61.1 1.320e+04 8.284e-09
 46.22066     61.5 1.316e+04 6.586e-09
 46.23685     62.0 1.315e+04 6.329e-09
 46.25661     62.6 1.311e+04 5.706e-09
 46.27638     63.1 1.308e+04 4.974e-09
 46.29615     63.8 1.302e+04 4.388e-09
 46.31592     64.0 1.302e+04 4.085e-09
 46.34567     66.3 1.307e+04 3.448e-09
 46.37965     68.2 1.293e+04 3.089e-09
 46.39942     66.5 1.267e+04 2.950e-09
 46.42483     68.9 1.252e+04 2.606e-09
 46.46437     71.3 1.244e+04 2.347e-09
 46.49122     73.6 1.238e+04 2.223e-09
 46.51098     74.7 1.261e+04 2.336e-09
 46.54344     77.0 1.270e+04 2.246e-09
 46.58297     79.2 1.278e+04 2.180e-09
 46.62251     81.5 1.280e+04 2.154e-09
 46.66204     83.7 1.285e+04 2.128e-09
 46.70158     85.9 1.294e+04 2.053e-09
 46.74111     88.2 1.302e+04 1.938e-09
 46.77146     90.5 1.311e+04 1.851e-09
 46.79123     91.4 1.324e+04 1.831e-09
 46.82018     93.8 1.334e+04 1.824e-09
 46.85972     96.2 1.352e+04 1.855e-09
 46.89925     98.6 1.373e+04 1.968e-09
 46.93811    100.9 1.398e+04 2.182e-09
 46.95788    100.1 1.388e+04 1.949e-09
 46.97832    102.5 1.412e+04 2.253e-09
 47.01786    104.9 1.443e+04 2.792e-09
 47.05171    107.3 1.473e+04 3.632e-09
 47.07148    107.9 1.493e+04 2.407e-09
 47.09693    110.3 1.516e+04 3.133e-09
 47.13646    112.6 1.528e+04 4.247e-09
 47.17600    115.0 1.532e+04 6.108e-09
 47.21553    117.2 1.550e+04 9.114e-09
 47.25507    118.7 1.570e+04 1.190e-08
 47.28462    117.9 1.571e+04 1.322e-08
 47.30429    117.7 1.572e+04 1.464e-08
 47.32406    117.5 1.582e+04 1.619e-08
 47.34165    117.0 1.585e+04 1.631e-08
 47.35153    116.6 1.563e+04 1.232e-08
 47.36359    115.7 1.535e+04 1.081e-08
 47.38336    114.4 1.484e+04 9.467e-09
 47.40313    113.3 1.436e+04 8.881e-09
 47.42290    112.4 1.404e+04 8.694e-09
 47.44266    112.1 1.399e+04 8.679e-09
 47.46243    112.0 1.392e+04 8.629e-09
 47.49218    112.0 1.390e+04 8.279e-09
 47.51633    112.9 1.382e+04 7.701e-09
 47.53610    112.5 1.350e+04 6.632e-09
 47.57135    113.7 1.327e+04 4.855e-09
 47.61088    115.4 1.304e+04 2.748e-09
 47.63197    117.5 1.304e+04 1.245e-09
 47.65174    117.0 1.304e+04 1.356e-09
 47.68995    119.3 1.324e+04 6.447e-10
 47.72949    121.8 1.283e+04 5.647e-10
 47.76902    124.6 1.285e+04 5.665e-10
 47.80856    127.3 1.299e+04 5.970e-10
 47.84809    129.7 1.326e+04 6.761e-10
 47.88763    131.8 1.299e+04 1.089e-09
 47.91222    134.0 1.350e+04 2.428e-09
 47.93199    134.4 1.341e+04 3.743e-09
 47.96670    137.0 1.343e+04 5.190e-09
 48.00623    140.0 1.344e+04 6.464e-09
 48.04577    143.2 1.340e+04 7.383e-09
 48.07479    146.8 1.337e+04 7.842e-09
 48.09456    148.1 1.275e+04 4.360e-09
 48.12484    151.8 1.286e+04 5.342e-09
 48.16437    155.4 1.306e+04 6.050e-09
 48.19237    157.0 1.331e+04 6.928e-09
 48.21214    159.5 1.326e+04 7.518e-09
 48.23346    161.0 1.335e+04 8.309e-09
 48.25313    162.5 1.335e+04 8.812e-09
 48.27290    164.1 1.335e+04 9.006e-09
 48.29267    165.7 1.339e+04 9.082e-09
 48.31243    167.4 1.344e+04 9.206e-09
 48.33220    168.9 1.351e+04 9.458e-09
 48.34228    170.5 1.356e+04 9.827e-09
 48.35217    170.7 1.383e+04 1.246e-08
 48.36371    172.2 1.384e+04 1.297e-08
 48.37359    173.0 1.382e+04 1.198e-08
 48.39150    174.4 1.385e+04 1.285e-08
 48.41127    175.8 1.387e+04 1.357e-08
 48.43104    177.1 1.388e+04 1.415e-08
 48.45081    178.4 1.389e+04 1.478e-08
 48.47057    179.7 1.383e+04 1.550e-08
 48.48241    181.0 1.373e+04 1.594e-08
 48.49229    180.8 1.434e+04 2.424e-08
 48.51011    182.0 1.429e+04 2.426e-08
 48.52988    183.1 1.421e+04 2.363e-08
 48.54964    184.2 1.410e+04 2.224e-08
 48.56941    185.3 1.397e+04 2.019e-08
 48.58918    186.4 1.377e+04 1.794e-08
 48.60895    187.6 1.354e+04 1.571e-08
 48.62253    188.7 1.330e+04 1.360e-08
 48.63241    188.3 1.364e+04 1.708e-08
 48.64294    189.5 1.333e+04 1.340e-08
 48.65282    189.6 1.442e+04 2.877e-08
 48.66825    190.8 1.402e+04 2.127e-08
 48.68802    192.0 1.365e+04 1.666e-08
 48.70778    193.1 1.338e+04 1.391e-08
 48.72755    194.4 1.318e+04 1.227e-08
 48.74732    195.9 1.304e+04 1.135e-08
 48.76265    197.3 1.294e+04 1.088e-08
 48.77254    196.7 1.299e+04 1.015e-08
 48.78685    198.2 1.292e+04 1.011e-08
 48.80662    199.7 1.284e+04 1.013e-08
 48.82639    201.5 1.284e+04 1.017e-08
 48.84616    203.1 1.287e+04 1.041e-08
 48.86592    204.5 1.293e+04 1.083e-08
 48.88569    205.9 1.299e+04 1.139e-08
 48.90278    207.4 1.306e+04 1.212e-08
 48.91266    206.8 1.306e+04 1.110e-08
 48.92216    208.3 1.313e+04 1.190e-08
 48.93205    208.1 1.312e+04 1.075e-08
 48.94499    209.4 1.315e+04 1.115e-08
 48.96476    210.8 1.317e+04 1.125e-08
 48.98453    212.1 1.317e+04 1.120e-08
 49.00430    213.4 1.316e+04 1.101e-08
 49.02406    214.6 1.314e+04 1.080e-08
 49.04290    215.9 1.315e+04 1.077e-08
 49.05278    215.3 1.309e+04 7.891e-09
 49.06360    216.4 1.313e+04 8.020e-09
 49.08336    217.2 1.332e+04 8.821e-09
 49.10313    217.4 1.373e+04 1.201e-08
 49.12290    216.9 1.485e+04 2.102e-08
 49.14267    215.9 1.662e+04 4.138e-08
 49.15744    214.3 1.773e+04 6.683e-08
 49.16728    212.4 1.884e+04 1.201e-07
 49.17716    210.6 1.946e+04 2.542e-07
 49.18705    209.3 1.948e+04 4.742e-07
 49.19281    208.2 1.930e+04 6.160e-07
 49.19775    205.4 1.939e+04 6.377e-07
 49.20624    204.9 1.907e+04 4.921e-07
 49.21118    204.9 1.911e+04 4.196e-07
 49.21670    204.7 1.900e+04 2.568e-07
 49.22658    204.6 1.888e+04 1.658e-07
 49.24146    202.3 1.841e+04 4.968e-08
 49.26127    200.6 1.662e+04 1.810e-08
 49.28104    199.5 1.402e+04 1.034e-08
 49.30081    199.5 1.318e+04 8.941e-09
 49.32057    200.6 1.309e+04 8.477e-09
 49.33303    202.3 1.310e+04 8.407e-09
 49.34292    201.9 1.318e+04 7.570e-09
 49.36011    203.3 1.316e+04 7.762e-09
 49.37988    204.6 1.312e+04 8.194e-09
 49.39964    206.1 1.312e+04 8.951e-09
 49.41941    207.6 1.318e+04 1.020e-08
 49.43918    208.9 1.330e+04 1.196e-08
 49.45895    210.1 1.345e+04 1.418e-08
 49.47316    211.2 1.362e+04 1.674e-08
 49.48304    210.6 1.373e+04 1.953e-08
 49.49051    211.6 1.396e+04 2.272e-08
 49.50039    210.3 1.418e+04 2.397e-08
 49.51825    210.9 1.428e+04 2.595e-08
 49.53802    211.4 1.430e+04 2.649e-08
 49.55778    211.9 1.428e+04 2.631e-08
 49.57755    212.4 1.418e+04 2.541e-08
 49.59732    213.0 1.396e+04 2.301e-08
 49.61328    213.7 1.366e+04 1.924e-08
 49.62316    213.4 1.342e+04 1.562e-08
 49.63685    214.1 1.305e+04 1.141e-08
 49.65662    214.8 1.274e+04 7.965e-09
 49.67639    215.6 1.247e+04 5.657e-09
 49.70614    217.9 1.247e+04 4.011e-09
 49.74577    219.5 1.188e+04 2.467e-09
 49.76993    221.6 1.163e+04 2.154e-09
 49.78970    218.5 1.051e+04 1.751e-09
 49.82484    221.2 1.045e+04 1.726e-09
 49.86438    224.2 1.061e+04 1.745e-09
 49.89363    225.1 1.062e+04 1.758e-09
 49.91339    225.3 1.061e+04 1.578e-09
 49.93346    225.9 1.063e+04 1.705e-09
 49.95313    226.4 1.060e+04 1.842e-09
 49.97290    226.4 1.058e+04 2.057e-09
 49.99267    225.9 1.067e+04 2.424e-09
 50.01244    225.3 1.089e+04 2.989e-09
 50.03220    223.9 1.114e+04 3.707e-09
 50.04354    221.7 1.168e+04 5.151e-09
 50.05041    220.5 1.150e+04 5.073e-09
 50.05885    222.5 1.122e+04 4.540e-09
 50.07174    221.3 1.161e+04 5.997e-09
 50.09151    220.3 1.202e+04 7.913e-09
 50.11127    219.6 1.218e+04 8.979e-09
 50.13104    219.1 1.217e+04 8.980e-09
 50.15081    219.1 1.210e+04 8.649e-09
 50.17058    219.2 1.199e+04 7.822e-09
 50.18366    219.6 1.183e+04 6.886e-09
 50.19354    219.4 1.152e+04 5.468e-09
 50.21011    220.0 1.138e+04 5.121e-09
 50.22988    220.7 1.129e+04 5.054e-09
 50.24965    221.6 1.128e+04 5.069e-09
 50.26941    222.5 1.126e+04 5.143e-09
 50.28918    223.4 1.126e+04 5.350e-09
 50.30895    224.4 1.135e+04 5.776e-09
 50.32378    225.1 1.155e+04 6.410e-09
 50.33314    224.7 1.178e+04 7.314e-09
 50.33807    224.1 1.180e+04 8.432e-09
 50.34848    224.0 1.206e+04 1.003e-08
 50.36825    223.5 1.247e+04 1.315e-08
 50.38802    222.5 1.333e+04 2.049e-08
 50.40779    221.0 1.465e+04 3.647e-08
 50.42755    218.8 1.604e+04 5.986e-08
 50.44732    215.6 1.710e+04 7.169e-08
 50.46391    211.4 1.728e+04 7.028e-08
 50.47379    211.1 1.646e+04 4.761e-08
 50.48686    207.0 1.613e+04 3.852e-08
 50.50662    204.0 1.523e+04 3.027e-08
 50.52639    202.0 1.411e+04 2.295e-08
 50.54616    201.3 1.324e+04 1.807e-08
 50.56593    201.3 1.289e+04 1.623e-08
 50.58569    201.6 1.281e+04 1.577e-08
 50.60403    202.2 1.282e+04 1.566e-08
 50.61391    202.4 1.255e+04 1.319e-08
 50.61730    203.0 1.257e+04 1.325e-08
 50.62719    202.3 1.242e+04 1.205e-08
 50.64500    202.8 1.242e+04 1.168e-08
 50.66476    203.2 1.244e+04 1.150e-08
 50.68453    203.6 1.247e+04 1.163e-08
 50.70430    203.9 1.252e+04 1.197e-08
 50.72407    204.1 1.259e+04 1.257e-08
 50.74383    204.3 1.265e+04 1.350e-08
 50.75404    204.5 1.273e+04 1.481e-08
 50.76392    203.9 1.243e+04 1.304e-08
 50.78337    204.2 1.259e+04 1.509e-08
 50.80314    204.5 1.280e+04 1.788e-08
 50.82290    204.9 1.306e+04 2.139e-08
 50.84267    205.4 1.337e+04 2.539e-08
 50.86244    206.0 1.368e+04 2.942e-08
 50.88221    206.4 1.393e+04 3.279e-08
 50.89416    206.6 1.421e+04 3.546e-08
 50.89860    206.1 1.399e+04 3.065e-08
 50.90641    205.7 1.387e+04 3.154e-08
 50.92174    205.5 1.416e+04 3.347e-08
 50.94151    205.2 1.440e+04 3.429e-08
 50.96128    204.3 1.456e+04 3.440e-08
 50.98104    203.1 1.468e+04 3.435e-08
 51.00081    201.7 1.482e+04 3.272e-08
 51.02058    199.9 1.490e+04 2.795e-08
 51.03429    197.6 1.470e+04 2.126e-08
 51.04417    196.2 1.366e+04 1.312e-08
 51.06011    193.0 1.295e+04 9.070e-09
 51.07988    189.6 1.225e+04 7.726e-09
 51.09965    186.6 1.213e+04 7.754e-09
 51.11942    184.2 1.213e+04 8.030e-09
 51.13918    182.6 1.222e+04 8.266e-09
 51.15895    181.7 1.223e+04 8.199e-09
 51.17441    181.3 1.219e+04 7.776e-09
 51.18133    181.3 1.195e+04 6.562e-09
 51.18564    182.2 1.194e+04 6.621e-09
 51.19849    181.9 1.181e+04 5.528e-09
 51.21825    181.6 1.164e+04 4.565e-09
 51.23802    181.4 1.152e+04 3.877e-09
 51.25779    181.1 1.155e+04 3.869e-09
 51.27756    180.9 1.160e+04 4.065e-09
 51.29732    180.6 1.169e+04 4.760e-09
 51.31453    180.4 1.182e+04 5.964e-09
 51.32442    180.5 1.182e+04 6.278e-09
 51.33686    180.3 1.201e+04 8.132e-09
 51.35663    180.2 1.217e+04 9.867e-09
 51.37639    179.9 1.230e+04 1.085e-08
 51.39616    179.5 1.240e+04 1.085e-08
 51.41593    179.0 1.242e+04 1.083e-08
 51.43570    178.4 1.246e+04 1.090e-08
 51.45466    177.6 1.252e+04 1.133e-08
 51.46407    178.2 1.237e+04 1.160e-08
 51.46487    179.5 1.220e+04 1.080e-08
 51.47523    178.9 1.228e+04 1.122e-08
 51.49500    178.2 1.252e+04 1.308e-08
 51.51477    177.4 1.310e+04 1.714e-08
 51.53453    176.2 1.380e+04 2.378e-08
 51.55430    175.0 1.438e+04 3.177e-08
 51.57407    174.1 1.478e+04 3.810e-08
 51.59384    173.2 1.501e+04 4.182e-08
 51.60467    171.8 1.505e+04 4.395e-08
 51.61455    172.1 1.383e+04 2.140e-08
 51.63337    170.3 1.378e+04 2.223e-08
 51.65314    168.6 1.375e+04 2.377e-08
 51.67291    167.4 1.365e+04 2.544e-08
 51.69267    166.4 1.357e+04 2.531e-08
 51.71244    165.5 1.338e+04 2.366e-08
 51.73221    164.7 1.312e+04 2.024e-08
 51.74410    163.8 1.277e+04 1.601e-08
 51.74680    163.9 1.293e+04 1.734e-08
 51.75467    164.4 1.338e+04 2.422e-08
 51.77174    163.6 1.300e+04 1.921e-08
 51.79151    162.8 1.248e+04 1.356e-08
 51.81128    161.9 1.192e+04 8.925e-09
 51.83105    160.7 1.138e+04 5.932e-09
 51.85081    159.3 1.111e+04 5.080e-09
 51.87058    157.9 1.111e+04 5.129e-09
 51.88491    156.3 1.124e+04 5.532e-09
 51.89480    156.2 1.141e+04 6.992e-09
 51.91012    154.1 1.170e+04 7.908e-09
 51.92988    151.3 1.235e+04 1.011e-08
 51.94965    148.1 1.310e+04 1.362e-08
 51.96942    145.3 1.358e+04 1.677e-08
 51.98419    143.4 1.391e+04 2.008e-08
 51.99403    142.3 1.420e+04 2.294e-08
 52.00391    140.4 1.493e+04 2.994e-08
 52.01380    138.5 1.571e+04 4.102e-08
 52.02323    136.6 1.643e+04 5.991e-08
 52.02817    134.8 1.752e+04 1.086e-07
 52.02988    133.8 1.793e+04 1.371e-07
 52.03487    134.7 1.756e+04 1.152e-07
 52.04849    132.5 1.801e+04 1.489e-07
 52.06825    130.6 1.819e+04 1.470e-07
 52.08802    129.4 1.794e+04 1.169e-07
 52.10779    128.6 1.720e+04 8.546e-08
 52.12756    128.0 1.639e+04 6.338e-08
 52.14732    127.5 1.556e+04 4.902e-08
 52.16516    127.2 1.478e+04 4.108e-08
 52.17504    129.1 1.455e+04 3.645e-08
 52.18686    129.0 1.404e+04 3.291e-08
 52.20663    129.1 1.362e+04 3.073e-08
 52.22639    129.5 1.329e+04 2.894e-08
 52.24616    130.2 1.301e+04 2.741e-08
 52.26593    131.0 1.277e+04 2.591e-08
 52.28570    131.9 1.255e+04 2.422e-08
 52.30256    132.8 1.232e+04 2.233e-08
 52.31226    132.3 1.218e+04 2.132e-08
 52.31517    133.2 1.161e+04 1.695e-08
 52.32523    134.1 1.138e+04 1.541e-08
 52.34500    135.0 1.115e+04 1.406e-08
 52.36477    135.9 1.092e+04 1.291e-08
 52.38453    137.0 1.069e+04 1.191e-08
 52.40430    138.1 1.049e+04 1.105e-08
 52.42407    139.3 1.031e+04 1.033e-08
 52.44384    140.6 1.017e+04 9.811e-09
 52.45529    142.0 1.009e+04 9.556e-09
 52.46518    142.8 9.857e+03 8.388e-09
 52.48337    144.1 9.858e+03 8.403e-09
 52.50314    145.4 9.859e+03 8.477e-09
 52.52291    146.6 9.874e+03 8.665e-09
 52.54267    147.8 9.913e+03 8.976e-09
 52.56244    149.0 9.967e+03 9.360e-09
 52.58178    150.1 1.002e+04 9.768e-09
 52.59167    150.0 9.850e+03 9.342e-09
 52.59542    151.0 9.938e+03 9.796e-09
 52.60530    151.7 9.921e+03 9.410e-09
 52.62174    152.8 1.004e+04 1.025e-08
 52.64151    153.9 1.017e+04 1.113e-08
 52.66128    155.0 1.030e+04 1.198e-08
 52.68105    156.0 1.049e+04 1.292e-08
 52.70081    157.0 1.074e+04 1.442e-08
 52.72058    158.0 1.120e+04 1.698e-08
 52.73554    158.2 1.199e+04 2.189e-08
 52.74542    159.8 1.142e+04 1.719e-08
 52.76012    159.8 1.237e+04 2.248e-08
 52.77988    159.5 1.379e+04 3.382e-08
 52.79965    158.9 1.539e+04 5.770e-08
 52.81942    158.2 1.675e+04 9.992e-08
 52.83919    157.2 1.769e+04 1.513e-07
 52.85895    156.1 1.829e+04 1.740e-07
 52.87090    154.7 1.839e+04 1.643e-07
 52.87772    152.7 1.868e+04 1.457e-07
 52.88555    153.9 1.841e+04 1.423e-07
 52.89849    152.5 1.820e+04 1.108e-07
 52.91826    151.1 1.793e+04 8.084e-08
 52.93802    149.9 1.773e+04 6.607e-08
 52.95779    149.0 1.746e+04 6.049e-08
 52.97756    148.3 1.737e+04 5.593e-08
 52.99733    148.1 1.716e+04 5.260e-08
 53.01579    148.1 1.671e+04 4.883e-08
 53.02567    150.1 1.689e+04 4.807e-08
 53.03686    150.2 1.646e+04 4.251e-08
 53.05663    150.4 1.573e+04 3.700e-08
 53.07640    150.7 1.496e+04 3.275e-08
 53.09616    151.2 1.444e+04 3.134e-08
 53.11593    151.9 1.431e+04 3.150e-08
 53.13570    152.8 1.426e+04 3.226e-08
 53.15013    153.7 1.428e+04 3.409e-08
 53.16001    151.6 1.374e+04 2.854e-08
 53.16579    152.7 1.370e+04 2.845e-08
 53.17568    153.3 1.348e+04 2.807e-08
 53.19500    154.5 1.348e+04 2.790e-08
 53.21477    155.5 1.346e+04 2.723e-08
 53.23454    156.5 1.340e+04 2.635e-08
 53.25430    157.4 1.333e+04 2.534e-08
 53.27407    158.1 1.327e+04 2.429e-08
 53.29384    158.8 1.322e+04 2.350e-08
 53.30592    159.4 1.323e+04 2.344e-08
 53.31580    159.5 1.309e+04 2.315e-08
 53.33337    160.0 1.319e+04 2.349e-08
 53.35314    160.2 1.337e+04 2.447e-08
 53.37291    160.2 1.358e+04 2.591e-08
 53.39268    160.0 1.379e+04 2.721e-08
 53.41244    159.4 1.389e+04 2.742e-08
 53.42935    158.5 1.387e+04 2.714e-08
 53.43924    156.7 1.333e+04 2.293e-08
 53.44604    155.8 1.311e+04 2.139e-08
 53.45593    155.0 1.265e+04 1.859e-08
 53.47175    154.1 1.207e+04 1.590e-08
 53.49151    153.3 1.141e+04 1.296e-08
 53.51128    152.4 1.082e+04 1.054e-08
 53.53105    151.5 1.048e+04 9.013e-09
 53.55082    150.6 1.050e+04 8.735e-09
 53.57058    149.7 1.055e+04 8.854e-09
 53.58617    148.9 1.077e+04 9.599e-09
 53.59605    147.5 1.074e+04 9.850e-09
 53.61012    146.4 1.136e+04 1.250e-08
 53.62989    145.4 1.218e+04 1.703e-08
 53.64965    144.7 1.302e+04 2.340e-08
 53.66942    144.3 1.373e+04 2.968e-08
 53.68919    143.8 1.402e+04 3.118e-08
 53.70858    143.4 1.396e+04 3.008e-08
 53.71847    141.9 1.546e+04 3.113e-08
 53.72629    141.8 1.515e+04 2.422e-08
 53.73617    141.1 1.323e+04 1.678e-08
 53.74849    140.5 1.242e+04 1.019e-08
 53.76826    139.5 1.144e+04 6.003e-09
 53.78803    138.5 1.047e+04 3.781e-09
 53.80779    137.8 9.810e+03 2.903e-09
 53.82756    137.7 9.629e+03 2.753e-09
 53.84733    138.1 9.611e+03 2.739e-09
 53.86641    138.7 9.629e+03 2.763e-09
 53.87630    137.5 9.883e+03 3.357e-09
 53.88686    137.9 1.009e+04 3.660e-09
 53.90663    138.2 1.030e+04 4.152e-09
 53.92640    138.1 1.043e+04 4.930e-09
 53.94617    137.8 1.056e+04 6.267e-09
 53.96593    137.2 1.095e+04 8.767e-09
 53.98570    136.1 1.192e+04 1.369e-08
 53.99769    134.7 1.336e+04 2.241e-08
 54.00758    136.8 1.273e+04 1.947e-08
 54.01642    136.0 1.439e+04 3.430e-08
 54.02631    132.7 1.608e+04 4.144e-08
 54.04500    130.3 1.760e+04 5.666e-08
 54.06477    127.2 1.771e+04 5.639e-08
 54.08454    123.0 1.738e+04 4.679e-08
 54.10431    117.0 1.683e+04 3.702e-08
 54.12407    109.3 1.692e+04 3.848e-08
 54.14384    102.1 1.714e+04 5.280e-08
 54.15655     96.9 1.784e+04 9.797e-08
 54.16643     93.2 1.828e+04 8.839e-08
 54.18338     88.4 1.894e+04 1.073e-07
 54.20314     83.1 1.900e+04 1.109e-07
 54.22291     78.0 1.862e+04 1.098e-07
 54.24268     73.6 1.810e+04 1.065e-07
 54.26245     69.9 1.806e+04 1.078e-07
 54.27692     66.5 1.821e+04 1.171e-07
 54.28681     68.2 1.816e+04 1.077e-07
 54.29667     65.2 1.836e+04 1.215e-07
 54.30655     65.5 1.779e+04 1.018e-07
 54.32175     62.7 1.771e+04 8.741e-08
 54.34152     60.1 1.721e+04 6.841e-08
 54.36128     58.0 1.637e+04 5.108e-08
 54.38105     56.4 1.529e+04 3.754e-08
 54.40082     54.9 1.429e+04 2.834e-08
 54.42059     53.4 1.438e+04 2.774e-08
 54.43679     50.5 1.553e+04 3.433e-08
 54.44668     50.8 1.321e+04 1.769e-08
 54.46012     44.6 1.672e+04 3.472e-08
 54.47490     41.1 1.867e+04 5.916e-08
 54.48473     36.4 2.035e+04 1.227e-07
 54.49462     33.9 1.970e+04 3.807e-07
 54.50450     32.9 1.880e+04 1.188e-06
 54.51170     31.1 1.863e+04 1.636e-06
 54.51664     31.3 1.861e+04 1.950e-06
 54.52427     30.4 1.867e+04 1.583e-06
 54.53415     30.7 1.889e+04 7.949e-07
 54.54403     30.5 1.925e+04 2.993e-07
 54.55610     24.4 1.997e+04 7.108e-08
 54.56603     27.0 1.923e+04 8.207e-08
 54.57692     17.2 1.653e+04 2.052e-08
 54.58680     16.5 1.727e+04 3.771e-08
 54.59849     10.0 1.317e+04 2.234e-08
 54.61826      8.5 1.247e+04 1.909e-08
 54.63803      7.6 1.228e+04 1.762e-08
 54.65780      6.4 1.211e+04 1.617e-08
 54.67756      5.2 1.183e+04 1.463e-08
 54.69733      4.2 1.149e+04 1.288e-08
 54.71704      3.0 1.125e+04 1.134e-08
 54.73681      1.9 1.159e+04 1.312e-08
 54.75663      0.3 1.149e+04 1.210e-08
 54.77640     -1.7 1.165e+04 1.247e-08
 54.79617     -4.0 1.211e+04 1.413e-08
 54.81594     -6.0 1.257e+04 1.688e-08
 54.83538     -7.7 1.291e+04 2.020e-08
 54.84526     -8.4 1.356e+04 2.265e-08
 54.85547    -10.0 1.364e+04 2.495e-08
 54.86705    -11.4 1.330e+04 2.448e-08
 54.87693    -10.4 1.417e+04 2.970e-08
 54.89500    -11.9 1.337e+04 2.228e-08
 54.91477    -13.8 1.232e+04 1.759e-08
 54.93454    -15.6 1.203e+04 1.528e-08
 54.95431    -17.3 1.205e+04 1.486e-08
 54.97407    -19.3 1.227e+04 1.567e-08
 54.99384    -20.6 1.237e+04 1.798e-08
 55.00717    -21.4 1.249e+04 1.954e-08
 55.01706    -20.6 1.256e+04 1.922e-08
 55.03338    -22.5 1.278e+04 2.083e-08
 55.05314    -25.3 1.292e+04 2.168e-08
 55.07291    -28.5 1.284e+04 2.177e-08
 55.09268    -30.8 1.282e+04 2.389e-08
 55.11245    -32.5 1.305e+04 2.480e-08
 55.12449    -34.1 1.337e+04 2.447e-08
 55.13437    -32.8 1.283e+04 1.935e-08
 55.14730    -35.4 1.287e+04 1.830e-08
 55.15718    -36.4 1.291e+04 1.738e-08
 55.17175    -38.8 1.259e+04 1.663e-08
 55.19152    -39.6 1.219e+04 1.629e-08
 55.21128    -39.6 1.177e+04 1.513e-08
 55.23105    -39.3 1.121e+04 1.139e-08
 55.25082    -39.9 1.050e+04 7.653e-09
 55.27059    -41.7 9.850e+03 5.800e-09
 55.28742    -43.0 9.704e+03 5.505e-09
 55.29730    -43.6 1.060e+04 6.865e-09
 55.31012    -46.4 1.166e+04 1.032e-08
 55.32989    -48.6 1.323e+04 2.108e-08
 55.34966    -49.6 1.455e+04 3.903e-08
 55.36942    -50.0 1.556e+04 5.920e-08
 55.38919    -50.7 1.601e+04 6.713e-08
 55.40372    -52.4 1.609e+04 6.201e-08
 55.41360    -51.6 1.543e+04 4.893e-08
 55.42754    -53.7 1.454e+04 3.141e-08
 55.43743    -55.5 1.551e+04 3.888e-08
 55.44849    -58.0 1.401e+04 2.470e-08
 55.46826    -59.3 1.270e+04 1.798e-08
 55.48803    -59.6 1.195e+04 1.448e-08
 55.50780    -59.2 1.153e+04 1.189e-08
 55.52756    -58.4 1.129e+04 9.823e-09
 55.54733    -57.7 1.121e+04 8.363e-09
 55.56710    -57.0 1.128e+04 7.573e-09
 55.57755    -56.3 1.137e+04 7.441e-09
 55.58743    -57.8 1.203e+04 1.037e-08
 55.60663    -56.7 1.218e+04 1.144e-08
 55.62640    -55.6 1.240e+04 1.312e-08
 55.64617    -54.5 1.271e+04 1.573e-08
 55.66594    -53.5 1.310e+04 1.944e-08
 55.68295    -52.7 1.355e+04 2.438e-08
 55.69283    -50.7 1.328e+04 1.961e-08
 55.70547    -49.9 1.406e+04 2.750e-08
 55.71767    -49.1 1.489e+04 3.854e-08
 55.72756    -50.5 1.512e+04 4.409e-08
 55.74501    -50.0 1.567e+04 5.687e-08
 55.76477    -49.5 1.597e+04 6.663e-08
 55.78454    -48.8 1.601e+04 6.858e-08
 55.80431    -47.9 1.591e+04 6.202e-08
 55.82408    -47.2 1.549e+04 4.500e-08
 55.84384    -47.2 1.476e+04 2.765e-08
 55.85780    -48.0 1.391e+04 1.622e-08
 55.86768    -51.2 1.228e+04 8.980e-09
 55.88338    -52.6 1.144e+04 6.676e-09
 55.90315    -53.5 1.114e+04 6.156e-09
 55.92291    -53.8 1.132e+04 6.677e-09
 55.94268    -53.9 1.162e+04 8.442e-09
 55.96218    -53.9 1.195e+04 1.056e-08
 55.97206    -54.1 1.261e+04 1.429e-08
 55.98222    -54.5 1.285e+04 1.613e-08
 55.99792    -54.8 1.296e+04 1.699e-08
 56.00781    -56.5 1.261e+04 1.558e-08
 56.02175    -56.6 1.233e+04 1.424e-08
 56.04152    -57.0 1.213e+04 1.315e-08
 56.06129    -57.5 1.211e+04 1.311e-08
 56.08105    -57.9 1.232e+04 1.516e-08
 56.10082    -58.1 1.268e+04 1.899e-08
 56.12059    -57.8 1.307e+04 2.374e-08
 56.13805    -57.4 1.347e+04 2.844e-08
 56.14793    -57.8 1.335e+04 2.787e-08
 56.16012    -57.2 1.378e+04 3.249e-08
 56.17989    -56.7 1.405e+04 3.487e-08
 56.19966    -56.5 1.422e+04 3.545e-08
 56.21943    -56.1 1.431e+04 3.524e-08
 56.23919    -55.7 1.443e+04 3.585e-08
 56.25129    -55.6 1.568e+04 3.962e-08
 56.26117    -56.1 1.453e+04 3.456e-08
 56.27817    -56.5 1.580e+04 4.178e-08
 56.28805    -58.7 1.573e+04 4.715e-08
 56.29850    -59.7 1.707e+04 6.711e-08
 56.31826    -60.7 1.773e+04 9.980e-08
 56.33803    -61.2 1.782e+04 1.231e-07
 56.35281    -61.4 1.803e+04 1.447e-07
 56.35802    -61.9 1.809e+04 1.246e-07
 56.36296    -62.6 1.699e+04 8.397e-08
 56.37253    -64.2 1.651e+04 6.516e-08
 56.38241    -65.1 1.648e+04 5.823e-08
 56.39080    -67.1 1.585e+04 4.751e-08
 56.39575    -66.8 1.573e+04 4.855e-08
 56.40218    -67.1 1.567e+04 4.557e-08
 56.41206    -68.3 1.511e+04 3.774e-08
 56.42195    -68.5 1.526e+04 3.763e-08
 56.42813    -69.4 1.573e+04 3.659e-08
 56.43806    -68.8 1.335e+04 2.203e-08
 56.45664    -68.9 1.354e+04 2.110e-08
 56.47640    -68.7 1.348e+04 2.116e-08
 56.49617    -68.3 1.365e+04 2.292e-08
 56.51594    -67.7 1.369e+04 2.604e-08
 56.53052    -67.0 1.398e+04 2.955e-08
 56.54040    -65.9 1.301e+04 2.202e-08
 56.55547    -65.4 1.327e+04 2.561e-08
 56.56830    -65.1 1.364e+04 2.938e-08
 56.57819    -64.1 1.333e+04 2.643e-08
 56.59501    -64.0 1.378e+04 3.126e-08
 56.61478    -64.9 1.448e+04 3.800e-08
 56.63454    -66.4 1.518e+04 4.813e-08
 56.65431    -68.0 1.574e+04 6.125e-08
 56.66909    -68.7 1.586e+04 6.710e-08
 56.67497    -69.0 1.593e+04 6.842e-08
 56.67992    -68.6 1.604e+04 7.267e-08
 56.68881    -69.3 1.614e+04 7.734e-08
 56.69869    -69.8 1.617e+04 7.752e-08
 56.70833    -70.5 1.594e+04 6.932e-08
 56.71327    -69.9 1.616e+04 7.867e-08
 56.71846    -70.5 1.584e+04 6.528e-08
 56.72834    -71.5 1.520e+04 4.876e-08
 56.73823    -72.6 1.460e+04 3.791e-08
 56.75310    -74.1 1.411e+04 3.041e-08
 56.77292    -77.7 1.317e+04 2.148e-08
 56.79268    -81.9 1.179e+04 1.722e-08
 56.80974    -84.4 1.125e+04 1.680e-08
 56.81963    -83.8 1.188e+04 1.851e-08
 56.83222    -85.5 1.179e+04 2.012e-08
 56.84855    -86.2 1.185e+04 2.074e-08
 56.85843    -85.7 1.174e+04 2.002e-08
 56.87175    -86.4 1.152e+04 1.743e-08
 56.89152    -87.6 1.097e+04 1.278e-08
 56.91129    -89.4 1.036e+04 9.658e-09
 56.93106    -91.0 1.010e+04 8.697e-09
 56.95082    -92.1 1.005e+04 8.561e-09
 56.97059    -93.0 1.016e+04 8.898e-09
 56.98867    -93.7 1.036e+04 9.660e-09
 56.99856    -93.1 1.000e+04 8.099e-09
 57.01013    -93.7 1.014e+04 8.529e-09
 57.02989    -94.4 1.024e+04 8.743e-09
 57.04966    -95.0 1.027e+04 8.812e-09
 57.06943    -95.6 1.027e+04 8.595e-09
 57.08897    -96.1 1.022e+04 8.203e-09
 57.09886    -96.7 1.030e+04 8.587e-09
 57.10896    -96.8 1.025e+04 8.324e-09
 57.12873    -96.7 1.016e+04 7.915e-09
 57.14850    -95.5 9.877e+03 6.790e-09
 57.16827    -94.7 9.682e+03 5.704e-09
 57.18803    -93.6 9.491e+03 4.626e-09
 57.20780    -92.6 9.344e+03 3.699e-09
 57.22757    -92.1 9.269e+03 3.296e-09
 57.25732    -91.7 9.163e+03 2.814e-09
 57.27900    -89.4 8.883e+03 2.194e-09
 57.29877    -88.2 8.821e+03 1.989e-09
 57.33648    -85.6 8.690e+03 1.613e-09
 57.37602    -82.9 8.648e+03 1.391e-09
 57.41555    -80.1 8.649e+03 1.271e-09
 57.45509    -77.1 8.657e+03 1.235e-09
 57.49462    -74.0 8.713e+03 1.230e-09
 57.53416    -71.0 8.849e+03 1.314e-09
 57.55925    -68.0 9.000e+03 1.467e-09
 57.57901    -67.4 9.113e+03 1.549e-09
 57.61323    -64.4 9.270e+03 1.779e-09
 57.64763    -61.6 9.442e+03 2.005e-09
 57.66739    -61.1 9.281e+03 1.658e-09
 57.69230    -58.1 9.480e+03 1.920e-09
 57.73183    -55.2 9.702e+03 2.254e-09
 57.77137    -52.4 9.950e+03 2.696e-09
 57.81090    -49.6 1.024e+04 3.307e-09
 57.83949    -47.0 1.062e+04 4.268e-09
 57.85926    -45.9 1.065e+04 4.406e-09
 57.88997    -43.5 1.119e+04 6.194e-09
 57.91953    -41.6 1.169e+04 8.298e-09
 57.93654    -41.0 1.182e+04 9.048e-09
 57.94643    -40.9 1.175e+04 8.872e-09
 57.95896    -40.0 1.232e+04 1.133e-08
 57.97873    -39.8 1.291e+04 1.437e-08
 57.98931    -39.8 1.396e+04 2.277e-08
 57.99919    -38.5 1.373e+04 2.147e-08
 58.01827    -38.7 1.476e+04 3.353e-08
 58.03803    -38.8 1.598e+04 5.948e-08
 58.05780    -38.4 1.713e+04 1.007e-07
 58.07757    -38.4 1.802e+04 1.334e-07
 58.09734    -39.3 1.832e+04 1.430e-07
 58.11710    -40.5 1.829e+04 1.268e-07
 58.12943    -41.8 1.792e+04 9.707e-08
 58.13931    -39.5 1.848e+04 1.396e-07
 58.15664    -40.6 1.833e+04 1.215e-07
 58.17641    -41.6 1.804e+04 8.456e-08
 58.19617    -42.8 1.747e+04 3.967e-08
 58.21577    -44.5 1.579e+04 1.445e-08
 58.22565    -43.9 1.562e+04 1.559e-08
 58.23571    -45.5 1.321e+04 8.456e-09
 58.25548    -45.9 1.271e+04 7.298e-09
 58.26955    -45.0 1.258e+04 6.566e-09
 58.27944    -44.7 1.265e+04 7.050e-09
 58.29501    -43.5 1.254e+04 6.398e-09
 58.32476    -42.2 1.249e+04 5.477e-09
 58.36439    -39.9 1.232e+04 4.213e-09
 58.39395    -37.5 1.248e+04 4.138e-09
 58.40968    -37.0 1.247e+04 4.061e-09
 58.41966    -36.4 1.261e+04 4.722e-09
 58.43348    -35.0 1.267e+04 4.316e-09
 58.45315    -34.0 1.265e+04 4.141e-09
 58.47292    -33.1 1.257e+04 4.028e-09
 58.49269    -32.5 1.275e+04 4.390e-09
 58.50488    -32.1 1.291e+04 5.152e-09
 58.51477    -31.5 1.276e+04 4.603e-09
 58.53222    -31.6 1.316e+04 6.103e-09
 58.54980    -32.5 1.379e+04 1.023e-08
 58.55969    -30.0 1.329e+04 7.295e-09
 58.57176    -31.0 1.408e+04 1.190e-08
 58.59152    -33.0 1.498e+04 2.516e-08
 58.61129    -35.4 1.583e+04 5.399e-08
 58.63106    -37.8 1.669e+04 9.498e-08
 58.65083    -40.5 1.711e+04 1.201e-07
 58.67059    -43.7 1.689e+04 1.136e-07
 58.68993    -46.1 1.586e+04 6.306e-08
 58.69981    -46.1 1.673e+04 1.003e-07
 58.71013    -48.1 1.510e+04 3.078e-08
 58.72990    -50.0 1.410e+04 1.203e-08
 58.74966    -50.7 1.375e+04 7.494e-09
 58.76943    -50.8 1.352e+04 6.188e-09
 58.78411    -49.8 1.340e+04 5.706e-09
 58.79399    -50.2 1.335e+04 5.029e-09
 58.80897    -49.1 1.336e+04 4.794e-09
 58.82873    -48.0 1.339e+04 4.458e-09
 58.83993    -47.0 1.347e+04 3.992e-09
 58.84982    -46.7 1.362e+04 4.088e-09
 58.87825    -46.1 1.371e+04 3.360e-09
 58.91788    -44.8 1.388e+04 2.809e-09
 58.95742    -43.9 1.402e+04 2.570e-09
 58.98025    -43.5 1.423e+04 3.201e-09
 59.00002    -43.5 1.425e+04 8.109e-09
 59.02651    -43.4 1.433e+04 7.553e-09
 59.04618    -42.7 1.422e+04 9.302e-09
 59.06334    -42.3 1.417e+04 9.987e-09
 59.07322    -42.0 1.408e+04 9.857e-09
 59.08571    -41.9 1.408e+04 1.034e-08
 59.10548    -41.8 1.404e+04 1.030e-08
 59.12018    -41.6 1.398e+04 1.010e-08
 59.13007    -41.5 1.394e+04 1.100e-08
 59.15500    -41.3 1.376e+04 9.356e-09
 59.19463    -39.8 1.363e+04 6.020e-09
 59.23416    -38.4 1.359e+04 3.957e-09
 59.26040    -37.5 1.353e+04 3.740e-09
 59.28017    -37.3 1.343e+04 6.345e-09
 59.31323    -36.2 1.336e+04 5.534e-09
 59.34276    -35.5 1.327e+04 6.118e-09
 59.36243    -35.4 1.321e+04 6.309e-09
 59.38222    -34.9 1.316e+04 6.861e-09
 59.40043    -34.7 1.309e+04 6.874e-09
 59.41031    -35.3 1.323e+04 7.712e-09
 59.42176    -35.0 1.316e+04 7.468e-09
 59.44153    -34.9 1.311e+04 7.407e-09
 59.46129    -34.8 1.292e+04 7.298e-09
 59.48106    -34.8 1.294e+04 7.385e-09
 59.50083    -35.1 1.290e+04 8.457e-09
 59.52060    -35.1 1.280e+04 8.724e-09
 59.54036    -34.8 1.276e+04 9.461e-09
 59.55044    -34.4 1.267e+04 9.280e-09
 59.56042    -35.3 1.287e+04 1.069e-08
 59.58998    -34.6 1.256e+04 8.786e-09
 59.62951    -33.6 1.211e+04 5.969e-09
 59.66905    -32.4 1.180e+04 4.583e-09
 59.70858    -31.0 1.171e+04 4.325e-09
 59.73814    -30.1 1.175e+04 4.397e-09
 59.75781    -29.0 1.165e+04 4.441e-09
 59.77757    -28.1 1.167e+04 4.607e-09
 59.79734    -27.3 1.163e+04 4.618e-09
 59.81711    -26.5 1.159e+04 4.579e-09
 59.83068    -25.9 1.159e+04 4.439e-09
 59.84057    -26.2 1.178e+04 5.353e-09
 59.85664    -25.6 1.179e+04 5.484e-09
 59.87641    -25.1 1.181e+04 5.543e-09
 59.89618    -24.7 1.177e+04 5.489e-09
 59.91091    -24.1 1.170e+04 5.262e-09
 59.92079    -24.1 1.162e+04 4.763e-09
 59.93571    -23.7 1.154e+04 4.503e-09
 59.95548    -23.2 1.148e+04 4.251e-09
 59.97081    -22.8 1.138e+04 3.929e-09
 59.98069    -22.8 1.131e+04 3.675e-09
 59.99502    -22.4 1.121e+04 3.434e-09
 60.01478    -21.4 1.106e+04 2.844e-09
 60.03455    -21.0 1.099e+04 2.728e-09
 60.05432    -19.7 1.096e+04 2.521e-09
 60.07409    -19.6 1.093e+04 2.495e-09
 60.09385    -18.3 1.095e+04 2.466e-09
 60.11093    -18.2 1.092e+04 2.502e-09
 60.12091    -18.2 1.090e+04 2.104e-09
 60.14347    -17.3 1.093e+04 2.888e-09
 60.18300    -16.0 1.114e+04 4.665e-09
 60.21256    -14.9 1.149e+04 6.105e-09
 60.23223    -14.6 1.147e+04 6.119e-09
 60.25106    -14.3 1.129e+04 5.797e-09
 60.26094    -14.4 1.125e+04 5.353e-09
 60.27176    -13.6 1.127e+04 4.842e-09
 60.29153    -13.7 1.111e+04 4.051e-09
 60.31130    -13.5 1.111e+04 3.783e-09
 60.33106    -13.6 1.119e+04 3.663e-09
 60.35083    -14.2 1.156e+04 4.097e-09
 60.37060    -14.9 1.173e+04 5.685e-09
 60.39037    -15.2 1.192e+04 8.727e-09
 60.40106    -15.2 1.231e+04 1.307e-08
 60.41095    -15.7 1.231e+04 1.322e-08
 60.42990    -15.5 1.265e+04 1.546e-08
 60.44967    -15.5 1.284e+04 1.595e-08
 60.46936    -16.3 1.289e+04 1.526e-08
 60.48913    -18.0 1.308e+04 1.524e-08
 60.50897    -18.5 1.301e+04 1.359e-08
 60.52874    -18.8 1.280e+04 1.207e-08
 60.54119    -18.8 1.274e+04 1.150e-08
 60.55107    -19.4 1.265e+04 1.013e-08
 60.56827    -19.0 1.281e+04 1.136e-08
 60.58804    -19.4 1.325e+04 1.298e-08
 60.60781    -20.4 1.401e+04 1.863e-08
 60.62758    -21.3 1.489e+04 3.098e-08
 60.64734    -21.9 1.573e+04 5.037e-08
 60.66711    -22.7 1.634e+04 6.657e-08
 60.68131    -24.4 1.669e+04 7.388e-08
 60.69119    -26.5 1.664e+04 7.543e-08
 60.70664    -29.1 1.638e+04 6.707e-08
 60.72641    -31.7 1.607e+04 6.123e-08
 60.74618    -34.0 1.574e+04 5.744e-08
 60.75848    -35.8 1.528e+04 5.105e-08
 60.76836    -34.7 1.532e+04 4.992e-08
 60.78571    -36.3 1.475e+04 4.118e-08
 60.80548    -37.6 1.417e+04 3.259e-08
 60.82143    -38.4 1.363e+04 2.522e-08
 60.83132    -38.7 1.349e+04 2.443e-08
 60.84502    -39.1 1.308e+04 1.922e-08
 60.86478    -39.4 1.265e+04 1.509e-08
 60.88455    -39.7 1.232e+04 1.262e-08
 60.90432    -39.8 1.212e+04 1.125e-08
 60.92409    -39.6 1.201e+04 1.065e-08
 60.94385    -39.2 1.202e+04 1.054e-08
 60.96156    -39.0 1.214e+04 1.093e-08
 60.97144    -38.8 1.191e+04 9.717e-09
 60.98339    -38.5 1.206e+04 1.040e-08
 61.00316    -38.3 1.228e+04 1.164e-08
 61.02292    -38.2 1.250e+04 1.341e-08
 61.03771    -38.2 1.273e+04 1.595e-08
 61.04759    -37.7 1.245e+04 1.239e-08
 61.06246    -37.8 1.265e+04 1.473e-08
 61.08223    -37.9 1.287e+04 1.780e-08
 61.10168    -38.1 1.304e+04 2.066e-08
 61.11157    -38.0 1.329e+04 2.240e-08
 61.12176    -38.5 1.352e+04 2.611e-08
 61.14153    -39.1 1.359e+04 2.764e-08
 61.16130    -39.8 1.354e+04 2.731e-08
 61.18106    -40.6 1.338e+04 2.476e-08
 61.20083    -41.5 1.315e+04 2.117e-08
 61.22060    -42.6 1.293e+04 1.859e-08
 61.24037    -44.0 1.291e+04 1.819e-08
 61.25169    -46.3 1.331e+04 1.995e-08
 61.26157    -46.6 1.345e+04 2.300e-08
 61.27990    -49.0 1.385e+04 3.105e-08
 61.29967    -50.6 1.423e+04 4.204e-08
 61.31693    -52.0 1.441e+04 4.560e-08
 61.32682    -50.8 1.551e+04 7.147e-08
 61.33920    -52.5 1.555e+04 6.858e-08
 61.35897    -54.8 1.475e+04 3.919e-08
 61.37874    -58.6 1.323e+04 1.952e-08
 61.39181    -61.4 1.222e+04 1.431e-08
 61.40170    -60.6 1.221e+04 1.388e-08
 61.41827    -61.4 1.186e+04 1.242e-08
 61.43804    -61.5 1.176e+04 1.182e-08
 61.45781    -61.3 1.171e+04 1.097e-08
 61.47758    -61.0 1.163e+04 9.769e-09
 61.49734    -60.9 1.149e+04 8.686e-09
 61.52215    -61.1 1.134e+04 7.972e-09
 61.54202    -59.6 1.151e+04 8.787e-09
 61.56673    -58.5 1.146e+04 8.229e-09
 61.59636    -57.1 1.148e+04 7.672e-09
 61.61612    -56.1 1.138e+04 6.313e-09
 61.64580    -54.6 1.141e+04 5.989e-09
 61.68533    -53.0 1.149e+04 5.681e-09
 61.72487    -51.5 1.153e+04 5.343e-09
 61.75442    -50.1 1.157e+04 5.145e-09
 61.77409    -49.3 1.157e+04 4.994e-09
 61.79386    -48.3 1.156e+04 4.929e-09
 61.81219    -47.3 1.159e+04 4.973e-09
 61.82207    -47.2 1.163e+04 5.241e-09
 61.83339    -46.3 1.170e+04 5.411e-09
 61.85316    -45.5 1.177e+04 5.777e-09
 61.87293    -44.6 1.190e+04 6.347e-09
 61.88527    -44.0 1.205e+04 7.096e-09
 61.89516    -43.0 1.199e+04 6.790e-09
 61.91246    -42.6 1.220e+04 7.975e-09
 61.93223    -42.4 1.252e+04 9.775e-09
 61.95200    -42.5 1.323e+04 1.358e-08
 61.96219    -43.0 1.434e+04 2.165e-08
 61.97208    -41.9 1.288e+04 1.157e-08
 61.99153    -42.0 1.350e+04 1.465e-08
 62.00631    -42.4 1.422e+04 1.969e-08
 62.01614    -43.2 1.459e+04 2.166e-08
 62.02479    -44.6 1.563e+04 3.040e-08
 62.02973    -44.5 1.589e+04 3.121e-08
 62.03216    -45.6 1.684e+04 4.538e-08
 62.03710    -44.2 1.591e+04 2.992e-08
 62.04579    -45.5 1.692e+04 4.711e-08
 62.05568    -46.6 1.766e+04 6.256e-08
 62.06556    -48.5 1.846e+04 1.133e-07
 62.07545    -50.1 1.908e+04 2.135e-07
 62.08533    -51.7 1.931e+04 4.519e-07
 62.09521    -53.3 1.915e+04 8.634e-07
 62.10222    -55.2 1.905e+04 1.235e-06
 62.10716    -54.5 1.917e+04 9.550e-07
 62.11498    -56.7 1.897e+04 1.342e-06
 62.12486    -59.6 1.890e+04 1.376e-06
 62.13475    -62.6 1.911e+04 9.284e-07
 62.14463    -65.7 1.957e+04 4.153e-07
 62.15452    -68.8 1.966e+04 1.591e-07
 62.16440    -71.9 1.862e+04 7.528e-08
 62.17228    -74.9 1.677e+04 5.352e-08
 62.17722    -73.4 1.816e+04 7.406e-08
 62.18417    -75.1 1.678e+04 5.502e-08
 62.19405    -75.7 1.605e+04 4.537e-08
 62.20393    -75.8 1.552e+04 3.842e-08
 62.21382    -75.8 1.513e+04 3.342e-08
 62.22869    -75.8 1.480e+04 2.822e-08
 62.24244    -75.0 1.432e+04 1.843e-08
 62.25232    -74.6 1.534e+04 3.822e-08
 62.26828    -73.6 1.474e+04 2.305e-08
 62.28804    -73.2 1.387e+04 1.263e-08
 62.30781    -72.7 1.315e+04 7.869e-09
 62.32758    -71.9 1.267e+04 5.633e-09
 62.34735    -70.7 1.229e+04 4.444e-09
 62.36711    -69.6 1.204e+04 3.752e-09
 62.38256    -68.4 1.187e+04 3.305e-09
 62.39245    -68.2 1.210e+04 3.909e-09
 62.40665    -66.9 1.194e+04 3.591e-09
 62.43640    -65.2 1.187e+04 3.235e-09
 62.47603    -62.0 1.165e+04 2.362e-09
 62.51556    -59.4 1.159e+04 1.799e-09
 62.55510    -57.2 1.149e+04 1.554e-09
 62.59463    -55.1 1.141e+04 1.495e-09
 62.63417    -53.0 1.137e+04 1.515e-09
 62.66301    -51.2 1.132e+04 1.867e-09
 62.68278    -50.8 1.137e+04 1.833e-09
 62.71324    -48.8 1.140e+04 2.098e-09
 62.75277    -45.6 1.140e+04 2.659e-09
 62.79231    -43.9 1.140e+04 2.669e-09
 62.83184    -42.2 1.142e+04 2.557e-09
 62.87138    -40.4 1.149e+04 2.461e-09
 62.91091    -38.6 1.163e+04 2.402e-09
 62.94326    -36.9 1.172e+04 2.299e-09
 62.96302    -35.4 1.171e+04 2.453e-09
 62.98998    -33.7 1.181e+04 2.506e-09
 63.02952    -32.0 1.193e+04 2.425e-09
 63.06905    -30.2 1.196e+04 2.334e-09
 63.10859    -28.4 1.205e+04 2.254e-09
 63.14812    -26.5 1.220e+04 2.048e-09
 63.18766    -24.6 1.222e+04 1.658e-09
 63.22350    -22.8 1.228e+04 1.177e-09
 63.24327    -21.5 1.230e+04 1.921e-09
 63.26673    -19.6 1.233e+04 1.325e-09
 63.29149    -17.9 1.233e+04 1.072e-09
 63.31126    -17.5 1.225e+04 9.450e-10
 63.34580    -15.8 1.218e+04 9.272e-10
 63.38533    -14.4 1.191e+04 1.185e-09
 63.42487    -13.0 1.186e+04 1.780e-09
 63.46440    -11.4 1.189e+04 2.196e-09
 63.50375    -10.1 1.189e+04 2.227e-09
 63.54329     -7.6 1.188e+04 1.671e-09
 63.58301     -6.0 1.193e+04 1.257e-09
 63.62254     -4.1 1.197e+04 1.168e-09
 63.66208     -2.4 1.245e+04 1.470e-09
 63.70161     -0.5 1.243e+04 2.773e-09
 63.74115      1.1 1.285e+04 4.157e-09
 63.77070      2.1 1.292e+04 5.043e-09
 63.79037      0.2 1.386e+04 7.234e-09
 63.80357     -3.4 1.439e+04 1.383e-08
 63.81345     -0.8 1.463e+04 1.243e-08
 63.82991     -6.0 1.550e+04 2.420e-08
 63.84967    -10.4 1.651e+04 3.342e-08
 63.86944    -17.1 1.585e+04 2.157e-08
 63.88921    -23.0 1.403e+04 8.914e-09
 63.90898    -25.7 1.320e+04 6.373e-09
 63.92874    -26.6 1.307e+04 6.052e-09
 63.94369    -27.0 1.309e+04 6.254e-09
 63.95358    -27.3 1.299e+04 6.693e-09
 63.96828    -27.4 1.285e+04 7.797e-09
 63.98805    -27.4 1.277e+04 9.362e-09
 64.00781    -27.3 1.274e+04 1.080e-08
 64.02758    -27.3 1.276e+04 1.170e-08
 64.04735    -27.5 1.278e+04 1.194e-08
 64.06712    -27.6 1.281e+04 1.186e-08
 64.08382    -27.8 1.285e+04 1.107e-08
 64.09370    -27.9 1.276e+04 1.095e-08
 64.10665    -28.0 1.273e+04 1.106e-08
 64.12642    -28.2 1.276e+04 1.043e-08
 64.13887    -28.5 1.275e+04 1.037e-08
 64.14875    -27.9 1.274e+04 9.950e-09
 64.16595    -28.0 1.265e+04 9.657e-09
 64.18572    -28.0 1.256e+04 8.669e-09
 64.20549    -28.1 1.245e+04 7.223e-09
 64.22394    -28.5 1.226e+04 6.204e-09
 64.23383    -29.0 1.379e+04 1.215e-08
 64.24502    -30.3 1.436e+04 1.265e-08
 64.26479    -32.5 1.485e+04 1.465e-08
 64.28456    -34.3 1.473e+04 2.042e-08
 64.30433    -34.9 1.434e+04 2.845e-08
 64.32409    -34.9 1.424e+04 3.365e-08
 64.34386    -34.9 1.428e+04 3.452e-08
 64.36363    -35.2 1.429e+04 3.020e-08
 64.37395    -35.8 1.417e+04 2.455e-08
 64.38383    -37.8 1.327e+04 1.780e-08
 64.40316    -38.3 1.264e+04 1.518e-08
 64.41810    -38.5 1.221e+04 1.360e-08
 64.42798    -38.4 1.267e+04 1.731e-08
 64.44270    -38.4 1.236e+04 1.618e-08
 64.46247    -38.4 1.205e+04 1.449e-08
 64.48223    -38.5 1.177e+04 1.255e-08
 64.50200    -38.7 1.153e+04 1.087e-08
 64.51407    -38.9 1.133e+04 9.658e-09
 64.52396    -39.0 1.138e+04 1.101e-08
 64.54154    -38.9 1.115e+04 9.629e-09
 64.56130    -38.6 1.093e+04 8.372e-09
 64.58107    -38.2 1.076e+04 7.115e-09
 64.60084    -37.7 1.065e+04 5.878e-09
 64.62061    -37.2 1.048e+04 4.919e-09
 64.64037    -36.7 1.033e+04 4.256e-09
 64.65420    -36.2 1.026e+04 3.735e-09
 64.66408    -36.2 1.011e+04 3.038e-09
 64.68989    -35.5 9.968e+03 2.758e-09
 64.72952    -33.6 9.926e+03 2.701e-09
 64.76906    -31.7 1.004e+04 2.783e-09
 64.79442    -30.5 1.038e+04 3.487e-09
 64.80420    -30.1 9.998e+03 2.537e-09
 64.81828    -29.7 1.020e+04 2.739e-09
 64.83805    -29.3 1.058e+04 3.166e-09
 64.85782    -29.7 1.121e+04 4.351e-09
 64.87758    -30.5 1.199e+04 7.566e-09
 64.89735    -31.2 1.262e+04 1.415e-08
 64.91712    -31.3 1.304e+04 2.321e-08
 64.93444    -31.1 1.316e+04 2.819e-08
 64.94433    -31.0 1.247e+04 1.792e-08
 64.95665    -30.7 1.260e+04 2.230e-08
 64.97642    -30.6 1.254e+04 2.299e-08
 64.98644    -30.4 1.219e+04 1.924e-08
 64.99632    -30.5 1.245e+04 2.182e-08
 65.01596    -30.5 1.228e+04 1.649e-08
 65.04571    -31.0 1.221e+04 1.267e-08
 65.08534    -31.4 1.164e+04 9.669e-09
 65.12487    -31.2 1.156e+04 9.840e-09
 65.16441    -30.6 1.170e+04 1.225e-08
 65.20394    -30.0 1.174e+04 1.299e-08
 65.22477    -29.4 1.146e+04 1.106e-08
 65.24454    -28.6 1.181e+04 1.202e-08
 65.28301    -27.9 1.147e+04 9.059e-09
 65.32255    -27.1 1.103e+04 5.443e-09
 65.36208    -26.2 1.075e+04 3.478e-09
 65.40162    -25.2 1.077e+04 2.801e-09
 65.44115    -24.2 1.091e+04 2.723e-09
 65.48069    -23.9 1.158e+04 3.493e-09
 65.50492    -23.8 1.168e+04 4.421e-09
 65.52469    -24.8 1.182e+04 6.149e-09
 65.54499    -25.1 1.192e+04 8.878e-09
 65.55478    -24.5 1.170e+04 6.846e-09
 65.56945    -25.2 1.192e+04 8.458e-09
 65.58921    -25.9 1.249e+04 1.148e-08
 65.60898    -26.9 1.323e+04 1.537e-08
 65.62875    -28.6 1.387e+04 2.246e-08
 65.64495    -30.1 1.439e+04 3.550e-08
 65.65483    -29.4 1.394e+04 2.480e-08
 65.66828    -30.6 1.445e+04 4.036e-08
 65.68805    -31.2 1.485e+04 5.672e-08
 65.70782    -31.6 1.508e+04 6.507e-08
 65.72759    -31.8 1.476e+04 5.960e-08
 65.74735    -31.7 1.398e+04 3.803e-08
 65.76712    -32.2 1.302e+04 2.054e-08
 65.78507    -33.0 1.206e+04 1.222e-08
 65.79496    -32.2 1.239e+04 1.458e-08
 65.80666    -32.7 1.168e+04 1.013e-08
 65.82412    -32.8 1.125e+04 8.785e-09
 65.83401    -32.0 1.185e+04 1.222e-08
 65.84619    -31.9 1.154e+04 1.101e-08
 65.86596    -31.3 1.143e+04 1.064e-08
 65.88573    -30.7 1.139e+04 1.040e-08
 65.90549    -30.1 1.134e+04 9.790e-09
 65.92520    -29.6 1.120e+04 8.670e-09
 65.95494    -29.1 1.085e+04 6.807e-09
 65.99464    -27.7 1.058e+04 5.566e-09
 66.03418    -26.2 1.049e+04 4.495e-09
 66.06373    -25.0 1.061e+04 4.488e-09
 66.07520    -24.9 1.069e+04 4.523e-09
 66.08509    -23.9 1.062e+04 4.706e-09
 66.10317    -23.7 1.081e+04 5.144e-09
 66.11323    -23.6 1.094e+04 5.796e-09
 66.12312    -23.4 1.094e+04 5.788e-09
 66.15268    -22.5 1.123e+04 6.918e-09
 66.19232    -22.2 1.155e+04 8.341e-09
 66.23185    -22.5 1.159e+04 8.316e-09
 66.27139    -22.6 1.109e+04 5.799e-09
 66.31092    -22.7 1.052e+04 3.872e-09
 66.34576    -22.3 1.040e+04 3.562e-09
 66.36553    -21.8 1.063e+04 5.289e-09
 66.38001    -21.8 1.082e+04 6.153e-09
 66.39246    -21.7 1.080e+04 6.170e-09
 66.40235    -20.4 1.069e+04 5.408e-09
 66.41945    -19.6 1.069e+04 6.027e-09
 66.43922    -19.3 1.071e+04 6.658e-09
 66.45898    -18.5 1.084e+04 7.786e-09
 66.47875    -17.9 1.093e+04 8.779e-09
 66.49557    -17.2 1.111e+04 1.011e-08
 66.50546    -17.1 1.127e+04 1.138e-08
 66.51829    -16.9 1.150e+04 1.318e-08
 66.53805    -16.8 1.183e+04 1.574e-08
 66.55782    -16.8 1.214e+04 1.867e-08
 66.57759    -16.9 1.247e+04 2.200e-08
 66.59735    -16.9 1.271e+04 2.486e-08
 66.61712    -16.9 1.286e+04 2.659e-08
 66.63570    -16.8 1.289e+04 2.682e-08
 66.64558    -16.9 1.304e+04 2.889e-08
 66.65666    -16.8 1.309e+04 2.913e-08
 66.67169    -16.7 1.318e+04 2.954e-08
 66.68157    -16.4 1.439e+04 4.517e-08
 66.69619    -16.6 1.467e+04 4.953e-08
 66.71596    -16.9 1.499e+04 5.759e-08
 66.73573    -16.9 1.527e+04 6.804e-08
 66.75549    -16.5 1.557e+04 7.946e-08
 66.77526    -16.0 1.573e+04 8.317e-08
 66.78571    -15.6 1.554e+04 7.700e-08
 66.79559    -15.5 1.493e+04 5.644e-08
 66.81480    -15.6 1.462e+04 4.880e-08
 66.83456    -15.8 1.437e+04 4.292e-08
 66.85433    -16.2 1.424e+04 3.880e-08
 66.87410    -16.4 1.429e+04 3.749e-08
 66.89387    -16.5 1.438e+04 3.637e-08
 66.91363    -16.9 1.434e+04 3.380e-08
 66.92583    -17.7 1.405e+04 2.987e-08
 66.93571    -17.8 1.488e+04 4.485e-08
 66.95092    -19.1 1.467e+04 4.089e-08
 66.96080    -19.0 1.329e+04 2.324e-08
 66.97294    -20.7 1.403e+04 2.933e-08
 66.99270    -22.0 1.508e+04 4.418e-08
 67.01247    -22.7 1.599e+04 6.706e-08
 67.03224    -22.9 1.676e+04 9.451e-08
 67.05201    -23.5 1.732e+04 1.156e-07
 67.06595    -24.9 1.750e+04 1.214e-07
 67.07584    -24.2 1.816e+04 1.709e-07
 67.08655    -25.5 1.823e+04 1.696e-07
 67.09538    -26.1 1.825e+04 1.680e-07
 67.10032    -26.1 1.813e+04 1.498e-07
 67.10627    -27.0 1.802e+04 1.288e-07
 67.11615    -27.7 1.800e+04 1.190e-07
 67.12604    -28.6 1.795e+04 1.021e-07
 67.13592    -29.5 1.788e+04 9.243e-08
 67.14580    -29.8 1.844e+04 1.428e-07
 67.15569    -30.4 1.828e+04 1.232e-07
 67.17056    -31.7 1.759e+04 7.998e-08
 67.19038    -33.2 1.650e+04 4.456e-08
 67.20608    -35.8 1.446e+04 2.204e-08
 67.21596    -34.4 1.681e+04 5.277e-08
 67.22991    -37.9 1.512e+04 2.831e-08
 67.24003    -42.2 1.386e+04 2.370e-08
 67.24991    -42.9 1.196e+04 1.836e-08
 67.26945    -46.1 1.262e+04 2.464e-08
 67.28922    -48.6 1.382e+04 3.621e-08
 67.30898    -50.7 1.464e+04 4.658e-08
 67.32376    -52.3 1.512e+04 5.463e-08
 67.33360    -54.2 1.555e+04 5.852e-08
 67.34348    -56.6 1.587e+04 6.530e-08
 67.35105    -58.5 1.615e+04 7.350e-08
 67.35599    -60.2 1.649e+04 8.663e-08
 67.36325    -61.6 1.646e+04 8.944e-08
 67.37313    -62.5 1.626e+04 8.937e-08
 67.37955    -63.4 1.581e+04 7.544e-08
 67.38449    -64.1 1.581e+04 7.498e-08
 67.39290    -65.2 1.520e+04 5.541e-08
 67.40777    -65.8 1.452e+04 4.059e-08
 67.42759    -67.0 1.369e+04 2.267e-08
 67.44736    -70.1 1.211e+04 1.025e-08
 67.46712    -72.8 1.078e+04 7.217e-09
 67.48632    -73.6 1.043e+04 6.638e-09
 67.49621    -74.8 1.035e+04 6.143e-09
 67.50666    -74.2 1.052e+04 6.714e-09
 67.51926    -73.6 1.072e+04 7.357e-09
 67.52914    -74.9 1.099e+04 8.440e-09
 67.54619    -74.3 1.105e+04 8.574e-09
 67.56596    -73.5 1.111e+04 8.035e-09
 67.58573    -72.8 1.111e+04 6.942e-09
 67.60550    -72.3 1.103e+04 5.851e-09
 67.62526    -71.9 1.099e+04 5.043e-09
 67.63633    -71.5 1.099e+04 4.670e-09
 67.64622    -72.1 1.113e+04 4.797e-09
 67.66480    -71.5 1.116e+04 4.731e-09
 67.68457    -70.8 1.118e+04 4.735e-09
 67.70433    -70.1 1.126e+04 4.767e-09
 67.73408    -69.0 1.143e+04 4.695e-09
 67.76677    -68.0 1.163e+04 4.880e-09
 67.78644    -67.7 1.170e+04 4.466e-09
 67.79849    -67.1 1.184e+04 4.900e-09
 67.81835    -67.4 1.195e+04 6.725e-09
 67.85279    -65.9 1.216e+04 7.573e-09
 67.88234    -64.8 1.234e+04 7.558e-09
 67.90201    -64.5 1.253e+04 7.733e-09
 67.91658    -64.1 1.287e+04 7.815e-09
 67.92646    -63.7 1.281e+04 8.424e-09
 67.94154    -63.6 1.324e+04 9.176e-09
 67.96131    -63.6 1.365e+04 1.038e-08
 67.98108    -63.7 1.397e+04 1.216e-08
 68.00085    -63.9 1.415e+04 1.412e-08
 68.02061    -64.1 1.415e+04 1.541e-08
 68.04038    -64.3 1.412e+04 1.571e-08
 68.05670    -64.3 1.390e+04 1.539e-08
 68.06659    -63.9 1.416e+04 1.883e-08
 68.07772    -63.7 1.397e+04 1.466e-08
 68.08760    -64.1 1.403e+04 1.430e-08
 68.09968    -63.8 1.383e+04 1.053e-08
 68.11945    -63.4 1.363e+04 7.576e-09
 68.13922    -62.9 1.346e+04 5.483e-09
 68.15899    -62.3 1.336e+04 4.126e-09
 68.17875    -61.7 1.323e+04 3.296e-09
 68.19683    -60.8 1.312e+04 2.678e-09
 68.20671    -60.7 1.322e+04 2.544e-09
 68.21829    -59.7 1.307e+04 2.174e-09
 68.24804    -58.1 1.302e+04 1.968e-09
 68.28767    -56.2 1.295e+04 1.893e-09
 68.32721    -54.1 1.288e+04 1.909e-09
 68.35676    -53.2 1.273e+04 2.595e-09
 68.36683    -52.4 1.269e+04 2.943e-09
 68.37671    -52.6 1.271e+04 3.308e-09
 68.39620    -51.7 1.276e+04 3.850e-09
 68.41596    -51.1 1.283e+04 4.614e-09
 68.43573    -50.5 1.293e+04 5.731e-09
 68.45550    -50.0 1.306e+04 7.304e-09
 68.47527    -49.6 1.325e+04 9.345e-09
 68.48696    -49.2 1.348e+04 1.168e-08
 68.49684    -48.8 1.356e+04 9.766e-09
 68.51480    -48.5 1.375e+04 1.077e-08
 68.53457    -48.5 1.388e+04 1.180e-08
 68.55434    -48.5 1.395e+04 1.319e-08
 68.57410    -48.3 1.401e+04 1.477e-08
 68.59387    -48.1 1.406e+04 1.555e-08
 68.61364    -48.0 1.403e+04 1.507e-08
 68.62708    -48.0 1.385e+04 1.216e-08
 68.63697    -47.0 1.431e+04 1.513e-08
 68.64606    -47.1 1.415e+04 1.162e-08
 68.65594    -48.0 1.414e+04 1.037e-08
 68.67294    -48.3 1.377e+04 7.340e-09
 68.69271    -48.4 1.341e+04 5.517e-09
 68.71248    -48.4 1.316e+04 4.554e-09
 68.73224    -48.1 1.305e+04 4.081e-09
 68.75201    -47.7 1.304e+04 3.934e-09
 68.76721    -47.3 1.304e+04 3.910e-09
 68.77709    -47.6 1.341e+04 5.012e-09
 68.79155    -47.2 1.335e+04 4.986e-09
 68.81131    -46.8 1.329e+04 5.136e-09
 68.83108    -46.4 1.328e+04 5.333e-09
 68.85085    -45.9 1.328e+04 5.436e-09
 68.87062    -45.3 1.328e+04 5.419e-09
 68.89038    -44.8 1.329e+04 5.043e-09
 68.90733    -44.2 1.331e+04 4.511e-09
 68.91721    -44.4 1.342e+04 4.282e-09
 68.92529    -43.9 1.343e+04 3.701e-09
 68.93517    -44.1 1.344e+04 3.754e-09
 68.94969    -43.4 1.343e+04 3.470e-09
 68.96945    -42.8 1.342e+04 3.287e-09
 68.98922    -42.0 1.341e+04 3.187e-09
 69.00899    -41.1 1.341e+04 3.166e-09
 69.02876    -40.3 1.352e+04 3.218e-09
 69.04745    -39.8 1.365e+04 3.538e-09
 69.05734    -39.3 1.371e+04 3.035e-09
 69.06829    -39.1 1.394e+04 3.584e-09
 69.08806    -39.6 1.398e+04 5.327e-09
 69.10783    -40.2 1.393e+04 9.996e-09
 69.12759    -40.3 1.420e+04 1.890e-08
 69.14736    -40.2 1.468e+04 2.841e-08
 69.16713    -40.8 1.491e+04 3.150e-08
 69.18690    -42.1 1.500e+04 2.619e-08
 69.19746    -43.6 1.486e+04 1.774e-08
 69.20520    -43.2 1.515e+04 2.346e-08
 69.21440    -44.7 1.519e+04 1.852e-08
 69.22643    -46.7 1.484e+04 1.136e-08
 69.24620    -47.8 1.454e+04 9.089e-09
 69.26597    -48.0 1.439e+04 8.257e-09
 69.28573    -47.9 1.434e+04 7.406e-09
 69.30550    -47.5 1.429e+04 6.310e-09
 69.32527    -47.1 1.428e+04 5.180e-09
 69.33759    -46.6 1.427e+04 4.184e-09
 69.34747    -46.7 1.426e+04 3.983e-09
 69.36480    -46.1 1.429e+04 3.158e-09
 69.38457    -45.5 1.429e+04 2.575e-09
 69.40434    -44.7 1.414e+04 2.355e-09
 69.43409    -43.3 1.406e+04 2.384e-09
 69.46802    -41.9 1.394e+04 2.412e-09
 69.48779    -41.1 1.403e+04 2.168e-09
 69.49372    -40.5 1.368e+04 2.568e-09
 69.50351    -41.4 1.359e+04 2.717e-09
 69.52294    -40.9 1.353e+04 2.948e-09
 69.54271    -40.2 1.349e+04 3.211e-09
 69.56248    -39.9 1.346e+04 3.383e-09
 69.58224    -39.6 1.340e+04 3.589e-09
 69.60201    -39.6 1.337e+04 3.738e-09
 69.61783    -39.9 1.335e+04 4.105e-09
 69.62772    -40.2 1.342e+04 5.184e-09
 69.64155    -40.7 1.336e+04 6.194e-09
 69.66131    -41.2 1.337e+04 7.735e-09
 69.68108    -41.7 1.342e+04 9.554e-09
 69.71083    -42.8 1.348e+04 1.149e-08
 69.74827    -45.0 1.350e+04 1.381e-08
 69.76794    -46.6 1.378e+04 1.910e-08
 69.77285    -47.4 1.315e+04 1.639e-08
 69.78274    -48.0 1.316e+04 1.649e-08
 69.79969    -48.2 1.298e+04 1.325e-08
 69.81945    -48.5 1.255e+04 1.014e-08
 69.83922    -48.7 1.225e+04 7.977e-09
 69.86897    -48.7 1.177e+04 5.658e-09
 69.90860    -46.7 1.127e+04 3.321e-09
 69.94814    -45.0 1.112e+04 2.210e-09
 69.98767    -43.5 1.102e+04 1.752e-09
 70.02721    -41.6 1.094e+04 1.547e-09
 70.04828    -39.7 1.090e+04 1.450e-09
 70.05359    -39.9 1.100e+04 1.171e-09
 70.07204    -40.2 1.093e+04 1.213e-09
 70.10628    -38.3 1.078e+04 1.307e-09
 70.14581    -36.4 1.063e+04 1.454e-09
 70.18535    -34.6 1.054e+04 1.535e-09
 70.22488    -32.8 1.056e+04 1.555e-09
 70.26442    -31.1 1.057e+04 1.558e-09
 70.30395    -29.5 1.060e+04 1.566e-09
 70.32853    -28.2 1.076e+04 1.809e-09
 70.34830    -28.0 1.059e+04 1.987e-09
 70.37304    -27.0 1.092e+04 2.549e-09
 70.39271    -27.1 1.094e+04 2.710e-09
 70.41248    -27.0 1.112e+04 4.459e-09
 70.43225    -26.6 1.148e+04 7.536e-09
 70.45201    -26.2 1.193e+04 1.214e-08
 70.46846    -25.7 1.244e+04 1.823e-08
 70.47834    -25.6 1.215e+04 1.640e-08
 70.49155    -25.1 1.248e+04 2.085e-08
 70.51132    -24.8 1.265e+04 2.283e-08
 70.53108    -24.6 1.267e+04 2.305e-08
 70.55085    -24.3 1.251e+04 2.102e-08
 70.57062    -23.9 1.232e+04 1.779e-08
 70.59039    -23.6 1.214e+04 1.499e-08
 70.60858    -23.3 1.198e+04 1.257e-08
 70.61847    -23.6 1.192e+04 1.500e-08
 70.62042    -23.0 1.186e+04 1.417e-08
 70.63031    -23.4 1.169e+04 1.292e-08
 70.64969    -22.7 1.171e+04 1.196e-08
 70.66946    -22.2 1.184e+04 1.103e-08
 70.68922    -21.8 1.193e+04 1.014e-08
 70.70899    -21.6 1.191e+04 9.520e-09
 70.72876    -21.3 1.186e+04 9.105e-09
 70.74853    -21.0 1.184e+04 8.721e-09
 70.75859    -20.8 1.188e+04 8.383e-09
 70.76848    -21.8 1.244e+04 1.287e-08
 70.78806    -21.8 1.240e+04 1.297e-08
 70.80783    -21.8 1.239e+04 1.375e-08
 70.82760    -21.8 1.253e+04 1.550e-08
 70.84736    -21.8 1.280e+04 1.825e-08
 70.86713    -21.7 1.309e+04 2.172e-08
 70.88690    -21.5 1.319e+04 2.501e-08
 70.89872    -21.3 1.332e+04 2.768e-08
 70.90158    -21.3 1.381e+04 5.128e-08
 70.90953    -21.5 1.413e+04 5.350e-08
 70.92643    -21.3 1.417e+04 5.652e-08
 70.94620    -21.7 1.455e+04 6.148e-08
 70.96597    -22.9 1.543e+04 7.346e-08
 70.98574    -23.6 1.613e+04 9.805e-08
 71.00550    -23.6 1.656e+04 1.261e-07
 71.02527    -23.8 1.658e+04 1.326e-07
 71.03884    -23.9 1.584e+04 1.064e-07
 71.04872    -23.2 1.492e+04 5.564e-08
 71.06481    -23.1 1.411e+04 3.587e-08
 71.08457    -23.6 1.344e+04 2.494e-08
 71.10434    -23.8 1.295e+04 1.975e-08
 71.12411    -23.2 1.267e+04 1.726e-08
 71.14388    -22.1 1.270e+04 1.590e-08
 71.16364    -21.1 1.298e+04 1.474e-08
 71.17888    -20.0 1.334e+04 1.406e-08
 71.18876    -20.9 1.238e+04 6.578e-09
 71.20318    -20.3 1.218e+04 5.888e-09
 71.22295    -20.0 1.170e+04 5.487e-09
 71.24271    -19.8 1.146e+04 5.470e-09
 71.26248    -19.5 1.113e+04 6.022e-09
 71.28225    -18.8 1.086e+04 6.431e-09
 71.30202    -18.0 1.072e+04 6.548e-09
 71.31909    -17.1 1.063e+04 6.389e-09
 71.32897    -16.7 1.050e+04 5.400e-09
 71.34155    -15.7 1.046e+04 5.003e-09
 71.36132    -14.7 1.039e+04 4.576e-09
 71.38109    -13.5 1.026e+04 4.133e-09
 71.40085    -12.0 1.020e+04 3.681e-09
 71.42062    -10.4 1.023e+04 3.182e-09
 71.44039     -9.0 1.027e+04 2.686e-09
 71.45811     -7.8 1.022e+04 2.353e-09
 71.46705     -7.9 1.013e+04 2.322e-09
 71.46909     -7.8 1.007e+04 2.463e-09
 71.48990     -5.6 1.021e+04 2.291e-09
 71.52954     -2.0 1.002e+04 1.800e-09
 71.56907      1.2 1.004e+04 1.691e-09
 71.60861      4.2 1.024e+04 1.792e-09
 71.63816      5.7 1.048e+04 2.451e-09
 71.65783      6.6 1.045e+04 2.805e-09
 71.67760      8.2 1.027e+04 4.016e-09
 71.69737      9.7 1.063e+04 4.417e-09
 71.71713     11.2 1.041e+04 5.622e-09
 71.73690     12.7 1.055e+04 6.403e-09
 71.74722     13.9 1.086e+04 6.533e-09
 71.74978     13.9 1.086e+04 6.538e-09
 71.75923     13.1 1.102e+04 6.099e-09
 71.77644     13.9 1.091e+04 6.935e-09
 71.79620     14.7 1.098e+04 7.016e-09
 71.81597     15.1 1.099e+04 7.560e-09
 71.83574     15.6 1.089e+04 8.432e-09
 71.85551     16.1 1.093e+04 9.437e-09
 71.87527     16.4 1.120e+04 1.112e-08
 71.88947     16.3 1.145e+04 1.281e-08
 71.89935     15.3 1.146e+04 1.336e-08
 71.91481     15.5 1.143e+04 1.534e-08
 71.93458     15.7 1.135e+04 1.509e-08
 71.95434     16.4 1.105e+04 1.278e-08
 71.97411     16.9 1.069e+04 1.022e-08
 71.99388     17.2 1.038e+04 7.719e-09
 72.01365     17.0 1.019e+04 6.746e-09
 72.02969     17.4 1.020e+04 6.060e-09
 72.04955     18.5 9.950e+03 5.242e-09
 72.07305     19.4 9.816e+03 5.190e-09
 72.09272     20.2 9.853e+03 5.365e-09
 72.11248     21.0 9.870e+03 5.586e-09
 72.13225     22.0 9.797e+03 5.978e-09
 72.15202     23.3 9.830e+03 6.248e-09
 72.16971     24.3 9.881e+03 6.251e-09
 72.17960     24.7 1.002e+04 6.482e-09
 72.19155     25.6 9.963e+03 6.183e-09
 72.21132     26.2 9.834e+03 5.922e-09
 72.23109     26.7 9.657e+03 5.747e-09
 72.25086     27.4 9.664e+03 5.806e-09
 72.27062     27.8 9.791e+03 6.078e-09
 72.29039     28.0 1.004e+04 6.651e-09
 72.30568     28.0 1.039e+04 7.774e-09
 72.31524     29.3 1.029e+04 7.513e-09
 72.31972     30.2 1.040e+04 7.885e-09
 72.32993     30.7 1.058e+04 8.854e-09
 72.34969     31.2 1.087e+04 1.045e-08
 72.36946     31.3 1.161e+04 1.411e-08
 72.38923     28.2 1.662e+04 3.650e-08
 72.40400     22.9 2.026e+04 9.077e-08
 72.41384     19.4 2.018e+04 2.403e-07
 72.42372     17.9 1.899e+04 5.088e-07
 72.43361     18.5 1.800e+04 8.819e-07
 72.44349     19.9 1.767e+04 8.885e-07
 72.45013     21.4 1.806e+04 6.043e-07
 72.45508     21.1 1.790e+04 1.061e-06
 72.45975     21.5 1.875e+04 4.800e-07
 72.46469     21.5 1.835e+04 8.885e-07
 72.47314     21.2 1.948e+04 3.402e-07
 72.48303     18.0 2.022e+04 1.031e-07
 72.49291     12.2 1.621e+04 3.441e-08
 72.50279      7.6 1.248e+04 1.659e-08
 72.51268      7.0 1.199e+04 1.465e-08
 72.52755      6.9 1.174e+04 1.215e-08
 72.54737      5.9 1.103e+04 1.010e-08
 72.56713      5.9 1.101e+04 1.106e-08
 72.58490      6.5 1.136e+04 1.254e-08
 72.59479      5.8 1.124e+04 1.249e-08
 72.59997      6.6 1.147e+04 1.352e-08
 72.60985      7.2 1.148e+04 1.421e-08
 72.62644      7.4 1.162e+04 1.446e-08
 72.64620      7.0 1.168e+04 1.443e-08
 72.66597      5.5 1.213e+04 1.499e-08
 72.68574     -2.0 1.719e+04 1.886e-08
 72.70052    -11.2 2.100e+04 2.598e-08
 72.71035    -16.1 2.289e+04 5.902e-08
 72.72024    -18.6 2.274e+04 2.084e-07
 72.72936    -21.7 2.044e+04 7.603e-07
 72.73431    -21.2 2.106e+04 4.955e-07
 72.73999    -23.4 1.950e+04 1.262e-06
 72.74988    -23.6 1.978e+04 1.036e-06
 72.75977    -25.7 1.886e+04 1.535e-06
 72.76965    -27.5 1.867e+04 1.581e-06
 72.77954    -28.7 1.862e+04 1.322e-06
 72.78942    -29.8 1.905e+04 7.120e-07
 72.79931    -31.4 1.956e+04 2.962e-07
 72.80919    -34.2 1.898e+04 1.177e-07
 72.81500    -37.3 1.640e+04 5.599e-08
 72.81994    -34.1 1.904e+04 1.157e-07
 72.82896    -37.1 1.636e+04 5.587e-08
 72.83884    -39.0 1.388e+04 3.682e-08
 72.84872    -39.6 1.304e+04 3.054e-08
 72.86360    -39.8 1.276e+04 2.679e-08
 72.87402    -39.7 1.215e+04 2.162e-08
 72.88070    -39.0 1.247e+04 2.429e-08
 72.89010    -39.2 1.268e+04 2.443e-08
 72.90318    -39.2 1.215e+04 2.016e-08
 72.92295    -38.9 1.151e+04 1.672e-08
 72.94272    -38.0 1.125e+04 1.541e-08
 72.96248    -37.1 1.113e+04 1.497e-08
 72.98225    -36.1 1.103e+04 1.479e-08
 73.00202    -34.9 1.093e+04 1.471e-08
 73.02034    -33.5 1.086e+04 1.475e-08
 73.03022    -34.1 1.096e+04 1.504e-08
 73.04155    -32.9 1.080e+04 1.438e-08
 73.06132    -31.7 1.063e+04 1.364e-08
 73.08109    -30.3 1.049e+04 1.305e-08
 73.10086    -28.9 1.042e+04 1.267e-08
 73.12062    -27.7 1.030e+04 1.214e-08
 73.14039    -26.2 1.015e+04 1.151e-08
 73.15325    -24.5 1.008e+04 1.113e-08
 73.16313    -24.4 1.022e+04 1.187e-08
 73.17035    -22.9 1.019e+04 1.148e-08
 73.18023    -23.8 9.953e+03 9.965e-09
 73.19969    -22.5 9.920e+03 9.788e-09
 73.21946    -21.0 9.976e+03 9.955e-09
 73.23923    -19.5 1.017e+04 1.074e-08
 73.25900    -18.4 1.051e+04 1.216e-08
 73.27876    -17.6 1.094e+04 1.442e-08
 73.29853    -16.9 1.155e+04 1.830e-08
 73.31047    -16.3 1.232e+04 2.451e-08
 73.32036    -17.2 1.238e+04 2.603e-08
 73.33807    -16.7 1.292e+04 3.141e-08
 73.35783    -16.2 1.332e+04 3.636e-08
 73.37760    -16.0 1.341e+04 3.760e-08
 73.39737    -15.8 1.324e+04 3.555e-08
 73.41714    -15.5 1.274e+04 2.862e-08
 73.43247    -15.3 1.212e+04 2.158e-08
 73.44236    -14.9 1.230e+04 2.296e-08
 73.45060    -14.7 1.164e+04 1.635e-08
 73.46048    -15.0 1.218e+04 2.152e-08
 73.47644    -14.3 1.177e+04 1.691e-08
 73.49621    -13.6 1.134e+04 1.299e-08
 73.51597    -12.8 1.095e+04 9.725e-09
 73.53574    -12.0 1.059e+04 7.363e-09
 73.55551    -11.3 1.030e+04 5.871e-09
 73.57528    -10.6 1.007e+04 5.077e-09
 73.59072     -9.7 9.969e+03 4.707e-09
 73.60060     -9.2 1.024e+04 5.229e-09
 73.61481     -8.5 1.010e+04 4.738e-09
 73.63458     -7.6 1.002e+04 4.526e-09
 73.65435     -6.6 9.994e+03 4.388e-09
 73.67411     -5.7 9.998e+03 4.219e-09
 73.69388     -4.8 1.001e+04 3.960e-09
 73.71170     -4.0 1.004e+04 3.652e-09
 73.72159     -3.9 1.002e+04 3.550e-09
 73.73084     -3.3 1.005e+04 3.374e-09
 73.74073     -2.8 1.007e+04 3.662e-09
 73.75318     -2.3 1.009e+04 3.562e-09
 73.77295     -1.8 1.012e+04 3.537e-09
 73.79272     -1.3 1.021e+04 3.612e-09
 73.81249     -1.0 1.034e+04 3.852e-09
 73.83225     -0.7 1.045e+04 4.226e-09
 73.85202     -0.3 1.056e+04 4.588e-09
 73.87097      0.1 1.060e+04 4.744e-09
 73.88085      0.5 1.071e+04 5.307e-09
 73.89156      0.9 1.070e+04 5.039e-09
 73.91132      1.4 1.056e+04 4.239e-09
 73.93109      1.8 1.040e+04 3.396e-09
 73.95086      2.0 1.026e+04 2.790e-09
 73.98061      2.6 1.026e+04 2.269e-09
 74.00101      3.6 1.004e+04 1.833e-09
 74.01182      3.9 1.001e+04 1.948e-09
 74.03105      3.9 1.020e+04 2.227e-09
 74.05978      4.8 1.026e+04 2.439e-09
 74.08933      5.8 1.037e+04 3.018e-09
 74.10900      5.8 1.037e+04 3.107e-09
 74.12877      7.1 1.053e+04 3.668e-09
 74.14853      7.2 1.054e+04 3.679e-09
 74.16110      7.9 1.068e+04 3.561e-09
 74.17098      7.9 1.072e+04 3.713e-09
 74.18807      8.0 1.073e+04 3.355e-09
 74.21782      8.4 1.087e+04 2.921e-09
 74.25745      9.1 1.087e+04 2.142e-09
 74.29153     10.1 1.073e+04 1.657e-09
 74.31130      9.4 1.110e+04 2.127e-09
 74.33652     10.6 1.108e+04 2.228e-09
 74.37605     12.1 1.111e+04 2.452e-09
 74.41559     13.7 1.118e+04 2.605e-09
 74.45512     15.1 1.119e+04 2.561e-09
 74.49466     16.6 1.110e+04 2.658e-09
 74.53419     18.4 1.093e+04 2.683e-09
 74.55947     20.3 1.082e+04 2.659e-09
 74.57729     20.4 1.095e+04 3.195e-09
 74.59155     19.8 1.074e+04 2.637e-09
 74.61326     21.5 1.082e+04 2.549e-09
 74.65280     23.0 1.092e+04 2.787e-09
 74.69233     24.7 1.105e+04 3.652e-09
 74.72169     26.4 1.092e+04 4.451e-09
 74.73148     25.9 1.074e+04 4.216e-09
 74.74156     27.0 1.066e+04 4.170e-09
 74.76133     28.6 1.079e+04 3.525e-09
 74.78109     28.9 1.069e+04 3.486e-09
 74.81084     30.8 1.072e+04 2.868e-09
 74.85047     32.2 1.058e+04 2.734e-09
 74.87180     33.5 1.039e+04 3.425e-09
 74.89156     32.6 1.033e+04 3.070e-09
 74.92954     34.3 1.027e+04 4.474e-09
 74.95910     35.9 1.037e+04 5.678e-09
 74.97877     36.2 1.045e+04 5.919e-09
 74.99854     37.4 1.033e+04 5.674e-09
 75.01173     37.6 1.039e+04 5.720e-09
 75.02161     37.2 1.025e+04 4.968e-09
 75.03807     38.0 1.007e+04 4.536e-09
 75.05784     38.4 1.012e+04 4.482e-09
 75.07761     39.2 9.999e+03 4.239e-09
 75.09737     39.6 1.009e+04 4.353e-09
 75.11714     40.1 1.007e+04 4.521e-09
 75.12761     40.5 1.013e+04 4.962e-09
 75.13749     40.1 1.003e+04 4.719e-09
 75.15185     40.3 1.026e+04 5.715e-09
 75.16173     39.5 1.043e+04 6.903e-09
 75.17644     39.7 1.072e+04 9.150e-09
 75.19621     40.1 1.107e+04 1.171e-08
 75.21598     40.4 1.136e+04 1.359e-08
 75.23575     40.6 1.132e+04 1.347e-08
 75.25551     40.8 1.120e+04 1.265e-08
 75.27528     40.7 1.112e+04 1.129e-08
 75.29197     40.1 1.111e+04 1.025e-08
 75.30186     38.5 1.089e+04 8.500e-09
 75.31481     37.7 1.073e+04 8.182e-09
 75.33458     37.2 1.056e+04 8.201e-09
 75.35435     37.2 1.040e+04 8.208e-09
 75.37412     37.3 1.029e+04 7.813e-09
 75.39388     37.3 1.025e+04 7.300e-09
 75.40684     36.9 1.026e+04 7.123e-09
 75.41672     36.1 9.856e+03 5.650e-09
 75.43210     35.8 9.996e+03 6.331e-09
 75.44198     34.8 1.023e+04 8.310e-09
 75.45319     34.6 1.061e+04 9.887e-09
 75.47295     34.3 1.110e+04 1.243e-08
 75.49272     34.1 1.151e+04 1.566e-08
 75.51249     34.3 1.182e+04 1.828e-08
 75.53226     34.5 1.198e+04 1.947e-08
 75.55202     35.0 1.191e+04 1.884e-08
 75.57179     35.0 1.177e+04 1.693e-08
 75.58210     34.9 1.147e+04 1.420e-08
 75.59199     33.8 1.091e+04 9.698e-09
 75.61133     33.3 1.057e+04 7.787e-09
 75.63109     33.5 9.997e+03 5.872e-09
 75.65086     33.2 9.875e+03 5.489e-09
 75.67063     33.8 9.635e+03 4.646e-09
 75.68607     33.7 9.762e+03 4.325e-09
 75.69595     33.7 9.810e+03 5.076e-09
 75.71016     33.9 9.791e+03 5.029e-09
 75.72223     33.9 9.799e+03 5.046e-09
 75.73211     33.5 9.308e+03 3.192e-09
 75.74970     33.1 9.400e+03 3.794e-09
 75.76947     33.3 9.377e+03 4.424e-09
 75.78923     32.9 9.653e+03 5.452e-09
 75.80900     33.0 9.823e+03 6.730e-09
 75.82877     33.5 9.858e+03 7.447e-09
 75.84854     34.1 9.871e+03 7.424e-09
 75.86235     34.6 9.843e+03 7.056e-09
 75.87224     34.7 9.749e+03 6.580e-09
 75.88807     34.8 9.745e+03 6.259e-09
 75.90784     34.4 9.874e+03 6.402e-09
 75.92761     33.1 1.040e+04 7.348e-09
 75.94737     31.3 1.105e+04 9.990e-09
 75.96530     31.1 1.144e+04 1.402e-08
 75.97518     30.0 1.150e+04 1.523e-08
 75.98691     30.4 1.158e+04 1.605e-08
 76.00248     29.9 1.177e+04 1.601e-08
 76.01236     30.3 1.154e+04 1.405e-08
 76.02644     29.3 1.185e+04 1.513e-08
 76.04621     27.4 1.255e+04 1.870e-08
 76.06598     23.9 1.405e+04 2.889e-08
 76.08575     20.2 1.597e+04 5.111e-08
 76.10551     17.8 1.702e+04 8.671e-08
 76.12528     14.4 1.842e+04 6.760e-08
 76.14260      6.6 1.847e+04 4.326e-08
 76.15248      6.9 1.933e+04 9.828e-08
 76.16482     -1.3 1.741e+04 9.011e-08
 76.18458     -6.5 1.715e+04 7.538e-08
 76.20435    -10.9 1.784e+04 6.583e-08
 76.22412    -17.3 1.689e+04 4.834e-08
 76.24389    -23.4 1.515e+04 3.787e-08
 76.25441    -27.0 1.434e+04 3.528e-08
 76.26429    -23.0 1.439e+04 3.306e-08
 76.28272    -25.3 1.390e+04 3.316e-08
 76.29261    -26.7 1.387e+04 3.069e-08
 76.30319    -28.5 1.322e+04 2.113e-08
 76.32296    -30.7 1.228e+04 1.213e-08
 76.34272    -33.2 1.108e+04 6.903e-09
 76.36249    -34.9 1.037e+04 5.089e-09
 76.38226    -35.5 1.019e+04 4.738e-09
 76.40203    -35.7 1.023e+04 4.725e-09
 76.42179    -35.5 1.049e+04 5.120e-09
 76.43273    -35.2 1.072e+04 5.815e-09
 76.44261    -36.9 1.133e+04 8.518e-09
 76.46133    -36.3 1.125e+04 8.781e-09
 76.48110    -35.6 1.106e+04 8.618e-09
 76.50086    -34.9 1.092e+04 8.017e-09
 76.52063    -34.2 1.082e+04 7.247e-09
 76.53364    -33.6 1.077e+04 6.566e-09
 76.54352    -32.4 1.096e+04 7.384e-09
 76.56017    -32.0 1.092e+04 6.783e-09
 76.57285    -31.7 1.088e+04 6.489e-09
 76.58274    -33.0 1.101e+04 7.151e-09
 76.59970    -32.7 1.109e+04 7.202e-09
 76.61947    -32.7 1.123e+04 7.682e-09
 76.63924    -32.9 1.134e+04 8.511e-09
 76.65900    -33.1 1.154e+04 9.775e-09
 76.67877    -33.4 1.185e+04 1.127e-08
 76.69854    -33.9 1.216e+04 1.242e-08
 76.71298    -34.9 1.246e+04 1.303e-08
 76.72286    -36.9 1.219e+04 1.184e-08
 76.73807    -38.5 1.206e+04 1.138e-08
 76.75784    -40.4 1.203e+04 1.126e-08
 76.77761    -42.2 1.215e+04 1.187e-08
 76.79738    -44.0 1.244e+04 1.397e-08
 76.81287    -45.2 1.270e+04 1.628e-08
 76.82275    -45.0 1.268e+04 1.591e-08
 76.83691    -46.0 1.283e+04 1.705e-08
 76.85310    -46.9 1.283e+04 1.683e-08
 76.86299    -48.3 1.261e+04 1.615e-08
 76.87645    -49.5 1.216e+04 1.277e-08
 76.89621    -51.0 1.163e+04 1.003e-08
 76.91598    -52.2 1.125e+04 8.754e-09
 76.93575    -53.0 1.108e+04 8.346e-09
 76.95552    -53.6 1.105e+04 8.178e-09
 76.97528    -54.5 1.110e+04 8.154e-09
 76.99323    -55.9 1.117e+04 8.171e-09
 77.00311    -57.3 1.094e+04 7.371e-09
 77.01482    -59.1 1.099e+04 7.446e-09
 77.03459    -60.9 1.109e+04 8.443e-09
 77.05435    -62.2 1.122e+04 1.002e-08
 77.07412    -63.2 1.132e+04 1.128e-08
 77.09209    -64.1 1.139e+04 1.206e-08
 77.10198    -64.4 1.171e+04 1.375e-08
 77.11366    -65.3 1.178e+04 1.445e-08
 77.13335    -66.2 1.181e+04 1.466e-08
 77.15312    -68.7 1.133e+04 1.123e-08
 77.17296    -70.4 1.126e+04 1.032e-08
 77.19273    -72.7 1.127e+04 1.001e-08
 77.21249    -75.6 1.143e+04 9.993e-09
 77.23226    -79.2 1.205e+04 1.173e-08
 77.25203    -82.7 1.261e+04 1.577e-08
 77.27180    -85.5 1.302e+04 2.032e-08
 77.28336    -88.0 1.315e+04 2.221e-08
 77.29324    -86.8 1.293e+04 2.012e-08
 77.31133    -88.9 1.292e+04 2.041e-08
 77.33110    -90.6 1.259e+04 1.822e-08
 77.35087    -91.9 1.211e+04 1.477e-08
 77.37063    -93.0 1.167e+04 1.192e-08
 77.38121    -93.8 1.138e+04 1.017e-08
 77.39109    -94.5 1.122e+04 9.361e-09
 77.41017    -95.0 1.107e+04 8.618e-09
 77.42348    -95.4 1.104e+04 8.379e-09
 77.43337    -94.7 1.104e+04 8.085e-09
 77.44970    -95.4 1.105e+04 8.095e-09
 77.46947    -96.8 1.121e+04 8.654e-09
 77.48924    -99.1 1.216e+04 1.277e-08
 77.50901   -101.7 1.359e+04 2.221e-08
 77.52877   -104.4 1.499e+04 3.731e-08
 77.54854   -107.6 1.589e+04 5.388e-08
 77.56361   -111.0 1.609e+04 6.123e-08
 77.57349   -109.2 1.591e+04 5.586e-08
 77.58808   -112.8 1.594e+04 5.975e-08
 77.60784   -116.0 1.566e+04 5.964e-08
 77.62761   -118.4 1.492e+04 5.044e-08
 77.64738   -120.2 1.402e+04 3.727e-08
 77.66043   -121.5 1.297e+04 2.400e-08
 77.67032   -122.1 1.320e+04 2.510e-08
 77.68691   -123.4 1.197e+04 1.418e-08
 77.70373   -124.8 1.092e+04 8.887e-09
 77.71361   -123.2 1.121e+04 9.536e-09
 77.72645   -124.6 1.038e+04 6.446e-09
 77.74622   -125.5 1.002e+04 5.473e-09
 77.76598   -126.1 9.917e+03 5.281e-09
 77.78575   -126.5 1.001e+04 5.695e-09
 77.80552   -127.0 1.036e+04 7.366e-09
 77.82529   -127.2 1.077e+04 1.017e-08
 77.84385   -127.2 1.113e+04 1.371e-08
 77.85374   -125.7 1.065e+04 9.373e-09
 77.86482   -125.7 1.097e+04 1.238e-08
 77.88459   -125.7 1.120e+04 1.526e-08
 77.90436   -125.4 1.137e+04 1.720e-08
 77.92412   -125.2 1.148e+04 1.787e-08
 77.93966   -125.2 1.136e+04 1.608e-08
 77.94955   -127.1 1.133e+04 1.503e-08
 77.96366   -127.7 1.094e+04 1.155e-08
 77.98343   -128.9 1.033e+04 8.474e-09
 77.99386   -130.0 9.752e+03 6.798e-09
 78.00374   -127.4 1.006e+04 7.705e-09
 78.02296   -128.3 9.554e+03 6.259e-09
 78.04273   -129.0 9.423e+03 5.958e-09
 78.06250   -129.7 9.552e+03 6.154e-09
 78.08226   -130.5 1.021e+04 7.947e-09
 78.10203   -131.0 1.092e+04 1.112e-08
 78.12180   -131.4 1.151e+04 1.488e-08
 78.13398   -131.8 1.189e+04 1.799e-08
 78.14387   -129.5 1.143e+04 1.462e-08
 78.16133   -129.8 1.175e+04 1.722e-08
 78.18110   -130.2 1.184e+04 1.797e-08
 78.20087   -130.9 1.177e+04 1.775e-08
 78.21889   -131.6 1.130e+04 1.492e-08
 78.22877   -132.8 1.076e+04 1.196e-08
 78.24040   -133.7 1.020e+04 9.821e-09
 78.26017   -134.4 9.934e+03 8.941e-09
 78.27411   -134.9 9.909e+03 8.825e-09
 78.28399   -133.3 9.932e+03 8.895e-09
 78.29970   -133.9 9.984e+03 9.143e-09
 78.31947   -134.3 1.032e+04 1.041e-08
 78.33924   -134.6 1.062e+04 1.181e-08
 78.35901   -134.9 1.078e+04 1.272e-08
 78.37877   -135.0 1.082e+04 1.295e-08
 78.39854   -135.1 1.072e+04 1.202e-08
 78.41423   -135.1 1.052e+04 1.030e-08
 78.42412   -134.3 1.060e+04 1.072e-08
 78.43808   -134.5 1.030e+04 8.552e-09
 78.45784   -134.7 9.988e+03 6.756e-09
 78.47761   -134.9 9.721e+03 5.507e-09
 78.49738   -135.2 9.524e+03 4.767e-09
 78.50800   -135.3 9.418e+03 4.399e-09
 78.51789   -136.6 9.386e+03 4.382e-09
 78.53691   -136.4 9.362e+03 4.221e-09
 78.55436   -136.1 9.350e+03 4.111e-09
 78.56424   -135.4 9.377e+03 4.173e-09
 78.57645   -135.0 9.357e+03 4.043e-09
 78.59622   -134.5 9.352e+03 3.955e-09
 78.61598   -133.9 9.359e+03 3.922e-09
 78.63575   -133.3 9.371e+03 3.920e-09
 78.65552   -132.8 9.542e+03 3.987e-09
 78.67529   -132.4 9.750e+03 4.326e-09
 78.69448   -132.0 9.969e+03 4.800e-09
 78.70436   -131.5 1.010e+04 5.251e-09
 78.71482   -131.2 1.036e+04 6.048e-09
 78.73459   -131.0 1.057e+04 6.640e-09
 78.75436   -130.7 1.069e+04 6.889e-09
 78.77412   -130.3 1.072e+04 6.935e-09
 78.78723   -129.9 1.075e+04 6.671e-09
 78.79711   -130.9 1.110e+04 7.971e-09
 78.81366   -130.5 1.106e+04 7.014e-09
 78.83343   -130.0 1.103e+04 6.232e-09
 78.84449   -129.5 1.105e+04 5.729e-09
 78.85437   -129.3 1.126e+04 6.531e-09
 78.87296   -128.7 1.125e+04 6.037e-09
 78.89273   -128.0 1.124e+04 5.783e-09
 78.91250   -127.2 1.121e+04 5.642e-09
 78.93226   -126.3 1.118e+04 5.528e-09
 78.95203   -125.3 1.115e+04 5.373e-09
 78.97180   -124.4 1.111e+04 5.176e-09
 78.98461   -123.4 1.107e+04 4.947e-09
 78.99449   -123.0 1.105e+04 4.945e-09
 79.01133   -121.9 1.102e+04 4.716e-09
 79.03110   -120.8 1.099e+04 4.468e-09
 79.05087   -119.6 1.097e+04 4.202e-09
 79.06646   -118.5 1.096e+04 3.885e-09
 79.07634   -119.1 1.111e+04 4.136e-09
 79.09040   -117.8 1.108e+04 3.655e-09
 79.11017   -116.7 1.103e+04 3.168e-09
 79.12473   -115.7 1.099e+04 2.748e-09
 79.13472   -115.6 1.108e+04 4.776e-09
 79.15979   -112.9 1.098e+04 3.861e-09
 79.19932   -110.5 1.096e+04 3.050e-09
 79.23886   -107.9 1.092e+04 2.414e-09
 79.27839   -105.6 1.088e+04 2.106e-09
 79.31793   -103.0 1.083e+04 2.000e-09
 79.35746   -100.4 1.081e+04 1.977e-09
 79.39529    -97.7 1.078e+04 1.982e-09
 79.41506    -96.6 1.075e+04 3.085e-09
 79.43653    -94.0 1.074e+04 2.993e-09
 79.47607    -91.3 1.074e+04 2.948e-09
 79.51560    -88.7 1.075e+04 2.867e-09
 79.55514    -86.0 1.077e+04 2.699e-09
 79.59467    -83.3 1.079e+04 2.427e-09
 79.62511    -80.7 1.081e+04 2.099e-09
 79.64488    -80.9 1.085e+04 2.143e-09
 79.67374    -78.3 1.090e+04 1.945e-09
 79.69531    -75.8 1.094e+04 1.847e-09
 79.71508    -75.0 1.102e+04 2.888e-09
 79.75281    -72.7 1.114e+04 2.952e-09
 79.79235    -70.5 1.127e+04 3.021e-09
 79.83188    -68.3 1.140e+04 3.032e-09
 79.87142    -66.0 1.146e+04 3.024e-09
 79.91095    -63.6 1.166e+04 2.701e-09
 79.95049    -61.1 1.177e+04 2.283e-09
 79.97556    -58.6 1.188e+04 1.913e-09
 79.99532    -58.4 1.182e+04 2.053e-09
 80.02956    -56.0 1.188e+04 1.718e-09
 80.06909    -53.6 1.194e+04 1.611e-09
 80.10862    -51.3 1.196e+04 1.593e-09
 80.14816    -49.2 1.225e+04 1.649e-09
 80.18357    -47.3 1.239e+04 1.918e-09
 80.20334    -46.9 1.236e+04 2.256e-09
 80.22723    -45.0 1.246e+04 2.757e-09
 80.25580    -43.2 1.261e+04 3.220e-09
 80.27557    -42.7 1.249e+04 2.407e-09
 80.30630    -41.0 1.266e+04 2.563e-09
 80.34583    -39.6 1.284e+04 2.755e-09
 80.38537    -38.3 1.300e+04 3.028e-09
 80.40571    -37.2 1.311e+04 3.085e-09
 80.41550    -37.1 1.315e+04 2.892e-09
 80.43459    -36.8 1.311e+04 3.090e-09
 80.45436    -35.8 1.317e+04 3.562e-09
 80.47248    -35.6 1.316e+04 3.659e-09
 80.48237    -35.6 1.329e+04 4.259e-09
 80.49390    -35.2 1.337e+04 4.858e-09
 80.51366    -35.2 1.329e+04 5.262e-09
 80.53343    -35.0 1.317e+04 5.679e-09
 80.54574    -34.9 1.310e+04 5.797e-09
 80.55562    -34.5 1.309e+04 5.207e-09
 80.57297    -34.3 1.290e+04 5.123e-09
 80.59273    -33.9 1.275e+04 4.630e-09
 80.61250    -33.5 1.265e+04 3.972e-09
 80.63227    -33.0 1.251e+04 3.348e-09
 80.65204    -32.5 1.234e+04 2.887e-09
 80.67180    -32.0 1.225e+04 2.673e-09
 80.70155    -31.1 1.222e+04 2.551e-09
 80.74118    -29.8 1.202e+04 2.516e-09
 80.76179    -27.8 1.172e+04 2.175e-09
 80.78156    -28.8 1.170e+04 2.510e-09
 80.81630    -26.3 1.151e+04 1.785e-09
 80.83607    -26.2 1.156e+04 2.045e-09
 80.85979    -23.8 1.153e+04 1.441e-09
 80.89932    -21.6 1.152e+04 1.121e-09
 80.93886    -19.4 1.146e+04 9.969e-10
 80.97839    -17.1 1.143e+04 9.756e-10
 81.01793    -14.9 1.142e+04 1.059e-09
 81.05746    -13.1 1.133e+04 1.365e-09
 81.09655    -11.4 1.127e+04 1.818e-09
 81.11631    -10.8 1.141e+04 2.892e-09
 81.13653     -9.2 1.149e+04 3.562e-09
 81.17607     -7.8 1.164e+04 3.996e-09
 81.20562     -7.0 1.148e+04 3.605e-09
 81.22529     -6.9 1.143e+04 3.551e-09
 81.25504     -5.8 1.142e+04 3.286e-09
 81.29467     -4.7 1.122e+04 2.594e-09
 81.32025     -3.4 1.099e+04 1.937e-09
 81.34002     -3.8 1.096e+04 2.348e-09
 81.37374     -2.6 1.094e+04 2.145e-09
 81.39656     -1.1 1.102e+04 2.183e-09
 81.40635     -0.6 1.113e+04 2.557e-09
 81.42297     -0.5 1.110e+04 2.534e-09
 81.44273      0.7 1.130e+04 2.631e-09
 81.46250      0.8 1.126e+04 2.651e-09
 81.48227      1.9 1.135e+04 2.947e-09
 81.50204      1.9 1.130e+04 3.045e-09
 81.52180      2.8 1.123e+04 3.404e-09
 81.53649      3.1 1.117e+04 3.436e-09
 81.54637      3.3 1.119e+04 4.063e-09
 81.56134      4.1 1.111e+04 3.936e-09
 81.58111      4.6 1.111e+04 3.394e-09
 81.61086      5.1 1.098e+04 2.505e-09
 81.65049      6.6 1.056e+04 1.407e-09
 81.67681      8.3 1.040e+04 9.056e-10
 81.69658      8.5 1.026e+04 1.085e-09
 81.72956     10.3 1.029e+04 8.962e-10
 81.76909     12.4 1.028e+04 8.606e-10
 81.80863     14.5 1.033e+04 8.934e-10
 81.84816     16.6 1.031e+04 1.072e-09
 81.87871     18.5 1.031e+04 1.270e-09
 81.89847     18.4 1.032e+04 1.296e-09
 81.92723     20.0 1.056e+04 1.608e-09
 81.95679     20.4 1.108e+04 2.178e-09
 81.96675     19.9 1.104e+04 2.686e-09
 81.97663     19.5 1.107e+04 3.950e-09
 81.99622     20.9 1.064e+04 6.300e-09
 82.01599     22.5 1.094e+04 6.236e-09
 82.03576     23.2 1.162e+04 4.368e-09
 82.05553     22.6 1.151e+04 3.718e-09
 82.07529     22.5 1.156e+04 3.049e-09
 82.09506     22.7 1.132e+04 2.964e-09
 82.12481     22.8 1.165e+04 2.352e-09
 82.16444     24.0 1.159e+04 2.255e-09
 82.20398     25.0 1.156e+04 2.578e-09
 82.23731     26.3 1.132e+04 3.504e-09
 82.25707     26.4 1.133e+04 3.653e-09
 82.28305     28.0 1.139e+04 4.739e-09
 82.32258     30.0 1.135e+04 4.324e-09
 82.36212     32.4 1.122e+04 2.999e-09
 82.40165     34.6 1.123e+04 1.927e-09
 82.43716     36.6 1.120e+04 1.532e-09
 82.45693     35.7 1.100e+04 1.441e-09
 82.48072     38.4 1.099e+04 1.452e-09
 82.51755     41.0 1.107e+04 1.548e-09
 82.53732     41.7 1.117e+04 1.978e-09
 82.55979     44.3 1.128e+04 2.206e-09
 82.59933     46.9 1.143e+04 2.582e-09
 82.62888     49.0 1.152e+04 2.936e-09
 82.64855     49.3 1.159e+04 3.041e-09
 82.66737     51.1 1.171e+04 3.791e-09
 82.67725     51.4 1.177e+04 4.098e-09
 82.68809     51.7 1.184e+04 4.293e-09
 82.71784     52.6 1.197e+04 5.308e-09
 82.75747     54.1 1.245e+04 8.470e-09
 82.79700     54.7 1.278e+04 1.092e-08
 82.81747     54.3 1.271e+04 1.036e-08
 82.82726     54.2 1.269e+04 1.031e-08
 82.84623     53.9 1.262e+04 9.738e-09
 82.87597     55.0 1.228e+04 7.830e-09
 82.91561     56.0 1.179e+04 4.225e-09
 82.95514     56.5 1.155e+04 2.025e-09
 82.99468     57.0 1.115e+04 1.541e-09
 83.01539     58.0 1.108e+04 1.607e-09
 83.03515     57.2 1.101e+04 1.597e-09
 83.07375     58.5 1.101e+04 1.731e-09
 83.09782     59.8 1.100e+04 1.731e-09
 83.11758     60.0 1.097e+04 1.759e-09
 83.15282     61.4 1.094e+04 1.617e-09
 83.19235     62.9 1.092e+04 1.408e-09
 83.23189     64.5 1.091e+04 1.254e-09
 83.27142     66.3 1.092e+04 1.216e-09
 83.31096     68.2 1.095e+04 1.235e-09
 83.35049     70.2 1.101e+04 1.290e-09
 83.37806     72.2 1.108e+04 1.350e-09
 83.39783     72.3 1.100e+04 1.558e-09
 83.42956     74.2 1.105e+04 1.667e-09
 83.46910     76.0 1.116e+04 1.834e-09
 83.50863     77.6 1.131e+04 2.154e-09
 83.54817     79.0 1.144e+04 2.590e-09
 83.57384     80.1 1.142e+04 2.915e-09
 83.58363     79.6 1.150e+04 3.292e-09
 83.59739     80.1 1.152e+04 3.479e-09
 83.61716     80.8 1.149e+04 3.493e-09
 83.63693     81.1 1.146e+04 3.473e-09
 83.65821     81.7 1.140e+04 3.293e-09
 83.67798     82.4 1.132e+04 3.091e-09
 83.70621     83.4 1.129e+04 2.766e-09
 83.74584     84.6 1.115e+04 2.393e-09
 83.78538     86.1 1.109e+04 2.393e-09
 83.82491     87.6 1.105e+04 2.566e-09
 83.86445     88.9 1.100e+04 2.882e-09
 83.90398     90.2 1.093e+04 3.006e-09
 83.93856     91.4 1.083e+04 2.938e-09
 83.95823     91.9 1.081e+04 2.802e-09
 83.97297     92.5 1.077e+04 2.750e-09
 83.99274     93.1 1.078e+04 2.799e-09
 84.01251     93.4 1.083e+04 3.079e-09
 84.03228     93.6 1.089e+04 3.816e-09
 84.05204     93.9 1.095e+04 5.127e-09
 84.07181     94.3 1.108e+04 7.025e-09
 84.08837     94.9 1.121e+04 9.114e-09
 84.09825     95.2 1.131e+04 9.317e-09
 84.11134     95.7 1.147e+04 1.115e-08
 84.13111     96.0 1.148e+04 1.112e-08
 84.14199     96.3 1.134e+04 1.028e-08
 84.15187     95.6 1.127e+04 9.595e-09
 84.17065     95.8 1.091e+04 6.787e-09
 84.19041     95.6 1.052e+04 4.465e-09
 84.21871     95.4 1.005e+04 2.440e-09
 84.23848     95.6 1.019e+04 2.567e-09
 84.24972     95.7 9.874e+03 1.729e-09
 84.26948     95.7 9.807e+03 1.583e-09
 84.29923     96.2 9.613e+03 1.483e-09
 84.33887     97.7 9.462e+03 1.455e-09
 84.37840     99.6 9.462e+03 1.510e-09
 84.41794    101.6 9.563e+03 1.717e-09
 84.45747    103.7 9.793e+03 2.045e-09
 84.48702    104.8 9.944e+03 2.276e-09
 84.50669    105.6 1.003e+04 2.446e-09
 84.51863    106.4 1.010e+04 2.724e-09
 84.52851    106.0 1.022e+04 3.196e-09
 84.54623    107.3 1.024e+04 3.585e-09
 84.56600    108.5 1.043e+04 3.946e-09
 84.58576    107.6 1.202e+04 5.473e-09
 84.60553    105.8 1.465e+04 1.120e-08
 84.62031    105.3 1.550e+04 1.458e-08
 84.63014    104.3 1.674e+04 2.109e-08
 84.64003    102.4 1.768e+04 4.386e-08
 84.64991    100.8 1.784e+04 9.467e-08
 84.65865    100.1 1.772e+04 1.774e-07
 84.66359     99.3 1.773e+04 2.190e-07
 84.66968     99.7 1.773e+04 2.792e-07
 84.67956    100.4 1.793e+04 3.230e-07
 84.68945    100.9 1.816e+04 3.060e-07
 84.69933    100.7 1.873e+04 2.351e-07
 84.70529     99.8 1.974e+04 1.426e-07
 84.71023    101.8 1.881e+04 2.804e-07
 84.71910    100.2 2.033e+04 1.749e-07
 84.72871     95.6 2.249e+04 8.377e-08
 84.73366     91.4 2.127e+04 3.967e-08
 84.73886     83.1 1.766e+04 2.755e-08
 84.74875     76.6 1.406e+04 3.043e-08
 84.75863     73.3 1.391e+04 3.581e-08
 84.76852     71.7 1.427e+04 4.760e-08
 84.77840     70.6 1.455e+04 5.339e-08
 84.78828     70.1 1.450e+04 5.288e-08
 84.79883     69.9 1.448e+04 4.942e-08
 84.80876     69.0 1.437e+04 4.608e-08
 84.82297     66.2 1.370e+04 2.505e-08
 84.84274     61.0 1.254e+04 9.495e-09
 84.86251     55.9 1.089e+04 5.776e-09
 84.88228     55.0 1.067e+04 5.754e-09
 84.90204     54.9 1.074e+04 5.839e-09
 84.92181     55.0 1.086e+04 5.836e-09
 84.93900     55.5 1.088e+04 5.765e-09
 84.94888     55.0 1.091e+04 5.846e-09
 84.96135     55.7 1.090e+04 5.457e-09
 84.97967     56.6 1.088e+04 4.926e-09
 84.98956     56.6 1.103e+04 5.305e-09
 85.00088     57.6 1.102e+04 4.913e-09
 85.02065     58.5 1.098e+04 4.478e-09
 85.04042     59.5 1.093e+04 4.038e-09
 85.06018     60.6 1.090e+04 3.799e-09
 85.07912     61.6 1.088e+04 3.654e-09
 85.08901     61.1 1.093e+04 3.753e-09
 85.09972     62.1 1.089e+04 3.735e-09
 85.11949     63.0 1.090e+04 3.783e-09
 85.13925     63.6 1.099e+04 3.996e-09
 85.15902     63.7 1.116e+04 4.578e-09
 85.17879     63.6 1.139e+04 5.851e-09
 85.19856     63.2 1.170e+04 8.281e-09
 85.21832     62.7 1.211e+04 1.188e-08
 85.22913     61.9 1.247e+04 1.543e-08
 85.23901     59.6 1.265e+04 1.611e-08
 85.25786     57.9 1.285e+04 1.743e-08
 85.26879     55.8 1.283e+04 1.725e-08
 85.27867     55.4 1.280e+04 1.709e-08
 85.29739     53.3 1.257e+04 1.608e-08
 85.31716     51.5 1.227e+04 1.474e-08
 85.33693     50.2 1.197e+04 1.379e-08
 85.35670     49.0 1.178e+04 1.274e-08
 85.36925     48.0 1.159e+04 1.167e-08
 85.37914     45.9 1.139e+04 1.025e-08
 85.39623     45.4 1.113e+04 8.933e-09
 85.41600     45.0 1.093e+04 8.065e-09
 85.43577     45.1 1.070e+04 7.018e-09
 85.45553     45.0 1.048e+04 5.964e-09
 85.47530     45.1 1.026e+04 5.055e-09
 85.49507     45.3 1.014e+04 4.516e-09
 85.50938     45.7 1.001e+04 4.437e-09
 85.51926     45.1 9.953e+03 4.289e-09
 85.53460     45.7 9.995e+03 4.386e-09
 85.54801     45.9 1.019e+04 4.847e-09
 85.55790     47.2 1.008e+04 4.457e-09
 85.57414     47.3 1.038e+04 5.440e-09
 85.59391     47.4 1.079e+04 7.525e-09
 85.61367     47.6 1.123e+04 1.088e-08
 85.63344     48.0 1.178e+04 1.531e-08
 85.64950     48.2 1.227e+04 2.028e-08
 85.65938     46.8 1.224e+04 1.989e-08
 85.67298     46.1 1.276e+04 2.392e-08
 85.69274     44.5 1.334e+04 2.914e-08
 85.71251     42.9 1.350e+04 2.973e-08
 85.73228     42.0 1.317e+04 2.449e-08
 85.75205     40.4 1.261e+04 1.525e-08
 85.77181     37.3 1.190e+04 8.553e-09
 85.78962     34.5 1.101e+04 6.418e-09
 85.79951     33.8 1.090e+04 6.228e-09
 85.81135     33.0 1.094e+04 6.371e-09
 85.82724     31.8 1.159e+04 7.651e-09
 85.83713     33.3 1.107e+04 6.477e-09
 85.85088     29.1 1.371e+04 1.245e-08
 85.87065     23.5 1.564e+04 4.707e-08
 85.89042     22.6 1.597e+04 1.178e-07
 85.91019     23.9 1.525e+04 9.797e-08
 85.92975     27.3 1.363e+04 3.748e-08
 85.93963     26.0 1.269e+04 2.933e-08
 85.94972     24.0 1.240e+04 9.377e-09
 85.96949     19.7 1.066e+04 3.443e-09
 85.98926     17.6 9.594e+03 2.011e-09
 86.00902     17.5 9.363e+03 1.933e-09
 86.03877     19.3 9.298e+03 2.056e-09
 86.07840     20.5 9.278e+03 2.064e-09
 86.11794     21.3 9.627e+03 2.463e-09
 86.14749     22.1 9.655e+03 2.922e-09
 86.16716     21.2 1.003e+04 4.370e-09
 86.19691     21.7 1.033e+04 7.247e-09
 86.22008     23.4 1.045e+04 7.402e-09
 86.22986     23.8 1.038e+04 8.293e-09
 86.24623     24.3 1.034e+04 7.959e-09
 86.26600     25.2 1.031e+04 6.078e-09
 86.28577     25.2 1.027e+04 5.151e-09
 86.30554     25.1 1.021e+04 3.963e-09
 86.32530     24.9 1.010e+04 3.620e-09
 86.34507     25.0 1.008e+04 3.491e-09
 86.36000     24.8 1.020e+04 3.599e-09
 86.36989     25.1 1.015e+04 3.509e-09
 86.38461     24.7 1.017e+04 3.978e-09
 86.39558     25.0 1.011e+04 4.617e-09
 86.40547     25.5 1.012e+04 4.822e-09
 86.42414     25.8 1.017e+04 4.886e-09
 86.44391     26.4 1.005e+04 4.462e-09
 86.47366     27.0 1.000e+04 2.933e-09
 86.50032     27.7 9.529e+03 1.647e-09
 86.52009     27.0 9.784e+03 2.013e-09
 86.55282     27.6 9.282e+03 1.205e-09
 86.59236     28.6 9.184e+03 1.049e-09
 86.63189     29.7 9.222e+03 1.138e-09
 86.67143     31.2 9.219e+03 1.321e-09
 86.71096     32.9 9.263e+03 1.351e-09
 86.75050     34.3 9.364e+03 1.352e-09
 86.78057     35.2 9.556e+03 1.494e-09
 86.80034     32.6 1.019e+04 3.490e-09
 86.82957     33.0 1.065e+04 6.328e-09
 86.86910     34.1 1.082e+04 8.223e-09
 86.90864     35.7 1.051e+04 6.602e-09
 86.94435     36.7 1.020e+04 3.890e-09
 86.96412     36.5 9.963e+03 2.663e-09
 86.98771     36.3 9.638e+03 2.008e-09
 87.02724     37.0 9.421e+03 2.117e-09
 87.06082     38.3 9.342e+03 2.429e-09
 87.08059     37.5 9.309e+03 2.448e-09
 87.10631     39.1 9.424e+03 2.649e-09
 87.14585     40.5 9.526e+03 2.794e-09
 87.18538     41.8 9.560e+03 2.865e-09
 87.22492     42.9 9.612e+03 2.835e-09
 87.26445     43.9 9.717e+03 2.897e-09
 87.30399     44.5 1.003e+04 3.434e-09
 87.34107     44.5 1.047e+04 5.266e-09
 87.36083     44.2 1.039e+04 5.388e-09
 87.38306     44.0 1.091e+04 7.819e-09
 87.42259     43.1 1.162e+04 9.955e-09
 87.46213     41.4 1.177e+04 9.508e-09
 87.50166     40.2 1.166e+04 6.808e-09
 87.52258     39.8 1.132e+04 3.933e-09
 87.54234     39.7 1.099e+04 3.167e-09
 87.58073     39.6 1.092e+04 1.608e-09
 87.62027     39.6 1.085e+04 1.087e-09
 87.64108     40.1 1.058e+04 9.994e-10
 87.66085     40.0 1.064e+04 9.307e-10
 87.69934     41.2 1.056e+04 9.667e-10
 87.73887     42.6 1.048e+04 9.548e-10
 87.77841     44.2 1.050e+04 8.469e-10
 87.81794     45.7 1.062e+04 7.633e-10
 87.85748     47.3 1.067e+04 7.759e-10
 87.89701     48.5 1.080e+04 8.894e-10
 87.92133     49.7 1.081e+04 1.296e-09
 87.94110     50.8 1.091e+04 1.525e-09
 87.97608     52.3 1.110e+04 1.993e-09
 88.01562     53.7 1.123e+04 2.357e-09
 88.05515     55.0 1.124e+04 2.488e-09
 88.08103     56.2 1.120e+04 2.476e-09
 88.10080     56.4 1.108e+04 1.784e-09
 88.13422     57.5 1.104e+04 1.604e-09
 88.17376     58.6 1.092e+04 1.470e-09
 88.20158     59.9 1.075e+04 1.343e-09
 88.22134     60.9 1.078e+04 1.868e-09
 88.25283     62.2 1.063e+04 1.673e-09
 88.29236     63.4 1.048e+04 1.472e-09
 88.33190     64.8 1.036e+04 1.244e-09
 88.37143     66.2 1.033e+04 1.055e-09
 88.41097     67.8 1.009e+04 1.022e-09
 88.45050     69.6 1.002e+04 1.030e-09
 88.48182     71.4 9.941e+03 1.080e-09
 88.50159     71.0 9.925e+03 1.496e-09
 88.52957     73.1 9.758e+03 1.709e-09
 88.56911     75.5 9.774e+03 2.415e-09
 88.60864     76.7 1.013e+04 3.457e-09
 88.63173     77.3 1.046e+04 4.973e-09
 88.64152     77.1 1.048e+04 4.964e-09
 88.64918     77.4 1.066e+04 6.788e-09
 88.65906     77.8 1.089e+04 7.345e-09
 88.67763     78.2 1.113e+04 1.014e-08
 88.69740     78.8 1.130e+04 1.202e-08
 88.71717     79.2 1.131e+04 1.201e-08
 88.73694     79.4 1.124e+04 1.130e-08
 88.75670     79.6 1.099e+04 9.159e-09
 88.77176     79.5 1.065e+04 6.902e-09
 88.78164     79.4 1.040e+04 6.908e-09
 88.79624     79.5 1.017e+04 5.839e-09
 88.81601     79.7 9.975e+03 5.073e-09
 88.83577     80.2 9.820e+03 4.479e-09
 88.85554     80.7 9.717e+03 4.044e-09
 88.87531     81.2 9.616e+03 3.827e-09
 88.89508     81.8 9.596e+03 3.827e-09
 88.91188     82.4 9.605e+03 3.897e-09
 88.92177     82.4 9.507e+03 3.771e-09
 88.92841     83.0 9.499e+03 3.900e-09
 88.93829     82.7 9.688e+03 4.599e-09
 88.95438     83.4 9.716e+03 4.820e-09
 88.97415     84.1 9.758e+03 5.104e-09
 88.99391     84.8 9.800e+03 5.411e-09
 89.01368     85.4 9.837e+03 5.725e-09
 89.03345     86.1 9.862e+03 6.023e-09
 89.05201     86.7 9.878e+03 6.309e-09
 89.06189     86.7 9.749e+03 6.107e-09
 89.07298     87.4 9.804e+03 6.549e-09
 89.09275     88.1 9.882e+03 7.094e-09
 89.11252     88.7 9.983e+03 7.747e-09
 89.13229     89.4 1.008e+04 8.418e-09
 89.15205     90.0 1.016e+04 8.970e-09
 89.17182     90.7 1.018e+04 9.312e-09
 89.19159     91.3 1.015e+04 9.397e-09
 89.20202     91.9 1.010e+04 9.394e-09
 89.20818     91.6 1.002e+04 9.349e-09
 89.21752     91.3 1.010e+04 9.700e-09
 89.23112     92.0 1.009e+04 9.721e-09
 89.25089     92.7 1.017e+04 1.003e-08
 89.28064     92.9 1.051e+04 1.152e-08
 89.31029     92.6 1.090e+04 1.433e-08
 89.32996     92.2 1.160e+04 1.954e-08
 89.34214     91.5 1.224e+04 2.570e-08
 89.35202     91.1 1.161e+04 1.956e-08
 89.36950     90.2 1.193e+04 2.165e-08
 89.38926     89.2 1.193e+04 2.099e-08
 89.40903     87.7 1.185e+04 1.820e-08
 89.42880     84.9 1.213e+04 1.795e-08
 89.44857     80.3 1.343e+04 2.116e-08
 89.46833     71.9 1.735e+04 4.542e-08
 89.48221     66.5 1.966e+04 8.587e-08
 89.48711     60.9 2.001e+04 2.820e-07
 89.49171     60.2 1.915e+04 4.197e-07
 89.49665     60.4 1.900e+04 3.623e-07
 89.50283     60.4 1.846e+04 4.539e-07
 89.51271     61.0 1.834e+04 4.449e-07
 89.52260     61.8 1.819e+04 4.122e-07
 89.53248     62.3 1.818e+04 3.445e-07
 89.54236     62.5 1.823e+04 2.487e-07
 89.55223     62.6 1.815e+04 1.790e-07
 89.56710     60.9 1.721e+04 7.561e-08
 89.58694     58.7 1.488e+04 3.674e-08
 89.60671     57.1 1.211e+04 2.360e-08
 89.62239     57.1 1.138e+04 2.003e-08
 89.63227     56.7 1.051e+04 1.344e-08
 89.64624     57.6 1.057e+04 1.362e-08
 89.66601     58.2 1.056e+04 1.349e-08
 89.68578     58.6 1.050e+04 1.307e-08
 89.70554     58.9 1.042e+04 1.250e-08
 89.72531     59.0 1.034e+04 1.182e-08
 89.74508     59.2 1.026e+04 1.095e-08
 89.76251     59.4 1.012e+04 9.714e-09
 89.77239     59.7 1.005e+04 9.287e-09
 89.77597     59.9 9.895e+03 8.143e-09
 89.78586     60.4 9.950e+03 8.464e-09
 89.80438     60.7 9.758e+03 7.096e-09
 89.82415     60.9 9.586e+03 5.732e-09
 89.84392     60.9 9.440e+03 4.662e-09
 89.86368     60.9 9.364e+03 4.350e-09
 89.88345     61.0 9.365e+03 4.371e-09
 89.90263     61.3 9.432e+03 4.586e-09
 89.92250     61.7 9.489e+03 4.779e-09
 89.95283     62.0 9.651e+03 5.192e-09
 89.99237     62.2 9.744e+03 5.257e-09
 90.03190     62.6 9.733e+03 4.784e-09
 90.07144     63.5 9.609e+03 3.452e-09
 90.11097     64.6 9.483e+03 2.131e-09
 90.15051     65.9 9.421e+03 1.373e-09
 90.18308     67.5 9.388e+03 1.179e-09
 90.20284     66.9 9.313e+03 9.591e-10
 90.22958     68.9 9.296e+03 8.659e-10
 90.26911     71.0 9.374e+03 8.404e-10
 90.30865     73.1 9.418e+03 8.967e-10
 90.33463     75.2 9.559e+03 1.058e-09
 90.35439     75.5 9.358e+03 8.205e-10
 90.38772     77.4 9.538e+03 9.511e-10
 90.42725     79.2 9.680e+03 1.126e-09
 90.46332     80.9 9.771e+03 1.312e-09
 90.48309     80.2 9.740e+03 1.234e-09
 90.50632     81.7 9.865e+03 1.512e-09
 90.54586     82.8 1.003e+04 2.027e-09
 90.58539     83.5 1.029e+04 2.943e-09
 90.62493     83.9 1.061e+04 3.953e-09
 90.66446     83.6 1.077e+04 4.061e-09
 90.70400     83.5 1.077e+04 3.703e-09
 90.74353     83.5 1.076e+04 2.664e-09
 90.78307     83.0 1.078e+04 1.032e-09
 90.82260     83.0 1.083e+04 8.081e-10
 90.86214     83.5 1.082e+04 8.105e-10
 90.89308     84.2 1.086e+04 8.748e-10
 90.91285     84.5 1.062e+04 8.164e-10
 90.94121     85.3 1.075e+04 9.368e-10
 90.98074     86.1 1.085e+04 1.133e-09
 91.02028     87.1 1.101e+04 1.347e-09
 91.04359     88.0 1.120e+04 1.439e-09
 91.06336     88.5 1.117e+04 1.308e-09
 91.09935     89.6 1.121e+04 1.287e-09
 91.13888     90.8 1.134e+04 1.196e-09
 91.17842     92.2 1.145e+04 1.065e-09
 91.21795     93.6 1.157e+04 9.705e-10
 91.25749     95.1 1.160e+04 9.603e-10
 91.29702     96.7 1.163e+04 9.744e-10
 91.32384     98.1 1.171e+04 1.037e-09
 91.34360     98.9 1.171e+04 1.050e-09
 91.37609    100.4 1.189e+04 1.399e-09
 91.41563    101.5 1.213e+04 2.032e-09
 91.44518    101.4 1.226e+04 2.527e-09
 91.46123    101.5 1.238e+04 3.098e-09
 91.47003    101.0 1.237e+04 3.184e-09
 91.47365    101.1 1.236e+04 3.080e-09
 91.48462    101.0 1.254e+04 3.866e-09
 91.50438    100.6 1.284e+04 5.192e-09
 91.52415     99.3 1.331e+04 8.398e-09
 91.54392     97.4 1.389e+04 1.692e-08
 91.56369     95.5 1.459e+04 3.389e-08
 91.58345     93.4 1.530e+04 4.908e-08
 91.60322     90.9 1.545e+04 4.901e-08
 91.61377     88.8 1.539e+04 3.944e-08
 91.62366     89.1 1.511e+04 3.590e-08
 91.64276     87.5 1.493e+04 2.160e-08
 91.66252     86.0 1.497e+04 9.403e-09
 91.68229     83.9 1.534e+04 3.758e-09
 91.70206     82.1 1.490e+04 2.824e-09
 91.72183     81.8 1.485e+04 2.802e-09
 91.74046     81.8 1.492e+04 2.826e-09
 91.75034     82.3 1.490e+04 2.832e-09
 91.75390     82.2 1.508e+04 2.961e-09
 91.76378     82.5 1.498e+04 3.130e-09
 91.78113     82.3 1.508e+04 3.742e-09
 91.80090     82.1 1.517e+04 4.672e-09
 91.82066     81.5 1.529e+04 5.984e-09
 91.84043     80.3 1.548e+04 8.036e-09
 91.86020     78.2 1.568e+04 1.208e-08
 91.87997     75.5 1.583e+04 2.002e-08
 91.89402     72.4 1.601e+04 3.050e-08
 91.90390     72.1 1.636e+04 4.267e-08
 91.91950     68.4 1.633e+04 4.126e-08
 91.93927     65.1 1.599e+04 3.257e-08
 91.95904     63.1 1.538e+04 2.023e-08
 91.97880     61.5 1.488e+04 1.236e-08
 92.00855     60.2 1.442e+04 6.154e-09
 92.02976     59.5 1.442e+04 2.501e-09
 92.04953     59.7 1.434e+04 3.279e-09
 92.08772     59.9 1.382e+04 2.561e-09
 92.12725     61.0 1.349e+04 2.513e-09
 92.16458     62.3 1.339e+04 2.458e-09
 92.18435     61.8 1.343e+04 2.749e-09
 92.20632     63.0 1.339e+04 2.500e-09
 92.24586     63.8 1.348e+04 2.190e-09
 92.28539     64.4 1.345e+04 2.102e-09
 92.32493     65.0 1.331e+04 2.397e-09
 92.36446     66.0 1.301e+04 3.288e-09
 92.40400     66.9 1.286e+04 4.484e-09
 92.44353     67.5 1.277e+04 4.594e-09
 92.46459     68.3 1.257e+04 3.971e-09
 92.48436     67.2 1.257e+04 4.134e-09
 92.52260     68.5 1.240e+04 2.472e-09
 92.56214     69.7 1.245e+04 1.366e-09
 92.58822     71.0 1.225e+04 9.973e-10
 92.60799     71.4 1.220e+04 8.993e-10
 92.64121     73.2 1.195e+04 8.980e-10
 92.68074     75.2 1.187e+04 8.865e-10
 92.72028     77.3 1.178e+04 8.565e-10
 92.74484     79.3 1.170e+04 7.875e-10
 92.76461     78.7 1.173e+04 6.445e-10
 92.79935     80.7 1.173e+04 5.805e-10
 92.83888     82.5 1.166e+04 5.546e-10
 92.87842     84.3 1.174e+04 5.593e-10
 92.91795     85.7 1.182e+04 6.532e-10
 92.95749     86.9 1.176e+04 1.019e-09
 92.99702     88.2 1.168e+04 1.884e-09
 93.02509     89.5 1.171e+04 3.215e-09
 93.04486     88.0 1.183e+04 4.075e-09
 93.07609     88.8 1.171e+04 4.140e-09
 93.11563     89.9 1.145e+04 3.428e-09
 93.14668     91.4 1.117e+04 2.224e-09
 93.16644     92.7 1.118e+04 2.443e-09
 93.19470     94.3 1.101e+04 1.515e-09
 93.23423     96.0 1.091e+04 9.787e-10
 93.27377     97.8 1.068e+04 8.530e-10
 93.30534    100.0 1.066e+04 8.632e-10
 93.32510     99.4 1.073e+04 9.124e-10
 93.35284    101.7 1.069e+04 1.003e-09
 93.39237    104.0 1.066e+04 1.123e-09
 93.43191    106.3 1.065e+04 1.246e-09
 93.47144    108.4 1.065e+04 1.337e-09
 93.51098    110.5 1.067e+04 1.389e-09
 93.55051    112.6 1.070e+04 1.439e-09
 93.58558    114.5 1.071e+04 1.507e-09
 93.60535    113.4 1.077e+04 1.496e-09
 93.62958    115.2 1.080e+04 1.587e-09
 93.66912    117.1 1.083e+04 1.684e-09
 93.70513    118.9 1.084e+04 1.768e-09
 93.72490    120.2 1.080e+04 1.644e-09
 93.74819    122.2 1.082e+04 1.762e-09
 93.78772    124.2 1.082e+04 1.880e-09
 93.82726    126.3 1.078e+04 2.001e-09
 93.86583    128.5 1.084e+04 2.106e-09
 93.88560    127.7 1.113e+04 2.502e-09
 93.89635    129.0 1.113e+04 2.667e-09
 93.91602    129.3 1.113e+04 2.721e-09
 93.93578    130.5 1.110e+04 2.852e-09
 93.95555    131.6 1.108e+04 3.136e-09
 93.97532    132.7 1.113e+04 3.626e-09
 93.99405    133.5 1.120e+04 4.122e-09
 94.00393    134.2 1.123e+04 4.394e-09
 94.01485    134.9 1.139e+04 4.988e-09
 94.02553    135.3 1.151e+04 5.357e-09
 94.03541    134.8 1.174e+04 6.526e-09
 94.06437    135.8 1.172e+04 5.966e-09
 94.10400    136.1 1.182e+04 5.795e-09
 94.14354    136.2 1.194e+04 5.576e-09
 94.16585    136.4 1.199e+04 5.619e-09
 94.18561    134.4 1.219e+04 6.737e-09
 94.22261    134.8 1.222e+04 6.976e-09
 94.26214    134.7 1.223e+04 7.731e-09
 94.28336    134.3 1.210e+04 8.449e-09
 94.30313    135.4 1.213e+04 8.674e-09
 94.34121    134.6 1.205e+04 8.677e-09
 94.38075    134.7 1.199e+04 8.542e-09
 94.41030    133.6 1.211e+04 8.477e-09
 94.42997    132.6 1.211e+04 8.011e-09
 94.44590    131.9 1.194e+04 6.939e-09
 94.45578    130.8 1.189e+04 6.921e-09
 94.46951    130.2 1.159e+04 5.959e-09
 94.48927    129.7 1.129e+04 5.602e-09
 94.50904    129.3 1.122e+04 5.603e-09
 94.52881    129.0 1.117e+04 5.668e-09
 94.54858    128.5 1.108e+04 5.812e-09
 94.56239    128.0 1.104e+04 5.745e-09
 94.57227    128.9 1.107e+04 5.701e-09
 94.58602    128.5 1.092e+04 5.534e-09
 94.59591    127.7 1.066e+04 4.721e-09
 94.60788    127.4 1.048e+04 4.396e-09
 94.62765    127.1 1.032e+04 4.071e-09
 94.64741    126.8 1.019e+04 3.787e-09
 94.66718    126.4 1.009e+04 3.578e-09
 94.68695    126.1 1.004e+04 3.498e-09
 94.70672    125.8 9.995e+03 3.493e-09
 94.72615    125.4 9.984e+03 3.505e-09
 94.73603    124.8 9.946e+03 2.989e-09
 94.74625    124.6 9.962e+03 3.019e-09
 94.77600    123.5 1.004e+04 2.989e-09
 94.81563    123.5 9.968e+03 2.958e-09
 94.84181    124.0 9.702e+03 2.602e-09
 94.86158    125.7 9.852e+03 2.847e-09
 94.89470    126.3 9.539e+03 2.363e-09
 94.93424    126.8 9.183e+03 1.758e-09
 94.97377    127.3 8.909e+03 1.371e-09
 95.00659    128.1 8.852e+03 1.316e-09
 95.02636    128.8 8.861e+03 1.287e-09
 95.05284    129.8 8.865e+03 1.305e-09
 95.09238    130.7 8.968e+03 1.425e-09
 95.13191    131.4 9.300e+03 1.884e-09
 95.17145    131.6 9.719e+03 2.629e-09
 95.21098    131.5 1.004e+04 3.336e-09
 95.25052    131.4 1.006e+04 3.436e-09
 95.28684    131.9 9.932e+03 3.090e-09
 95.30660    132.2 1.001e+04 3.185e-09
 95.32959    132.9 9.804e+03 2.536e-09
 95.36912    133.9 9.538e+03 2.032e-09
 95.40027    135.3 9.492e+03 1.987e-09
 95.42004    135.4 9.697e+03 2.241e-09
 95.44819    136.5 9.634e+03 2.221e-09
 95.47775    137.8 9.656e+03 2.511e-09
 95.49742    138.1 9.862e+03 3.323e-09
 95.51718    137.9 1.034e+04 5.165e-09
 95.53695    137.3 1.132e+04 9.419e-09
 95.55672    136.2 1.274e+04 1.848e-08
 95.57649    134.5 1.417e+04 3.368e-08
 95.58666    131.8 1.527e+04 5.180e-08
 95.59654    131.4 1.657e+04 8.991e-08
 95.61602    127.7 1.714e+04 1.096e-07
 95.63579    123.3 1.734e+04 1.127e-07
 95.65556    118.7 1.730e+04 1.092e-07
 95.67532    114.2 1.705e+04 9.706e-08
 95.68919    110.3 1.652e+04 7.965e-08
 95.69907    111.7 1.601e+04 6.594e-08
 95.71486    108.7 1.539e+04 5.237e-08
 95.72678    106.1 1.449e+04 3.699e-08
 95.73666    104.8 1.423e+04 3.316e-08
 95.75439    102.7 1.325e+04 2.353e-08
 95.77416    101.2 1.233e+04 1.632e-08
 95.79393    100.1 1.156e+04 1.135e-08
 95.81369     99.0 1.099e+04 8.299e-09
 95.83346     98.2 1.058e+04 6.619e-09
 95.85323     97.6 1.024e+04 5.676e-09
 95.86690     97.3 9.959e+03 5.063e-09
 95.87679     96.8 9.868e+03 4.760e-09
 95.89276     96.6 9.626e+03 4.098e-09
 95.91253     96.2 9.453e+03 3.474e-09
 95.93230     95.7 9.313e+03 3.038e-09
 95.95863     94.9 9.188e+03 2.731e-09
 95.97840     95.0 9.167e+03 2.784e-09
 95.99160     94.9 9.132e+03 2.824e-09
 96.00703     94.9 9.145e+03 2.885e-09
 96.01691     94.4 9.164e+03 2.916e-09
 96.03114     94.1 9.312e+03 3.416e-09
 96.05090     93.5 9.548e+03 4.295e-09
 96.07067     92.9 9.867e+03 5.741e-09
 96.09044     92.4 1.027e+04 7.906e-09
 96.11021     92.0 1.066e+04 1.058e-08
 96.12997     91.5 1.094e+04 1.235e-08
 96.14715     90.5 1.098e+04 1.239e-08
 96.15704     89.8 1.067e+04 1.039e-08
 96.16951     88.8 1.056e+04 9.531e-09
 96.18928     87.7 1.029e+04 8.233e-09
 96.20904     86.5 1.005e+04 7.203e-09
 96.22881     85.5 9.846e+03 6.428e-09
 96.24764     84.7 9.644e+03 5.986e-09
 96.25753     84.1 9.502e+03 5.530e-09
 96.26835     83.8 9.465e+03 5.561e-09
 96.28728     83.6 9.487e+03 5.785e-09
 96.29716     83.6 9.310e+03 5.005e-09
 96.30788     83.5 9.431e+03 5.590e-09
 96.32765     83.4 9.609e+03 6.444e-09
 96.34742     83.5 9.795e+03 7.376e-09
 96.36718     83.5 9.944e+03 7.930e-09
 96.38695     83.5 9.978e+03 7.936e-09
 96.40672     83.3 9.978e+03 7.778e-09
 96.42649     83.1 9.980e+03 7.658e-09
 96.43728     82.7 1.004e+04 7.781e-09
 96.44717     82.5 1.006e+04 7.601e-09
 96.46602     80.8 1.050e+04 9.094e-09
 96.48579     78.5 1.151e+04 1.421e-08
 96.50556     76.4 1.264e+04 2.405e-08
 96.52532     74.6 1.333e+04 3.124e-08
 96.53676     72.7 1.334e+04 3.039e-08
 96.54664     72.8 1.348e+04 3.146e-08
 96.56486     71.3 1.306e+04 2.362e-08
 96.57741     69.4 1.231e+04 1.252e-08
 96.58729     68.2 1.199e+04 1.005e-08
 96.60439     65.0 1.120e+04 5.369e-09
 96.63414     62.6 1.016e+04 3.373e-09
 96.67378     62.0 9.463e+03 2.762e-09
 96.70784     62.2 9.259e+03 2.719e-09
 96.72761     63.6 9.565e+03 3.056e-09
 96.75285     63.9 9.688e+03 3.430e-09
 96.79238     64.2 9.936e+03 4.184e-09
 96.83192     64.3 1.021e+04 4.848e-09
 96.87145     63.9 1.039e+04 5.060e-09
 96.91099     62.8 1.081e+04 5.635e-09
 96.94054     61.9 1.132e+04 7.366e-09
 96.96021     61.0 1.177e+04 1.014e-08
 96.97998     60.1 1.194e+04 1.261e-08
 96.99778     59.5 1.195e+04 1.428e-08
 97.00766     59.5 1.259e+04 2.080e-08
 97.01951     59.1 1.233e+04 1.818e-08
 97.03928     58.5 1.209e+04 1.552e-08
 97.05905     57.9 1.186e+04 1.347e-08
 97.07881     57.2 1.168e+04 1.146e-08
 97.09521     56.5 1.146e+04 1.035e-08
 97.10510     57.0 1.137e+04 1.026e-08
 97.11835     56.3 1.138e+04 1.031e-08
 97.13790     55.7 1.141e+04 1.052e-08
 97.14779     55.6 1.153e+04 1.114e-08
 97.15788     55.1 1.155e+04 1.125e-08
 97.17765     54.5 1.161e+04 1.131e-08
 97.19742     53.8 1.177e+04 1.195e-08
 97.21719     53.2 1.198e+04 1.323e-08
 97.23695     52.5 1.225e+04 1.512e-08
 97.25672     51.0 1.291e+04 1.936e-08
 97.27649     47.6 1.446e+04 3.404e-08
 97.28791     44.0 1.634e+04 7.659e-08
 97.29779     45.7 1.548e+04 5.352e-08
 97.31602     43.0 1.664e+04 9.290e-08
 97.33579     40.4 1.674e+04 9.206e-08
 97.35556     38.1 1.629e+04 6.608e-08
 97.37444     34.8 1.528e+04 3.884e-08
 97.38433     34.6 1.515e+04 3.716e-08
 97.39509     31.5 1.382e+04 2.535e-08
 97.41486     30.0 1.291e+04 2.061e-08
 97.42803     29.9 1.261e+04 1.850e-08
 97.43792     30.4 1.276e+04 1.902e-08
 97.45440     30.4 1.256e+04 1.811e-08
 97.47416     30.1 1.269e+04 1.862e-08
 97.49393     29.0 1.343e+04 2.296e-08
 97.51370     27.1 1.463e+04 3.600e-08
 97.53347     25.3 1.573e+04 5.850e-08
 97.55323     22.8 1.678e+04 8.483e-08
 97.56816     19.6 1.752e+04 1.023e-07
 97.57804     22.5 1.618e+04 6.306e-08
 97.59277     19.5 1.641e+04 6.048e-08
 97.61254     16.4 1.629e+04 6.054e-08
 97.63230     13.6 1.629e+04 6.815e-08
 97.65207     11.7 1.647e+04 7.911e-08
 97.66355      9.9 1.674e+04 9.034e-08
 97.67344     10.9 1.684e+04 9.013e-08
 97.69161      8.8 1.734e+04 1.046e-07
 97.70828      6.1 1.770e+04 1.219e-07
 97.71817      9.1 1.724e+04 9.073e-08
 97.73114      6.3 1.771e+04 1.257e-07
 97.75091      3.8 1.776e+04 1.381e-07
 97.77068      1.2 1.737e+04 1.201e-07
 97.79044     -1.5 1.658e+04 7.660e-08
 97.81021     -4.1 1.550e+04 4.626e-08
 97.82998     -6.6 1.393e+04 2.966e-08
 97.84841     -8.6 1.313e+04 2.529e-08
 97.85829     -7.6 1.321e+04 2.546e-08
 97.86951     -8.4 1.297e+04 2.307e-08
 97.88928     -8.8 1.321e+04 2.234e-08
 97.90905     -9.8 1.348e+04 2.182e-08
 97.92882    -11.3 1.364e+04 2.272e-08
 97.94278    -12.8 1.369e+04 2.459e-08
 97.95267    -12.9 1.413e+04 2.651e-08
 97.96835    -14.7 1.423e+04 3.228e-08
 97.98812    -16.0 1.449e+04 3.734e-08
 97.99836    -17.4 1.466e+04 3.657e-08
 98.00326    -16.6 1.459e+04 3.652e-08
 98.01273    -16.9 1.476e+04 3.764e-08
 98.02261    -19.6 1.550e+04 4.636e-08
 98.03250    -21.7 1.622e+04 6.195e-08
 98.04238    -23.9 1.654e+04 8.250e-08
 98.05226    -25.0 1.672e+04 9.358e-08
 98.06215    -26.2 1.676e+04 9.246e-08
 98.06838    -27.5 1.637e+04 7.040e-08
 98.07332    -26.3 1.683e+04 8.569e-08
 98.08691    -29.4 1.576e+04 4.515e-08
 98.10672    -33.9 1.450e+04 1.905e-08
 98.12649    -38.9 1.291e+04 9.074e-09
 98.13854    -40.3 1.251e+04 7.453e-09
 98.14842    -39.1 1.250e+04 7.853e-09
 98.16603    -39.6 1.250e+04 7.437e-09
 98.18579    -40.0 1.254e+04 6.775e-09
 98.20556    -40.6 1.242e+04 5.742e-09
 98.22201    -41.2 1.219e+04 4.801e-09
 98.23189    -41.5 1.213e+04 4.554e-09
 98.24510    -41.8 1.193e+04 4.100e-09
 98.26486    -41.8 1.180e+04 3.838e-09
 98.27866    -41.7 1.172e+04 3.606e-09
 98.28854    -40.9 1.181e+04 3.742e-09
 98.30440    -40.7 1.178e+04 3.547e-09
 98.32417    -40.5 1.178e+04 3.316e-09
 98.34393    -40.3 1.179e+04 3.063e-09
 98.36370    -40.2 1.180e+04 2.829e-09
 98.38347    -40.1 1.183e+04 2.667e-09
 98.40900    -39.6 1.186e+04 2.587e-09
 98.42877    -39.0 1.185e+04 2.751e-09
 98.44277    -38.5 1.185e+04 2.626e-09
 98.46254    -38.4 1.183e+04 2.590e-09
 98.49229    -37.6 1.177e+04 2.438e-09
 98.53192    -37.0 1.170e+04 2.204e-09
 98.57145    -36.3 1.177e+04 2.017e-09
 98.61099    -35.7 1.172e+04 1.909e-09
 98.65052    -35.0 1.185e+04 1.933e-09
 98.68934    -34.3 1.191e+04 1.942e-09
 98.70901    -33.3 1.237e+04 1.998e-09
 98.71951    -32.7 1.240e+04 2.005e-09
 98.73928    -32.5 1.239e+04 2.040e-09
 98.76903    -32.0 1.252e+04 2.186e-09
 98.79055    -31.3 1.261e+04 2.335e-09
 98.81031    -30.5 1.275e+04 2.484e-09
 98.84820    -30.0 1.298e+04 3.927e-09
 98.88773    -29.1 1.297e+04 7.109e-09
 98.91729    -29.2 1.310e+04 1.140e-08
 98.93696    -29.2 1.306e+04 1.523e-08
 98.95672    -28.6 1.320e+04 2.102e-08
 98.97649    -28.1 1.346e+04 2.467e-08
 98.98916    -27.4 1.371e+04 2.781e-08
 98.99905    -28.1 1.329e+04 2.254e-08
 99.01603    -28.1 1.318e+04 1.999e-08
 99.03579    -28.2 1.305e+04 1.790e-08
 99.05556    -28.5 1.291e+04 1.654e-08
 99.06958    -28.8 1.291e+04 1.600e-08
 99.07946    -28.2 1.328e+04 2.010e-08
 99.09510    -28.9 1.353e+04 2.201e-08
 99.11486    -29.9 1.397e+04 2.928e-08
 99.12929    -31.2 1.463e+04 3.911e-08
 99.13917    -30.8 1.461e+04 4.166e-08
 99.14941    -32.5 1.501e+04 4.853e-08
 99.15924    -33.3 1.533e+04 5.185e-08
 99.16913    -35.0 1.565e+04 5.500e-08
 99.17901    -36.3 1.571e+04 5.308e-08
 99.18890    -37.8 1.547e+04 4.434e-08
 99.19878    -38.1 1.541e+04 4.149e-08
 99.21365    -41.1 1.497e+04 2.365e-08
 99.23347    -44.4 1.393e+04 1.025e-08
 99.25324    -46.5 1.330e+04 5.808e-09
 99.26941    -47.1 1.303e+04 4.656e-09
 99.27930    -47.3 1.300e+04 5.213e-09
 99.29277    -47.4 1.286e+04 4.537e-09
 99.31254    -47.1 1.276e+04 3.798e-09
 99.33231    -46.8 1.269e+04 3.239e-09
 99.34891    -46.2 1.257e+04 2.955e-09
 99.36877    -47.0 1.272e+04 2.700e-09
 99.40169    -45.6 1.263e+04 2.519e-09
 99.44122    -44.2 1.256e+04 2.587e-09
 99.48076    -43.2 1.246e+04 3.130e-09
 99.52029    -42.3 1.225e+04 3.735e-09
 99.54985    -41.6 1.215e+04 3.933e-09
 99.56962    -42.1 1.213e+04 3.961e-09
 99.59936    -41.2 1.170e+04 3.652e-09
 99.63890    -40.2 1.149e+04 2.836e-09
 99.67843    -39.1 1.131e+04 2.154e-09
 99.71797    -37.8 1.109e+04 1.783e-09
 99.75750    -36.3 1.090e+04 1.627e-09
 99.79704    -34.5 1.077e+04 1.589e-09
 99.83010    -32.5 1.067e+04 1.600e-09
 99.84987    -33.2 1.063e+04 1.632e-09
 99.87611    -31.2 1.052e+04 1.545e-09
 99.90746    -29.1 1.039e+04 1.429e-09
 99.92723    -29.2 1.048e+04 1.453e-09
 99.95518    -27.1 1.037e+04 1.290e-09
 99.99471    -25.0 1.029e+04 1.160e-09
